Your comment line - do NOT delete this line
X-pos [m], Y-pos [m], Voltage [V]
-0.0005	-0.0004999	0.000751
-0.00075	-0.0004999	8.05e-09
-0.001	-0.0004999	0.000863
-0.00125	-0.0004999	0.000889
-0.0015	-0.0004999	0.000918
-0.00175	-0.0004999	0.000931
-0.002	-0.0004999	0.000933
-0.00225	-0.0004999	0.000908
-0.0025	-0.0004999	0.000912
-0.00275	-0.0004999	0.000887
-0.003	-0.0004999	8.28e-09
-0.00325	-0.0004999	0.0008
-0.0035	-0.0004999	0.000782
-0.00375	-0.0004999	0.000739
-0.004	-0.0004999	0.000699
-0.004	-0.0007499	7.81e-09
-0.00375	-0.0007499	8.14e-09
-0.0035	-0.0007499	0.000875
-0.00325	-0.0007499	0.0009
-0.003	-0.0007499	0.00095
-0.00275	-0.0007499	0.00098
-0.0025	-0.0007499	0.000998
-0.00225	-0.0007499	0.001008
-0.002	-0.0007499	1.025e-08
-0.00175	-0.0007499	0.001053
-0.0015	-0.0007499	0.001035
-0.00125	-0.0007499	0.000993
-0.001	-0.0007499	0.000973
-0.00075	-0.0007499	0.000909
-0.0005	-0.0007499	8.34e-09
-0.0005	-0.0009999	9.37e-09
-0.00075	-0.0009999	0.001016
-0.001	-0.0009999	0.001128
-0.00125	-0.0009999	0.001147
-0.0015	-0.0009999	0.001177
-0.00175	-0.0009999	0.001197
-0.002	-0.0009999	0.001187
-0.00225	-0.0009999	0.001127
-0.0025	-0.0009999	0.001116
-0.00275	-0.0009999	0.001096
-0.003	-0.0009999	0.001055
-0.00325	-0.0009999	0.001025
-0.0035	-0.0009999	0.000999
-0.00375	-0.0009999	0.00093
-0.004	-0.0009999	0.000883
-0.004	-0.0012499	0.000999
-0.00375	-0.0012499	0.001061
-0.0035	-0.0012499	0.00115
-0.00325	-0.0012499	0.001164
-0.003	-0.0012499	0.001175
-0.00275	-0.0012499	1.227e-08
-0.0025	-0.0012499	0.001204
-0.00225	-0.0012499	0.001238
-0.002	-0.0012499	0.001333
-0.00175	-0.0012499	0.001311
-0.0015	-0.0012499	0.00132
-0.00125	-0.0012499	0.001323
-0.001	-0.0012499	0.001272
-0.00075	-0.0012499	0.001143
-0.0005	-0.0012499	0.001029
-0.0005	-0.0014999	0.001132
-0.00075	-0.0014999	0.001278
-0.001	-0.0014999	0.001416
-0.00125	-0.0014999	0.001461
-0.0015	-0.0014999	0.001429
-0.00175	-0.0014999	0.001424
-0.002	-0.0014999	0.001446
-0.00225	-0.0014999	0.001368
-0.0025	-0.0014999	0.001293
-0.00275	-0.0014999	0.001337
-0.003	-0.0014999	0.001269
-0.00325	-0.0014999	0.00126
-0.0035	-0.0014999	0.001289
-0.00375	-0.0014999	0.001165
-0.004	-0.0014999	0.001079
-0.004	-0.0017499	0.001158
-0.00375	-0.0017499	0.001247
-0.0035	-0.0017499	0.001339
-0.00325	-0.0017499	0.001336
-0.003	-0.0017499	0.001363
-0.00275	-0.0017499	0.001454
-0.0025	-0.0017499	0.001407
-0.00225	-0.0017499	0.001473
-0.002	-0.0017499	0.001568
-0.00175	-0.0017499	0.001556
-0.0015	-0.0017499	0.001506
-0.00125	-0.0017499	0.00157
-0.001	-0.0017499	0.001497
-0.00075	-0.0017499	0.001354
-0.0005	-0.0017499	1.206e-08
-0.0005	-0.0019999	0.001308
-0.00075	-0.0019999	0.00144
-0.001	-0.0019999	0.001648
-0.00125	-0.0019999	0.001706
-0.0015	-0.0019999	0.001666
-0.00175	-0.0019999	0.001694
-0.002	-0.0019999	0.001711
-0.00225	-0.0019999	1.588e-08
-0.0025	-0.0019999	0.001493
-0.00275	-0.0019999	0.001534
-0.003	-0.0019999	0.001469
-0.00325	-0.0019999	0.001393
-0.0035	-0.0019999	0.001407
-0.00375	-0.0019999	0.00128
-0.004	-0.0019999	0.00124
-0.004	-0.0022499	0.001269
-0.00375	-0.0022499	0.001304
-0.0035	-0.0022499	0.001415
-0.00325	-0.0022499	0.001457
-0.003	-0.0022499	0.001581
-0.00275	-0.0022499	0.001683
-0.0025	-0.0022499	0.001571
-0.00225	-0.0022499	0.001671
-0.002	-0.0022499	0.001855
-0.00175	-0.0022499	0.001849
-0.0015	-0.0022499	0.001809
-0.00125	-0.0022499	0.001858
-0.001	-0.0022499	1.741e-08
-0.00075	-0.0022499	0.00153
-0.0005	-0.0022499	0.001354
-0.0005	-0.0024999	0.001395
-0.00075	-0.0024999	0.001571
-0.001	-0.0024999	0.001841
-0.00125	-0.0024999	0.002014
-0.0015	-0.0024999	0.001938
-0.00175	-0.0024999	0.001922
-0.002	-0.0024999	0.001999
-0.00225	-0.0024999	0.001756
-0.0025	-0.0024999	0.00166
-0.00275	-0.0024999	0.001841
-0.003	-0.0024999	1.692e-08
-0.00325	-0.0024999	0.001463
-0.0035	-0.0024999	0.001378
-0.00375	-0.0024999	0.001269
-0.004	-0.0024999	0.001281
-0.004	-0.0027499	0.001258
-0.00375	-0.0027499	0.001267
-0.0035	-0.0027499	0.001382
-0.00325	-0.0027499	0.001545
-0.003	-0.0027499	0.001864
-0.00275	-0.0027499	0.001959
-0.0025	-0.0027499	0.001822
-0.00225	-0.0027499	0.001889
-0.002	-0.0027499	0.002077
-0.00175	-0.0027499	0.002021
-0.0015	-0.0027499	2.045e-08
-0.00125	-0.0027499	2.112e-08
-0.001	-0.0027499	0.001978
-0.00075	-0.0027499	0.001647
-0.0005	-0.0027499	0.001447
-0.0005	-0.0029999	0.001537
-0.00075	-0.0029999	0.001726
-0.001	-0.0029999	0.002039
-0.00125	-0.0029999	0.002271
-0.0015	-0.0029999	0.002164
-0.00175	-0.0029999	0.002133
-0.002	-0.0029999	0.002188
-0.00225	-0.0029999	0.002024
-0.0025	-0.0029999	0.001993
-0.00275	-0.0029999	0.002125
-0.003	-0.0029999	0.00202
-0.00325	-0.0029999	0.001608
-0.0035	-0.0029999	0.001343
-0.00375	-0.0029999	0.001245
-0.004	-0.0029999	0.00126
-0.004	-0.0032499	0.001221
-0.00375	-0.0032499	0.001227
-0.0035	-0.0032499	0.001383
-0.00325	-0.0032499	0.001767
-0.003	-0.0032499	0.002218
-0.00275	-0.0032499	0.002231
-0.0025	-0.0032499	0.002143
-0.00225	-0.0032499	2.16e-08
-0.002	-0.0032499	0.002201
-0.00175	-0.0032499	0.002148
-0.0015	-0.0032499	0.002228
-0.00125	-0.0032499	0.002344
-0.001	-0.0032499	0.002123
-0.00075	-0.0032499	0.001813
-0.0005	-0.0032499	0.001583
-0.0005	-0.0034999	0.001699
-0.00075	-0.0034999	1.905e-08
-0.001	-0.0034999	0.002236
-0.00125	-0.0034999	0.00243
-0.0015	-0.0034999	0.0023
-0.00175	-0.0034999	0.002182
-0.002	-0.0034999	0.002193
-0.00225	-0.0034999	0.002244
-0.0025	-0.0034999	0.002296
-0.00275	-0.0034999	0.002471
-0.003	-0.0034999	0.002369
-0.00325	-0.0034999	1.945e-08
-0.0035	-0.0034999	0.001518
-0.00375	-0.0034999	0.001258
-0.004	-0.0034999	1.279e-08
-0.004	-0.0037499	0.001328
-0.00375	-0.0037499	0.00135
-0.0035	-0.0037499	0.00167
-0.00325	-0.0037499	0.002159
-0.003	-0.0037499	2.49e-08
-0.00275	-0.0037499	0.002588
-0.0025	-0.0037499	0.002455
-0.00225	-0.0037499	0.002326
-0.002	-0.0037499	0.002139
-0.00175	-0.0037499	0.002067
-0.0015	-0.0037499	0.002264
-0.00125	-0.0037499	0.00246
-0.001	-0.0037499	0.002357
-0.00075	-0.0037499	0.002018
-0.0005	-0.0037499	0.001784
-0.0005	-0.0039999	0.0018
-0.00075	-0.0039999	0.002022
-0.001	-0.0039999	0.002294
-0.00125	-0.0039999	0.002347
-0.0015	-0.0039999	0.002138
-0.00175	-0.0039999	0.002024
-0.002	-0.0039999	0.002246
-0.00225	-0.0039999	0.00252
-0.0025	-0.0039999	0.002649
-0.00275	-0.0039999	2.699e-08
-0.003	-0.0039999	0.002579
-0.00325	-0.0039999	0.002235
-0.0035	-0.0039999	0.001785
-0.00375	-0.0039999	0.001459
-0.004	-0.0039999	0.001347
-0.004	-0.0042499	0.001379
-0.00375	-0.0042499	0.00147
-0.0035	-0.0042499	0.001747
-0.00325	-0.0042499	0.002176
-0.003	-0.0042499	0.002574
-0.00275	-0.0042499	0.002745
-0.0025	-0.0042499	0.002856
-0.00225	-0.0042499	0.002743
-0.002	-0.0042499	0.002386
-0.00175	-0.0042499	0.002043
-0.0015	-0.0042499	0.00206
-0.00125	-0.0042499	0.002209
-0.001	-0.0042499	0.002163
-0.00075	-0.0042499	0.001943
-0.0005	-0.0042499	1.751e-08
-0.0005	-0.0044999	0.001655
-0.00075	-0.0044999	0.001842
-0.001	-0.0044999	0.001976
-0.00125	-0.0044999	0.002001
-0.0015	-0.0044999	0.001915
-0.00175	-0.0044999	0.002052
-0.002	-0.0044999	0.002458
-0.00225	-0.0044999	0.002883
-0.0025	-0.0044999	0.002891
-0.00275	-0.0044999	0.002719
-0.003	-0.0044999	0.002433
-0.00325	-0.0044999	0.002037
-0.0035	-0.0044999	0.001671
-0.00375	-0.0044999	0.001432
-0.004	-0.0044999	0.001346
-0.004	-0.0047499	0.001282
-0.00375	-0.0047499	0.001392
-0.0035	-0.0047499	0.001562
-0.00325	-0.0047499	0.001847
-0.003	-0.0047499	0.002215
-0.00275	-0.0047499	0.002568
-0.0025	-0.0047499	0.002867
-0.00225	-0.0047499	0.002891
-0.002	-0.0047499	0.002503
-0.00175	-0.0047499	2.056e-08
-0.0015	-0.0047499	0.001805
-0.00125	-0.0047499	0.001799
-0.001	-0.0047499	1.792e-08
-0.00075	-0.0047499	0.001624
-0.0005	-0.0047499	0.001504
-0.0005	-0.0049999	0.001418
-0.00075	-0.0049999	0.001523
-0.001	-0.0049999	0.001599
-0.00125	-0.0049999	0.001687
-0.0015	-0.0049999	0.001712
-0.00175	-0.0049999	0.001968
-0.002	-0.0049999	0.00237
-0.00225	-0.0049999	0.002682
-0.0025	-0.0049999	0.002594
-0.00275	-0.0049999	0.002255
-0.003	-0.0049999	0.001927
-0.00325	-0.0049999	0.001639
-0.0035	-0.0049999	0.001452
-0.00375	-0.0049999	0.001301
-0.004	-0.0049999	1.251e-08
