Your edit line - do NOT delete this line
Wavelength [nm], Voltage [V], Elapsed time [s]
900.0	0.000119	4.875
900.0	0.0001163	4.92199993134
900.0	0.0001143	4.96900010109
900.0	0.0001128	5.0
900.0	0.0001118	5.04699993134
900.0	0.0001113	5.09400010109
900.0	0.0001107	5.125
900.0	0.0001106	5.17199993134
900.0	0.0001103	5.21900010109
900.0	0.0001101	5.25
900.0	0.0001097	5.29699993134
900.0	0.0001097	5.32800006866
900.0	0.0001096	5.375
900.0	0.0001095	5.42199993134
900.0	0.0001095	5.45300006866
900.0	0.0001091	5.5
900.0	0.000109	5.54699993134
900.0	0.000109	5.57800006866
900.0	0.0001088	5.625
900.0	0.0001087	5.65599989891
900.0	0.0001085	5.70300006866
900.0	0.0001085	5.75
900.0	0.0001087	5.78099989891
900.0	0.0001087	5.82800006866
900.0	0.0001087	5.875
900.0	0.0001088	5.90599989891
900.0	0.0001088	5.95300006866
900.0	0.0001088	6.0
900.0	0.0001093	6.03099989891
900.0	0.0001091	6.07800006866
900.0	0.0001093	6.10899996758
900.0	0.0001093	6.15599989891
900.0	0.0001093	6.20300006866
900.0	0.0001091	6.23399996758
900.0	0.0001088	6.28099989891
900.0	0.000109	6.32800006866
900.0	0.0001093	6.35899996758
910.0	0.0001147	6.67199993134
910.0	0.0001163	6.70300006866
910.0	0.0001176	6.75
910.0	0.0001185	6.78099989891
910.0	0.0001191	6.82800006866
910.0	0.0001197	6.875
910.0	0.0001203	6.90599989891
910.0	0.0001206	6.95300006866
910.0	0.0001208	7.0
910.0	0.000121	7.03099989891
910.0	0.0001212	7.07800006866
910.0	0.0001213	7.125
910.0	0.000121	7.15599989891
910.0	0.0001208	7.20300006866
910.0	0.0001208	7.23399996758
910.0	0.0001207	7.28099989891
910.0	0.0001207	7.32800006866
910.0	0.0001208	7.35899996758
910.0	0.0001208	7.40599989891
910.0	0.0001212	7.45300006866
910.0	0.0001208	7.48399996758
910.0	0.0001206	7.53099989891
910.0	0.0001206	7.57800006866
910.0	0.0001202	7.60899996758
910.0	0.0001206	7.65599989891
910.0	0.0001207	7.70300006866
910.0	0.0001208	7.73399996758
910.0	0.0001212	7.78099989891
910.0	0.0001212	7.82800006866
910.0	0.0001213	7.85899996758
910.0	0.0001216	7.90599989891
910.0	0.0001216	7.93700003624
910.0	0.0001216	7.98399996758
910.0	0.0001216	8.03099989891
910.0	0.0001215	8.06200003624
910.0	0.0001213	8.10899996758
910.0	0.000121	8.15599989891
920.0	0.0001266	8.45300006866
920.0	0.0001285	8.5
920.0	0.00013	8.53099989891
920.0	0.0001308	8.57800006866
920.0	0.0001315	8.60899996758
920.0	0.0001318	8.65599989891
920.0	0.0001322	8.70300006866
920.0	0.0001325	8.73399996758
920.0	0.0001328	8.78099989891
920.0	0.0001333	8.82800006866
920.0	0.0001335	8.85899996758
920.0	0.000134	8.90599989891
920.0	0.0001341	8.95300006866
920.0	0.0001343	8.98399996758
920.0	0.0001343	9.03099989891
920.0	0.0001343	9.06200003624
920.0	0.0001346	9.10899996758
920.0	0.0001351	9.15599989891
920.0	0.0001352	9.18700003624
920.0	0.0001352	9.23399996758
920.0	0.000135	9.28099989891
920.0	0.0001346	9.31200003624
920.0	0.0001345	9.35899996758
920.0	0.0001341	9.39100003242
920.0	0.0001338	9.43700003624
920.0	0.0001338	9.48399996758
920.0	0.0001337	9.51600003242
920.0	0.0001338	9.56200003624
920.0	0.0001341	9.60899996758
920.0	0.0001341	9.64100003242
920.0	0.0001343	9.68700003624
920.0	0.0001343	9.71900010109
920.0	0.0001343	9.76600003242
920.0	0.0001343	9.81200003624
920.0	0.0001343	9.85899996758
920.0	0.0001343	9.89100003242
920.0	0.000134	9.93700003624
930.0	0.0001397	10.2339999676
930.0	0.0001416	10.2809998989
930.0	0.0001433	10.3120000362
930.0	0.0001447	10.3589999676
930.0	0.0001457	10.4059998989
930.0	0.0001466	10.4370000362
930.0	0.0001472	10.4839999676
930.0	0.0001476	10.5160000324
930.0	0.0001478	10.5620000362
930.0	0.0001482	10.6089999676
930.0	0.0001485	10.6410000324
930.0	0.000149	10.6870000362
930.0	0.0001491	10.7339999676
930.0	0.0001491	10.7660000324
930.0	0.000149	10.8120000362
930.0	0.0001487	10.8440001011
930.0	0.0001487	10.8910000324
930.0	0.000149	10.9370000362
930.0	0.000149	10.9690001011
930.0	0.0001488	11.0160000324
930.0	0.0001487	11.0620000362
930.0	0.0001487	11.0940001011
930.0	0.000149	11.1410000324
930.0	0.0001491	11.1719999313
930.0	0.0001493	11.2190001011
930.0	0.0001493	11.2660000324
930.0	0.0001493	11.2969999313
930.0	0.0001493	11.3440001011
930.0	0.0001495	11.3910000324
930.0	0.0001493	11.4219999313
930.0	0.0001493	11.4690001011
930.0	0.0001495	11.5160000324
930.0	0.0001493	11.5469999313
930.0	0.000149	11.5940001011
930.0	0.0001488	11.625
930.0	0.0001488	11.6719999313
930.0	0.0001487	11.7190001011
940.0	0.0001535	12.0160000324
940.0	0.0001557	12.0469999313
940.0	0.0001572	12.0940001011
940.0	0.000159	12.1410000324
940.0	0.0001606	12.1719999313
940.0	0.0001615	12.2190001011
940.0	0.0001621	12.2660000324
940.0	0.0001625	12.2969999313
940.0	0.0001626	12.3440001011
940.0	0.0001626	12.3910000324
940.0	0.0001622	12.4219999313
940.0	0.0001621	12.4690001011
940.0	0.0001625	12.5
940.0	0.0001628	12.5469999313
940.0	0.0001632	12.5940001011
940.0	0.0001632	12.625
940.0	0.0001632	12.6719999313
940.0	0.0001633	12.7190001011
940.0	0.0001632	12.75
940.0	0.0001633	12.7969999313
940.0	0.0001632	12.8280000687
940.0	0.0001632	12.875
940.0	0.0001633	12.9219999313
940.0	0.0001635	12.9530000687
940.0	0.000164	13.0
940.0	0.0001641	13.0469999313
940.0	0.0001641	13.0780000687
940.0	0.0001641	13.125
940.0	0.0001641	13.1559998989
940.0	0.0001638	13.2030000687
940.0	0.000164	13.25
940.0	0.0001641	13.2809998989
940.0	0.0001643	13.3280000687
940.0	0.0001646	13.375
940.0	0.0001645	13.4059998989
940.0	0.0001643	13.4530000687
940.0	0.0001645	13.5
950.0	0.00017	13.7809998989
950.0	0.000172	13.8280000687
950.0	0.0001735	13.8589999676
950.0	0.0001747	13.9059998989
950.0	0.0001757	13.9370000362
950.0	0.0001763	13.9839999676
950.0	0.000177	14.0309998989
950.0	0.0001775	14.0620000362
950.0	0.0001777	14.1089999676
950.0	0.0001781	14.1559998989
950.0	0.0001782	14.1870000362
950.0	0.0001783	14.2339999676
950.0	0.0001787	14.2660000324
950.0	0.0001787	14.3120000362
950.0	0.0001788	14.3589999676
950.0	0.0001788	14.3910000324
950.0	0.0001788	14.4370000362
950.0	0.0001788	14.4839999676
950.0	0.0001788	14.5160000324
950.0	0.0001785	14.5620000362
950.0	0.0001787	14.5940001011
950.0	0.0001788	14.6410000324
950.0	0.000179	14.6870000362
950.0	0.0001791	14.7190001011
950.0	0.0001791	14.7660000324
950.0	0.0001793	14.8120000362
950.0	0.0001795	14.8440001011
950.0	0.0001793	14.8910000324
950.0	0.0001793	14.9219999313
950.0	0.0001793	14.9690001011
950.0	0.0001793	15.0160000324
950.0	0.0001795	15.0469999313
950.0	0.0001796	15.0940001011
950.0	0.0001797	15.1410000324
950.0	0.0001801	15.1719999313
950.0	0.0001801	15.2190001011
950.0	0.0001802	15.25
960.0	0.0001862	15.5469999313
960.0	0.0001881	15.5940001011
960.0	0.00019	15.625
960.0	0.000191	15.6719999313
960.0	0.000192	15.7030000687
960.0	0.0001925	15.75
960.0	0.0001927	15.7969999313
960.0	0.0001932	15.8280000687
960.0	0.0001933	15.875
960.0	0.0001937	15.9219999313
960.0	0.0001941	15.9530000687
960.0	0.0001943	16.0
960.0	0.0001946	16.0309998989
960.0	0.0001946	16.0780000687
960.0	0.0001945	16.125
960.0	0.0001945	16.1559998989
960.0	0.0001943	16.2030000687
960.0	0.0001943	16.25
960.0	0.0001941	16.2809998989
960.0	0.0001938	16.3280000687
960.0	0.000194	16.375
960.0	0.000194	16.4059998989
960.0	0.000194	16.4530000687
960.0	0.0001941	16.4839999676
960.0	0.0001941	16.5309998989
960.0	0.000194	16.5780000687
960.0	0.0001941	16.6089999676
960.0	0.0001938	16.6559998989
960.0	0.0001938	16.7030000687
960.0	0.0001941	16.7339999676
960.0	0.0001943	16.7809998989
960.0	0.0001945	16.8120000362
960.0	0.0001945	16.8589999676
960.0	0.0001945	16.9059998989
960.0	0.0001947	16.9370000362
960.0	0.000195	16.9839999676
960.0	0.000195	17.0309998989
970.0	0.000201	17.3120000362
970.0	0.0002031	17.3440001011
970.0	0.0002046	17.3910000324
970.0	0.0002062	17.4370000362
970.0	0.0002076	17.4690001011
970.0	0.0002087	17.5160000324
970.0	0.0002091	17.5469999313
970.0	0.0002097	17.5940001011
970.0	0.0002103	17.6410000324
970.0	0.0002106	17.6719999313
970.0	0.0002106	17.7190001011
970.0	0.0002106	17.7660000324
970.0	0.0002107	17.7969999313
970.0	0.0002108	17.8440001011
970.0	0.0002108	17.875
970.0	0.0002108	17.9219999313
970.0	0.0002106	17.9690001011
970.0	0.0002106	18.0
970.0	0.0002106	18.0469999313
970.0	0.0002106	18.0940001011
970.0	0.0002107	18.125
970.0	0.0002107	18.1719999313
970.0	0.0002108	18.2190001011
970.0	0.0002108	18.25
970.0	0.0002108	18.2969999313
970.0	0.0002108	18.3280000687
970.0	0.0002108	18.375
970.0	0.000211	18.4219999313
970.0	0.000211	18.4530000687
970.0	0.0002112	18.5
970.0	0.0002112	18.5469999313
970.0	0.000211	18.5780000687
970.0	0.0002107	18.625
970.0	0.0002101	18.6559998989
970.0	0.0002097	18.7030000687
970.0	0.0002096	18.75
970.0	0.0002096	18.7809998989
980.0	0.0002166	19.0620000362
980.0	0.000219	19.1089999676
980.0	0.000221	19.1410000324
980.0	0.0002231	19.1870000362
980.0	0.0002246	19.2339999676
980.0	0.0002258	19.2660000324
980.0	0.0002266	19.3120000362
980.0	0.0002272	19.3589999676
980.0	0.0002278	19.3910000324
980.0	0.0002282	19.4370000362
980.0	0.0002283	19.4690001011
980.0	0.0002287	19.5160000324
980.0	0.0002287	19.5620000362
980.0	0.0002283	19.5940001011
980.0	0.0002281	19.6410000324
980.0	0.0002276	19.6870000362
980.0	0.0002276	19.7190001011
980.0	0.0002276	19.7660000324
980.0	0.0002272	19.8120000362
980.0	0.0002271	19.8440001011
980.0	0.0002271	19.8910000324
980.0	0.0002272	19.9219999313
980.0	0.0002272	19.9690001011
980.0	0.0002271	20.0160000324
980.0	0.0002272	20.0469999313
980.0	0.0002271	20.0940001011
980.0	0.0002266	20.1410000324
980.0	0.0002265	20.1719999313
980.0	0.0002262	20.2190001011
980.0	0.0002262	20.25
980.0	0.0002266	20.2969999313
980.0	0.000227	20.3440001011
980.0	0.0002268	20.375
980.0	0.0002266	20.4219999313
980.0	0.0002266	20.4690001011
980.0	0.0002268	20.5
980.0	0.000227	20.5469999313
990.0	0.0002345	20.8280000687
990.0	0.0002368	20.875
990.0	0.0002383	20.9059998989
990.0	0.00024	20.9530000687
990.0	0.0002413	20.9839999676
990.0	0.0002422	21.0309998989
990.0	0.0002432	21.0780000687
990.0	0.0002437	21.1089999676
990.0	0.0002441	21.1559998989
990.0	0.0002447	21.2030000687
990.0	0.0002447	21.2339999676
990.0	0.0002447	21.2809998989
990.0	0.000245	21.3280000687
990.0	0.0002451	21.3589999676
990.0	0.0002452	21.4059998989
990.0	0.0002452	21.4370000362
990.0	0.0002451	21.4839999676
990.0	0.0002447	21.5309998989
990.0	0.0002446	21.5620000362
990.0	0.0002451	21.6089999676
990.0	0.0002453	21.6410000324
990.0	0.0002453	21.6870000362
990.0	0.0002456	21.7339999676
990.0	0.0002456	21.7660000324
990.0	0.0002456	21.8120000362
990.0	0.0002453	21.8589999676
990.0	0.0002451	21.8910000324
990.0	0.000245	21.9370000362
990.0	0.0002447	21.9839999676
990.0	0.0002447	22.0160000324
990.0	0.000245	22.0620000362
990.0	0.0002451	22.0940001011
990.0	0.000245	22.1410000324
990.0	0.0002447	22.1870000362
990.0	0.0002446	22.2190001011
990.0	0.0002445	22.2660000324
990.0	0.0002446	22.3120000362
1000.0	0.0002512	22.5780000687
1000.0	0.0002535	22.625
1000.0	0.0002552	22.6719999313
1000.0	0.0002568	22.7030000687
1000.0	0.0002582	22.75
1000.0	0.0002595	22.7969999313
1000.0	0.0002607	22.8280000687
1000.0	0.0002616	22.875
1000.0	0.0002621	22.9219999313
1000.0	0.0002622	22.9530000687
1000.0	0.0002627	23.0
1000.0	0.0002631	23.0309998989
1000.0	0.0002632	23.0780000687
1000.0	0.0002633	23.125
1000.0	0.0002635	23.1559998989
1000.0	0.0002638	23.2030000687
1000.0	0.0002638	23.25
1000.0	0.0002638	23.2809998989
1000.0	0.0002637	23.3280000687
1000.0	0.0002635	23.3589999676
1000.0	0.0002635	23.4059998989
1000.0	0.0002637	23.4530000687
1000.0	0.0002637	23.4839999676
1000.0	0.0002635	23.5309998989
1000.0	0.0002632	23.5780000687
1000.0	0.0002631	23.6089999676
1000.0	0.0002631	23.6559998989
1000.0	0.0002627	23.6870000362
1000.0	0.0002628	23.7339999676
1000.0	0.0002628	23.7809998989
1000.0	0.0002631	23.8120000362
1000.0	0.0002632	23.8589999676
1000.0	0.0002632	23.9059998989
1000.0	0.0002628	23.9370000362
1000.0	0.0002627	23.9839999676
1000.0	0.0002627	24.0309998989
1000.0	0.0002628	24.0620000362
1010.0	0.0002687	24.3440001011
1010.0	0.0002715	24.3910000324
1010.0	0.0002738	24.4219999313
1010.0	0.0002757	24.4690001011
1010.0	0.0002772	24.5
1010.0	0.0002783	24.5469999313
1010.0	0.0002793	24.5940001011
1010.0	0.00028	24.625
1010.0	0.0002806	24.6719999313
1010.0	0.0002812	24.7190001011
1010.0	0.0002818	24.75
1010.0	0.0002821	24.7969999313
1010.0	0.0002821	24.8440001011
1010.0	0.0002822	24.875
1010.0	0.0002825	24.9219999313
1010.0	0.0002822	24.9530000687
1010.0	0.0002821	25.0
1010.0	0.000282	25.0469999313
1010.0	0.000282	25.0780000687
1010.0	0.0002821	25.125
1010.0	0.0002821	25.1719999313
1010.0	0.0002821	25.2030000687
1010.0	0.0002821	25.25
1010.0	0.0002822	25.2809998989
1010.0	0.0002825	25.3280000687
1010.0	0.0002826	25.375
1010.0	0.0002827	25.4059998989
1010.0	0.0002827	25.4530000687
1010.0	0.0002827	25.5
1010.0	0.0002828	25.5309998989
1010.0	0.0002831	25.5780000687
1010.0	0.0002831	25.6089999676
1010.0	0.0002831	25.6559998989
1010.0	0.0002828	25.7030000687
1010.0	0.0002828	25.7339999676
1010.0	0.0002828	25.7809998989
1010.0	0.0002827	25.8280000687
1020.0	0.00029	26.1089999676
1020.0	0.0002922	26.1410000324
1020.0	0.0002946	26.1870000362
1020.0	0.0002963	26.2339999676
1020.0	0.0002975	26.2660000324
1020.0	0.0002983	26.3120000362
1020.0	0.0002991	26.3440001011
1020.0	0.0002996	26.3910000324
1020.0	0.0003002	26.4370000362
1020.0	0.0003003	26.4690001011
1020.0	0.0003007	26.5160000324
1020.0	0.0003008	26.5620000362
1020.0	0.0003008	26.5940001011
1020.0	0.0003007	26.6410000324
1020.0	0.0003007	26.6870000362
1020.0	0.0003007	26.7190001011
1020.0	0.000301	26.7660000324
1020.0	0.0003012	26.7969999313
1020.0	0.0003012	26.8440001011
1020.0	0.0003013	26.8910000324
1020.0	0.0003015	26.9219999313
1020.0	0.0003016	26.9690001011
1020.0	0.0003018	27.0160000324
1020.0	0.000302	27.0469999313
1020.0	0.0003022	27.0940001011
1020.0	0.0003026	27.125
1020.0	0.0003027	27.1719999313
1020.0	0.0003031	27.2190001011
1020.0	0.0003027	27.25
1020.0	0.0003026	27.2969999313
1020.0	0.0003025	27.3440001011
1020.0	0.0003021	27.375
1020.0	0.0003018	27.4219999313
1020.0	0.0003016	27.4690001011
1020.0	0.0003016	27.5
1020.0	0.0003021	27.5469999313
1020.0	0.0003025	27.5940001011
1030.0	0.0003096	27.8589999676
1030.0	0.0003122	27.9059998989
1030.0	0.0003145	27.9530000687
1030.0	0.0003166	27.9839999676
1030.0	0.0003178	28.0309998989
1030.0	0.0003188	28.0780000687
1030.0	0.0003197	28.1089999676
1030.0	0.0003202	28.1559998989
1030.0	0.0003208	28.2030000687
1030.0	0.0003213	28.2339999676
1030.0	0.0003213	28.2809998989
1030.0	0.0003217	28.3120000362
1030.0	0.0003218	28.3589999676
1030.0	0.0003218	28.4059998989
1030.0	0.000322	28.4370000362
1030.0	0.000322	28.4839999676
1030.0	0.0003221	28.5309998989
1030.0	0.0003223	28.5620000362
1030.0	0.0003221	28.6089999676
1030.0	0.0003225	28.6559998989
1030.0	0.0003225	28.6870000362
1030.0	0.0003223	28.7339999676
1030.0	0.0003223	28.7809998989
1030.0	0.0003223	28.8120000362
1030.0	0.0003225	28.8589999676
1030.0	0.0003223	28.8910000324
1030.0	0.0003223	28.9370000362
1030.0	0.0003227	28.9839999676
1030.0	0.0003231	29.0160000324
1030.0	0.0003232	29.0620000362
1030.0	0.0003236	29.1089999676
1030.0	0.0003236	29.1410000324
1030.0	0.0003237	29.1870000362
1030.0	0.0003238	29.2190001011
1030.0	0.0003236	29.2660000324
1030.0	0.0003233	29.3120000362
1030.0	0.0003232	29.3440001011
1040.0	0.0003317	29.6410000324
1040.0	0.0003345	29.6719999313
1040.0	0.0003363	29.7190001011
1040.0	0.000338	29.75
1040.0	0.0003392	29.7969999313
1040.0	0.0003401	29.8440001011
1040.0	0.0003411	29.875
1040.0	0.0003418	29.9219999313
1040.0	0.0003423	29.9690001011
1040.0	0.000343	30.0
1040.0	0.0003432	30.0469999313
1040.0	0.0003436	30.0780000687
1040.0	0.0003436	30.125
1040.0	0.0003438	30.1719999313
1040.0	0.000344	30.2030000687
1040.0	0.0003442	30.25
1040.0	0.0003442	30.2969999313
1040.0	0.0003445	30.3280000687
1040.0	0.0003448	30.375
1040.0	0.000345	30.4059998989
1040.0	0.0003448	30.4530000687
1040.0	0.0003445	30.5
1040.0	0.0003446	30.5309998989
1040.0	0.0003443	30.5780000687
1040.0	0.0003445	30.625
1040.0	0.0003445	30.6559998989
1040.0	0.0003445	30.7030000687
1040.0	0.0003442	30.75
1040.0	0.0003442	30.7809998989
1040.0	0.0003438	30.8280000687
1040.0	0.0003438	30.8589999676
1040.0	0.0003438	30.9059998989
1040.0	0.000344	30.9530000687
1040.0	0.0003442	31.0
1040.0	0.0003445	31.0309998989
1040.0	0.0003445	31.0780000687
1040.0	0.0003445	31.1089999676
1050.0	0.000354	31.4059998989
1050.0	0.0003573	31.4370000362
1050.0	0.0003595	31.4839999676
1050.0	0.0003613	31.5160000324
1050.0	0.000363	31.5620000362
1050.0	0.0003642	31.6089999676
1050.0	0.0003651	31.6410000324
1050.0	0.0003657	31.6870000362
1050.0	0.0003661	31.7339999676
1050.0	0.0003667	31.7660000324
1050.0	0.000367	31.8120000362
1050.0	0.0003673	31.8589999676
1050.0	0.0003676	31.8910000324
1050.0	0.000368	31.9370000362
1050.0	0.0003677	31.9839999676
1050.0	0.000368	32.0160000324
1050.0	0.000368	32.0620000362
1050.0	0.000368	32.0940001011
1050.0	0.000368	32.1410000324
1050.0	0.0003677	32.1870000362
1050.0	0.0003675	32.2190001011
1050.0	0.000367	32.2660000324
1050.0	0.0003665	32.3120000362
1050.0	0.0003667	32.3440001011
1050.0	0.0003668	32.3910000324
1050.0	0.0003671	32.4370000362
1050.0	0.0003675	32.4690001011
1050.0	0.0003675	32.5160000324
1050.0	0.000368	32.5469999313
1050.0	0.0003677	32.5940001011
1050.0	0.0003676	32.6410000324
1050.0	0.0003675	32.6719999313
1050.0	0.0003673	32.7190001011
1050.0	0.0003673	32.7660000324
1050.0	0.0003675	32.7969999313
1050.0	0.0003675	32.8440001011
1050.0	0.0003675	32.875
1060.0	0.0003752	33.1719999313
1060.0	0.0003782	33.2030000687
1060.0	0.0003807	33.25
1060.0	0.0003827	33.2809998989
1060.0	0.0003845	33.3280000687
1060.0	0.0003858	33.375
1060.0	0.000387	33.4059998989
1060.0	0.0003881	33.4530000687
1060.0	0.000389	33.5
1060.0	0.0003895	33.5309998989
1060.0	0.00039	33.5780000687
1060.0	0.0003901	33.625
1060.0	0.0003905	33.6559998989
1060.0	0.0003902	33.7030000687
1060.0	0.0003901	33.7339999676
1060.0	0.0003902	33.7809998989
1060.0	0.0003906	33.8280000687
1060.0	0.0003907	33.8589999676
1060.0	0.0003911	33.9059998989
1060.0	0.0003911	33.9530000687
1060.0	0.0003907	33.9839999676
1060.0	0.0003911	34.0309998989
1060.0	0.0003908	34.0620000362
1060.0	0.0003907	34.1089999676
1060.0	0.0003907	34.1559998989
1060.0	0.0003902	34.1870000362
1060.0	0.00039	34.2339999676
1060.0	0.0003896	34.2809998989
1060.0	0.0003895	34.3120000362
1060.0	0.0003898	34.3589999676
1060.0	0.0003896	34.3910000324
1060.0	0.0003898	34.4370000362
1060.0	0.0003896	34.4839999676
1060.0	0.0003895	34.5160000324
1060.0	0.0003895	34.5620000362
1060.0	0.0003896	34.6089999676
1060.0	0.0003893	34.6410000324
1070.0	0.0003973	34.9219999313
1070.0	0.0004001	34.9690001011
1070.0	0.000403	35.0160000324
1070.0	0.0004051	35.0469999313
1070.0	0.0004065	35.0940001011
1070.0	0.0004075	35.125
1070.0	0.0004081	35.1719999313
1070.0	0.0004087	35.2190001011
1070.0	0.0004092	35.25
1070.0	0.0004095	35.2969999313
1070.0	0.0004101	35.3440001011
1070.0	0.0004106	35.375
1070.0	0.0004108	35.4219999313
1070.0	0.0004113	35.4690001011
1070.0	0.0004115	35.5
1070.0	0.0004112	35.5469999313
1070.0	0.0004113	35.5780000687
1070.0	0.0004112	35.625
1070.0	0.0004112	35.6719999313
1070.0	0.0004112	35.7030000687
1070.0	0.0004115	35.75
1070.0	0.000412	35.7969999313
1070.0	0.000412	35.8280000687
1070.0	0.000412	35.875
1070.0	0.000412	35.9059998989
1070.0	0.000412	35.9530000687
1070.0	0.000412	36.0
1070.0	0.0004123	36.0309998989
1070.0	0.0004126	36.0780000687
1070.0	0.0004127	36.125
1070.0	0.0004126	36.1559998989
1070.0	0.0004125	36.2030000687
1070.0	0.0004123	36.2339999676
1070.0	0.0004117	36.2809998989
1070.0	0.0004112	36.3280000687
1070.0	0.0004108	36.3589999676
1070.0	0.0004107	36.4059998989
1080.0	0.0004188	36.6870000362
1080.0	0.0004212	36.7339999676
1080.0	0.0004232	36.7660000324
1080.0	0.000425	36.8120000362
1080.0	0.0004262	36.8589999676
1080.0	0.0004271	36.8910000324
1080.0	0.000428	36.9370000362
1080.0	0.0004283	36.9690001011
1080.0	0.0004287	37.0160000324
1080.0	0.0004292	37.0620000362
1080.0	0.0004295	37.0940001011
1080.0	0.0004296	37.1410000324
1080.0	0.0004296	37.1870000362
1080.0	0.0004298	37.2190001011
1080.0	0.0004301	37.2660000324
1080.0	0.0004301	37.3120000362
1080.0	0.0004301	37.3440001011
1080.0	0.0004302	37.3910000324
1080.0	0.0004305	37.4219999313
1080.0	0.0004306	37.4690001011
1080.0	0.0004308	37.5160000324
1080.0	0.0004312	37.5469999313
1080.0	0.0004317	37.5940001011
1080.0	0.0004315	37.6410000324
1080.0	0.0004313	37.6719999313
1080.0	0.0004313	37.7190001011
1080.0	0.0004315	37.7660000324
1080.0	0.0004315	37.8120000362
1080.0	0.0004313	37.8440001011
1080.0	0.0004313	37.8910000324
1080.0	0.0004317	37.9370000362
1080.0	0.0004318	37.9690001011
1080.0	0.0004318	38.0160000324
1080.0	0.000432	38.0469999313
1080.0	0.0004318	38.0940001011
1080.0	0.0004317	38.1410000324
1090.0	0.0004386	38.4219999313
1090.0	0.0004408	38.4690001011
1090.0	0.000443	38.5
1090.0	0.0004445	38.5469999313
1090.0	0.0004457	38.5940001011
1090.0	0.0004465	38.625
1090.0	0.0004471	38.6719999313
1090.0	0.000448	38.7030000687
1090.0	0.0004482	38.75
1090.0	0.0004486	38.7969999313
1090.0	0.0004488	38.8280000687
1090.0	0.0004487	38.875
1090.0	0.0004488	38.9219999313
1090.0	0.0004487	38.9530000687
1090.0	0.0004486	39.0
1090.0	0.0004487	39.0469999313
1090.0	0.0004487	39.0780000687
1090.0	0.0004488	39.125
1090.0	0.0004487	39.1559998989
1090.0	0.0004486	39.2030000687
1090.0	0.0004482	39.25
1090.0	0.0004481	39.2809998989
1090.0	0.000448	39.3280000687
1090.0	0.0004481	39.375
1090.0	0.0004482	39.4059998989
1090.0	0.0004481	39.4530000687
1090.0	0.0004482	39.4839999676
1090.0	0.0004481	39.5309998989
1090.0	0.000448	39.5780000687
1090.0	0.0004476	39.6089999676
1090.0	0.0004473	39.6559998989
1090.0	0.0004473	39.7030000687
1090.0	0.0004476	39.7339999676
1090.0	0.000448	39.7809998989
1090.0	0.0004483	39.8120000362
1090.0	0.0004488	39.8589999676
1090.0	0.000449	39.9059998989
1100.0	0.0004543	40.1870000362
1100.0	0.0004565	40.2190001011
1100.0	0.0004582	40.2660000324
1100.0	0.0004595	40.3120000362
1100.0	0.0004602	40.3440001011
1100.0	0.0004611	40.3910000324
1100.0	0.0004617	40.4370000362
1100.0	0.0004623	40.4690001011
1100.0	0.0004627	40.5160000324
1100.0	0.0004626	40.5469999313
1100.0	0.0004631	40.5940001011
1100.0	0.0004631	40.6410000324
1100.0	0.0004631	40.6719999313
1100.0	0.000463	40.7190001011
1100.0	0.000463	40.7660000324
1100.0	0.0004632	40.7969999313
1100.0	0.0004633	40.8440001011
1100.0	0.0004632	40.8910000324
1100.0	0.0004632	40.9219999313
1100.0	0.0004632	40.9690001011
1100.0	0.000463	41.0
1100.0	0.0004631	41.0469999313
1100.0	0.000463	41.0940001011
1100.0	0.000463	41.125
1100.0	0.0004626	41.1719999313
1100.0	0.000462	41.2190001011
1100.0	0.0004617	41.25
1100.0	0.0004613	41.2969999313
1100.0	0.0004612	41.3280000687
1100.0	0.0004612	41.375
1100.0	0.0004613	41.4219999313
1100.0	0.0004615	41.4530000687
1100.0	0.0004618	41.5
1100.0	0.0004618	41.5469999313
1100.0	0.0004615	41.5780000687
1100.0	0.0004617	41.625
1100.0	0.0004613	41.6559998989
1110.0	0.0004662	41.9370000362
1110.0	0.0004676	41.9839999676
1110.0	0.0004688	42.0309998989
1110.0	0.0004702	42.0620000362
1110.0	0.0004712	42.1089999676
1110.0	0.0004721	42.1410000324
1110.0	0.0004726	42.1870000362
1110.0	0.0004731	42.2339999676
1110.0	0.0004732	42.2660000324
1110.0	0.0004732	42.3120000362
1110.0	0.0004731	42.3589999676
1110.0	0.000473	42.3910000324
1110.0	0.000473	42.4370000362
1110.0	0.0004731	42.4690001011
1110.0	0.0004731	42.5160000324
1110.0	0.0004733	42.5620000362
1110.0	0.0004737	42.5940001011
1110.0	0.0004736	42.6410000324
1110.0	0.0004736	42.6870000362
1110.0	0.0004736	42.7190001011
1110.0	0.0004736	42.7660000324
1110.0	0.0004732	42.8120000362
1110.0	0.0004732	42.8440001011
1110.0	0.0004731	42.8910000324
1110.0	0.000473	42.9370000362
1110.0	0.0004727	42.9690001011
1110.0	0.0004726	43.0160000324
1110.0	0.0004726	43.0620000362
1110.0	0.0004727	43.0940001011
1110.0	0.0004731	43.1410000324
1110.0	0.0004732	43.1719999313
1110.0	0.000473	43.2190001011
1110.0	0.0004727	43.2660000324
1110.0	0.000473	43.2969999313
1110.0	0.0004727	43.3440001011
1110.0	0.0004726	43.3910000324
1110.0	0.0004726	43.4219999313
1120.0	0.0004742	43.7030000687
1120.0	0.0004751	43.75
1120.0	0.0004757	43.7809998989
1120.0	0.0004767	43.8280000687
1120.0	0.0004771	43.8589999676
1120.0	0.0004777	43.9059998989
1120.0	0.000478	43.9530000687
1120.0	0.000478	43.9839999676
1120.0	0.0004782	44.0309998989
1120.0	0.0004787	44.0780000687
1120.0	0.0004788	44.1089999676
1120.0	0.000479	44.1559998989
1120.0	0.0004793	44.1870000362
1120.0	0.0004793	44.2339999676
1120.0	0.0004795	44.2809998989
1120.0	0.0004796	44.3120000362
1120.0	0.0004798	44.3589999676
1120.0	0.00048	44.4059998989
1120.0	0.0004798	44.4370000362
1120.0	0.0004798	44.4839999676
1120.0	0.0004798	44.5160000324
1120.0	0.00048	44.5620000362
1120.0	0.00048	44.6089999676
1120.0	0.0004801	44.6410000324
1120.0	0.00048	44.6870000362
1120.0	0.00048	44.7339999676
1120.0	0.00048	44.7660000324
1120.0	0.0004801	44.8120000362
1120.0	0.0004805	44.8440001011
1120.0	0.0004805	44.8910000324
1120.0	0.0004807	44.9370000362
1120.0	0.0004808	44.9690001011
1120.0	0.0004808	45.0160000324
1120.0	0.0004812	45.0620000362
1120.0	0.0004811	45.0940001011
1120.0	0.0004808	45.1410000324
1120.0	0.0004805	45.1719999313
1130.0	0.0004802	45.4530000687
1130.0	0.0004807	45.5
1130.0	0.0004812	45.5309998989
1130.0	0.0004815	45.5780000687
1130.0	0.0004817	45.625
1130.0	0.0004818	45.6559998989
1130.0	0.0004818	45.7030000687
1130.0	0.0004818	45.75
1130.0	0.0004813	45.7809998989
1130.0	0.0004812	45.8280000687
1130.0	0.0004808	45.8589999676
1130.0	0.0004811	45.9059998989
1130.0	0.0004812	45.9530000687
1130.0	0.0004815	45.9839999676
1130.0	0.0004817	46.0309998989
1130.0	0.000482	46.0780000687
1130.0	0.0004821	46.1089999676
1130.0	0.000482	46.1559998989
1130.0	0.0004823	46.1870000362
1130.0	0.0004821	46.2339999676
1130.0	0.0004823	46.2809998989
1130.0	0.0004823	46.3120000362
1130.0	0.0004825	46.3589999676
1130.0	0.0004827	46.4059998989
1130.0	0.0004827	46.4370000362
1130.0	0.0004823	46.4839999676
1130.0	0.0004821	46.5160000324
1130.0	0.0004818	46.5620000362
1130.0	0.0004817	46.6089999676
1130.0	0.0004817	46.6410000324
1130.0	0.0004817	46.6870000362
1130.0	0.000482	46.7339999676
1130.0	0.0004823	46.7660000324
1130.0	0.0004826	46.8120000362
1130.0	0.0004831	46.8440001011
1130.0	0.0004833	46.8910000324
1130.0	0.0004833	46.9370000362
1140.0	0.0004832	47.2030000687
1140.0	0.0004833	47.25
1140.0	0.0004836	47.2809998989
1140.0	0.0004836	47.3280000687
1140.0	0.0004836	47.375
1140.0	0.0004836	47.4059998989
1140.0	0.0004836	47.4530000687
1140.0	0.0004836	47.4839999676
1140.0	0.0004833	47.5309998989
1140.0	0.0004832	47.5780000687
1140.0	0.0004832	47.6089999676
1140.0	0.0004832	47.6559998989
1140.0	0.0004832	47.7030000687
1140.0	0.0004832	47.7339999676
1140.0	0.0004832	47.7809998989
1140.0	0.000483	47.8280000687
1140.0	0.0004832	47.8589999676
1140.0	0.0004833	47.9059998989
1140.0	0.0004833	47.9370000362
1140.0	0.0004833	47.9839999676
1140.0	0.0004832	48.0309998989
1140.0	0.000483	48.0780000687
1140.0	0.0004826	48.1089999676
1140.0	0.0004825	48.1559998989
1140.0	0.0004825	48.1870000362
1140.0	0.0004825	48.2339999676
1140.0	0.0004827	48.2809998989
1140.0	0.000483	48.3120000362
1140.0	0.0004831	48.3589999676
1140.0	0.0004832	48.4059998989
1140.0	0.0004832	48.4370000362
1140.0	0.0004832	48.4839999676
1140.0	0.0004832	48.5160000324
1140.0	0.000483	48.5620000362
1140.0	0.0004826	48.6089999676
1140.0	0.000483	48.6410000324
1140.0	0.000483	48.6870000362
1150.0	0.0004815	48.9530000687
1150.0	0.0004812	49.0
1150.0	0.0004807	49.0309998989
1150.0	0.0004807	49.0780000687
1150.0	0.0004808	49.125
1150.0	0.0004808	49.1559998989
1150.0	0.0004812	49.2030000687
1150.0	0.0004812	49.25
1150.0	0.0004813	49.2809998989
1150.0	0.0004815	49.3280000687
1150.0	0.0004817	49.375
1150.0	0.0004821	49.4059998989
1150.0	0.0004823	49.4530000687
1150.0	0.0004821	49.4839999676
1150.0	0.0004818	49.5309998989
1150.0	0.0004818	49.5780000687
1150.0	0.000482	49.6089999676
1150.0	0.0004823	49.6559998989
1150.0	0.0004825	49.7030000687
1150.0	0.0004827	49.7339999676
1150.0	0.0004831	49.7809998989
1150.0	0.000483	49.8280000687
1150.0	0.0004831	49.8589999676
1150.0	0.0004832	49.9059998989
1150.0	0.0004833	49.9370000362
1150.0	0.0004832	49.9839999676
1150.0	0.000483	50.0309998989
1150.0	0.0004826	50.0780000687
1150.0	0.0004826	50.1089999676
1150.0	0.000483	50.1559998989
1150.0	0.0004831	50.1870000362
1150.0	0.0004832	50.2339999676
1150.0	0.0004831	50.2809998989
1150.0	0.000483	50.3120000362
1150.0	0.0004827	50.3589999676
1150.0	0.0004826	50.4059998989
1160.0	0.0004818	50.6559998989
1160.0	0.0004817	50.7030000687
1160.0	0.0004813	50.75
1160.0	0.0004811	50.7809998989
1160.0	0.0004806	50.8280000687
1160.0	0.0004802	50.875
1160.0	0.0004801	50.9059998989
1160.0	0.0004801	50.9530000687
1160.0	0.0004801	50.9839999676
1160.0	0.00048	51.0309998989
1160.0	0.0004798	51.0780000687
1160.0	0.0004798	51.1089999676
1160.0	0.0004795	51.1559998989
1160.0	0.0004793	51.2030000687
1160.0	0.0004792	51.2339999676
1160.0	0.000479	51.2809998989
1160.0	0.0004792	51.3120000362
1160.0	0.0004792	51.3589999676
1160.0	0.0004792	51.4059998989
1160.0	0.0004792	51.4370000362
1160.0	0.0004792	51.4839999676
1160.0	0.0004793	51.5309998989
1160.0	0.0004795	51.5620000362
1160.0	0.0004795	51.6089999676
1160.0	0.0004795	51.6410000324
1160.0	0.0004795	51.6870000362
1160.0	0.0004795	51.7339999676
1160.0	0.0004796	51.7660000324
1160.0	0.0004795	51.8120000362
1160.0	0.0004796	51.8589999676
1160.0	0.0004796	51.8910000324
1160.0	0.0004796	51.9370000362
1160.0	0.0004795	51.9690001011
1160.0	0.0004795	52.0160000324
1160.0	0.0004795	52.0620000362
1160.0	0.0004793	52.0940001011
1160.0	0.0004792	52.1410000324
1170.0	0.0004793	52.4059998989
1170.0	0.0004795	52.4370000362
1170.0	0.0004792	52.4839999676
1170.0	0.0004788	52.5160000324
1170.0	0.0004788	52.5620000362
1170.0	0.0004788	52.6089999676
1170.0	0.0004792	52.6410000324
1170.0	0.0004793	52.6870000362
1170.0	0.0004795	52.7339999676
1170.0	0.0004795	52.7660000324
1170.0	0.0004792	52.8120000362
1170.0	0.0004792	52.8440001011
1170.0	0.000479	52.8910000324
1170.0	0.000479	52.9370000362
1170.0	0.0004793	52.9690001011
1170.0	0.0004793	53.0160000324
1170.0	0.0004792	53.0620000362
1170.0	0.0004792	53.0940001011
1170.0	0.0004792	53.1410000324
1170.0	0.0004792	53.1719999313
1170.0	0.0004788	53.2190001011
1170.0	0.0004787	53.2660000324
1170.0	0.0004788	53.2969999313
1170.0	0.0004787	53.3440001011
1170.0	0.0004786	53.3910000324
1170.0	0.0004786	53.4219999313
1170.0	0.0004787	53.4690001011
1170.0	0.0004783	53.5160000324
1170.0	0.0004783	53.5469999313
1170.0	0.0004782	53.5940001011
1170.0	0.0004782	53.625
1170.0	0.0004783	53.6719999313
1170.0	0.0004786	53.7190001011
1170.0	0.0004783	53.75
1170.0	0.0004783	53.7969999313
1170.0	0.0004782	53.8440001011
1170.0	0.0004782	53.875
1180.0	0.0004773	54.1410000324
1180.0	0.000477	54.1719999313
1180.0	0.0004768	54.2190001011
1180.0	0.0004762	54.2660000324
1180.0	0.0004757	54.2969999313
1180.0	0.0004755	54.3440001011
1180.0	0.0004751	54.3910000324
1180.0	0.0004751	54.4219999313
1180.0	0.0004752	54.4690001011
1180.0	0.0004755	54.5
1180.0	0.0004755	54.5469999313
1180.0	0.0004756	54.5940001011
1180.0	0.0004752	54.625
1180.0	0.0004755	54.6719999313
1180.0	0.0004755	54.7190001011
1180.0	0.0004755	54.75
1180.0	0.0004756	54.7969999313
1180.0	0.0004757	54.8280000687
1180.0	0.0004761	54.875
1180.0	0.0004758	54.9219999313
1180.0	0.0004757	54.9530000687
1180.0	0.0004758	55.0
1180.0	0.0004757	55.0469999313
1180.0	0.0004756	55.0780000687
1180.0	0.0004756	55.125
1180.0	0.0004752	55.1559998989
1180.0	0.0004751	55.2030000687
1180.0	0.0004752	55.25
1180.0	0.0004752	55.2809998989
1180.0	0.0004755	55.3280000687
1180.0	0.0004755	55.375
1180.0	0.0004755	55.4059998989
1180.0	0.0004756	55.4530000687
1180.0	0.0004755	55.5
1180.0	0.0004751	55.5309998989
1180.0	0.0004751	55.5780000687
1180.0	0.0004751	55.6089999676
1190.0	0.000477	55.875
1190.0	0.0004775	55.9219999313
1190.0	0.0004775	55.9530000687
1190.0	0.0004773	56.0
1190.0	0.000477	56.0309998989
1190.0	0.0004768	56.0780000687
1190.0	0.0004768	56.125
1190.0	0.0004765	56.1559998989
1190.0	0.0004762	56.2030000687
1190.0	0.0004761	56.25
1190.0	0.0004758	56.2809998989
1190.0	0.0004762	56.3280000687
1190.0	0.0004763	56.375
1190.0	0.0004762	56.4059998989
1190.0	0.0004762	56.4530000687
1190.0	0.0004761	56.4839999676
1190.0	0.0004758	56.5309998989
1190.0	0.0004758	56.5780000687
1190.0	0.0004756	56.6089999676
1190.0	0.0004755	56.6559998989
1190.0	0.0004752	56.7030000687
1190.0	0.0004752	56.7339999676
1190.0	0.0004755	56.7809998989
1190.0	0.0004755	56.8280000687
1190.0	0.0004757	56.8589999676
1190.0	0.0004762	56.9059998989
1190.0	0.0004763	56.9530000687
1190.0	0.0004763	56.9839999676
1190.0	0.0004765	57.0309998989
1190.0	0.0004763	57.0620000362
1190.0	0.0004763	57.1089999676
1190.0	0.0004762	57.1559998989
1190.0	0.0004758	57.1870000362
1190.0	0.0004761	57.2339999676
1190.0	0.0004757	57.2809998989
1190.0	0.0004756	57.3120000362
1190.0	0.0004751	57.3589999676
1200.0	0.0004752	57.6089999676
1200.0	0.0004752	57.6559998989
1200.0	0.0004751	57.7030000687
1200.0	0.0004748	57.7339999676
1200.0	0.0004746	57.7809998989
1200.0	0.0004745	57.8280000687
1200.0	0.0004743	57.8589999676
1200.0	0.0004745	57.9059998989
1200.0	0.0004746	57.9370000362
1200.0	0.0004748	57.9839999676
1200.0	0.0004748	58.0309998989
1200.0	0.0004746	58.0620000362
1200.0	0.0004746	58.1089999676
1200.0	0.0004746	58.1559998989
1200.0	0.0004746	58.1870000362
1200.0	0.000475	58.2339999676
1200.0	0.0004755	58.2660000324
1200.0	0.0004757	58.3120000362
1200.0	0.0004761	58.3589999676
1200.0	0.0004762	58.4059998989
1200.0	0.0004763	58.4370000362
1200.0	0.0004763	58.4839999676
1200.0	0.0004763	58.5160000324
1200.0	0.0004761	58.5620000362
1200.0	0.0004758	58.6089999676
1200.0	0.0004757	58.6410000324
1200.0	0.0004757	58.6870000362
1200.0	0.0004757	58.7339999676
1200.0	0.0004761	58.7660000324
1200.0	0.0004761	58.8120000362
1200.0	0.0004763	58.8589999676
1200.0	0.0004768	58.8910000324
1200.0	0.000477	58.9370000362
1200.0	0.0004768	58.9690001011
1200.0	0.0004767	59.0160000324
1200.0	0.0004763	59.0620000362
1200.0	0.0004763	59.1089999676
1210.0	0.0004776	59.375
1210.0	0.000478	59.4059998989
1210.0	0.0004782	59.4530000687
1210.0	0.0004786	59.5
1210.0	0.0004786	59.5309998989
1210.0	0.000479	59.5780000687
1210.0	0.0004792	59.625
1210.0	0.0004792	59.6559998989
1210.0	0.0004793	59.7030000687
1210.0	0.0004795	59.75
1210.0	0.0004796	59.7809998989
1210.0	0.0004798	59.8280000687
1210.0	0.0004798	59.8589999676
1210.0	0.0004801	59.9059998989
1210.0	0.0004798	59.9530000687
1210.0	0.0004795	59.9839999676
1210.0	0.0004792	60.0309998989
1210.0	0.0004792	60.0780000687
1210.0	0.0004793	60.1089999676
1210.0	0.0004792	60.1559998989
1210.0	0.0004788	60.2030000687
1210.0	0.0004788	60.2339999676
1210.0	0.0004788	60.2809998989
1210.0	0.0004787	60.3280000687
1210.0	0.0004788	60.3589999676
1210.0	0.0004786	60.4059998989
1210.0	0.0004786	60.4530000687
1210.0	0.0004786	60.4839999676
1210.0	0.0004783	60.5309998989
1210.0	0.0004781	60.5620000362
1210.0	0.0004777	60.6089999676
1210.0	0.0004775	60.6559998989
1210.0	0.0004777	60.6870000362
1210.0	0.000478	60.7339999676
1210.0	0.000478	60.7809998989
1210.0	0.0004781	60.8120000362
1210.0	0.0004782	60.8589999676
1220.0	0.0004802	61.125
1220.0	0.0004808	61.1719999313
1220.0	0.0004813	61.2030000687
1220.0	0.000482	61.25
1220.0	0.0004821	61.2969999313
1220.0	0.0004825	61.3280000687
1220.0	0.000483	61.375
1220.0	0.0004831	61.4219999313
1220.0	0.0004833	61.4530000687
1220.0	0.0004837	61.5
1220.0	0.0004837	61.5469999313
1220.0	0.0004837	61.5780000687
1220.0	0.0004836	61.625
1220.0	0.0004837	61.6719999313
1220.0	0.000484	61.7030000687
1220.0	0.0004838	61.75
1220.0	0.0004838	61.7809998989
1220.0	0.0004838	61.8280000687
1220.0	0.0004837	61.875
1220.0	0.0004838	61.9059998989
1220.0	0.0004842	61.9530000687
1220.0	0.0004842	62.0
1220.0	0.0004845	62.0309998989
1220.0	0.0004845	62.0780000687
1220.0	0.0004846	62.125
1220.0	0.0004848	62.1559998989
1220.0	0.0004851	62.2030000687
1220.0	0.0004852	62.2339999676
1220.0	0.0004855	62.2809998989
1220.0	0.0004855	62.3280000687
1220.0	0.0004856	62.3589999676
1220.0	0.0004856	62.4059998989
1220.0	0.0004856	62.4530000687
1220.0	0.0004856	62.4839999676
1220.0	0.0004856	62.5309998989
1220.0	0.0004856	62.5620000362
1220.0	0.0004857	62.6089999676
1230.0	0.0004871	62.875
1230.0	0.0004882	62.9219999313
1230.0	0.0004888	62.9530000687
1230.0	0.0004895	63.0
1230.0	0.0004905	63.0469999313
1230.0	0.0004911	63.0780000687
1230.0	0.0004913	63.125
1230.0	0.0004917	63.1719999313
1230.0	0.0004917	63.2030000687
1230.0	0.000492	63.25
1230.0	0.0004923	63.2809998989
1230.0	0.0004926	63.3280000687
1230.0	0.000493	63.375
1230.0	0.000493	63.4059998989
1230.0	0.000493	63.4530000687
1230.0	0.0004925	63.5
1230.0	0.000492	63.5309998989
1230.0	0.000492	63.5780000687
1230.0	0.0004918	63.6089999676
1230.0	0.000492	63.6559998989
1230.0	0.0004921	63.7030000687
1230.0	0.000492	63.7339999676
1230.0	0.000492	63.7809998989
1230.0	0.000492	63.8280000687
1230.0	0.0004918	63.8589999676
1230.0	0.0004917	63.9059998989
1230.0	0.0004913	63.9530000687
1230.0	0.0004908	63.9839999676
1230.0	0.0004908	64.0309998989
1230.0	0.0004908	64.0620000362
1230.0	0.0004907	64.1089999676
1230.0	0.0004907	64.1559998989
1230.0	0.0004908	64.1870000362
1230.0	0.0004911	64.2339999676
1230.0	0.0004911	64.2809998989
1230.0	0.0004911	64.3120000362
1230.0	0.0004911	64.3589999676
1240.0	0.0004942	64.625
1240.0	0.0004955	64.6719999313
1240.0	0.0004965	64.7030000687
1240.0	0.0004975	64.75
1240.0	0.0004982	64.7969999313
1240.0	0.0004992	64.8280000687
1240.0	0.0004998	64.875
1240.0	0.0005006	64.9219999313
1240.0	0.0005011	64.9530000687
1240.0	0.0005012	65.0
1240.0	0.0005012	65.0309998989
1240.0	0.0005012	65.0780000687
1240.0	0.0005012	65.125
1240.0	0.0005015	65.1559998989
1240.0	0.0005013	65.2030000687
1240.0	0.0005017	65.25
1240.0	0.0005017	65.2809998989
1240.0	0.0005012	65.3280000687
1240.0	0.0005012	65.3589999676
1240.0	0.0005013	65.4059998989
1240.0	0.0005015	65.4530000687
1240.0	0.0005017	65.4839999676
1240.0	0.0005018	65.5309998989
1240.0	0.0005021	65.5780000687
1240.0	0.0005025	65.6089999676
1240.0	0.0005025	65.6559998989
1240.0	0.0005025	65.6870000362
1240.0	0.0005026	65.7339999676
1240.0	0.0005026	65.7809998989
1240.0	0.000503	65.8120000362
1240.0	0.0005027	65.8589999676
1240.0	0.0005025	65.9059998989
1240.0	0.0005026	65.9370000362
1240.0	0.0005026	65.9839999676
1240.0	0.0005025	66.0309998989
1240.0	0.0005025	66.0620000362
1240.0	0.0005025	66.1089999676
1250.0	0.0005067	66.375
1250.0	0.000508	66.4219999313
1250.0	0.000509	66.4690001011
1250.0	0.0005101	66.5
1250.0	0.0005107	66.5469999313
1250.0	0.0005112	66.5940001011
1250.0	0.0005113	66.625
1250.0	0.0005117	66.6719999313
1250.0	0.000512	66.7030000687
1250.0	0.000512	66.75
1250.0	0.000512	66.7969999313
1250.0	0.0005121	66.8280000687
1250.0	0.000512	66.875
1250.0	0.0005121	66.9219999313
1250.0	0.0005125	66.9530000687
1250.0	0.0005123	67.0
1250.0	0.0005125	67.0309998989
1250.0	0.0005123	67.0780000687
1250.0	0.000512	67.125
1250.0	0.0005125	67.1559998989
1250.0	0.0005126	67.2030000687
1250.0	0.000513	67.25
1250.0	0.000513	67.2809998989
1250.0	0.000513	67.3280000687
1250.0	0.0005126	67.3589999676
1250.0	0.0005123	67.4059998989
1250.0	0.0005123	67.4530000687
1250.0	0.0005123	67.4839999676
1250.0	0.0005125	67.5309998989
1250.0	0.0005125	67.5780000687
1250.0	0.0005126	67.6089999676
1250.0	0.0005123	67.6559998989
1250.0	0.0005121	67.6870000362
1250.0	0.0005125	67.7339999676
1250.0	0.0005123	67.7809998989
1250.0	0.000512	67.8120000362
1250.0	0.000512	67.8589999676
1260.0	0.0005165	68.125
1260.0	0.0005182	68.1719999313
1260.0	0.0005193	68.2190001011
1260.0	0.0005207	68.25
1260.0	0.0005217	68.2969999313
1260.0	0.0005226	68.3280000687
1260.0	0.0005236	68.375
1260.0	0.0005245	68.4219999313
1260.0	0.0005246	68.4530000687
1260.0	0.0005248	68.5
1260.0	0.0005248	68.5469999313
1260.0	0.0005245	68.5780000687
1260.0	0.0005246	68.625
1260.0	0.0005248	68.6719999313
1260.0	0.000525	68.7030000687
1260.0	0.0005252	68.75
1260.0	0.0005256	68.7809998989
1260.0	0.0005258	68.8280000687
1260.0	0.0005258	68.875
1260.0	0.0005258	68.9219999313
1260.0	0.0005263	68.9530000687
1260.0	0.0005265	69.0
1260.0	0.0005267	69.0309998989
1260.0	0.0005267	69.0780000687
1260.0	0.0005262	69.125
1260.0	0.0005257	69.1559998989
1260.0	0.0005257	69.2030000687
1260.0	0.0005256	69.25
1260.0	0.0005257	69.2809998989
1260.0	0.0005261	69.3280000687
1260.0	0.0005263	69.3589999676
1260.0	0.0005268	69.4059998989
1260.0	0.000527	69.4530000687
1260.0	0.000527	69.4839999676
1260.0	0.0005268	69.5309998989
1260.0	0.0005265	69.5780000687
1260.0	0.0005265	69.6089999676
1270.0	0.0005288	69.875
1270.0	0.0005301	69.9219999313
1270.0	0.0005315	69.9690001011
1270.0	0.0005326	70.0
1270.0	0.0005333	70.0469999313
1270.0	0.0005338	70.0940001011
1270.0	0.0005342	70.125
1270.0	0.0005346	70.1719999313
1270.0	0.0005345	70.2190001011
1270.0	0.0005343	70.25
1270.0	0.0005345	70.2969999313
1270.0	0.0005348	70.3440001011
1270.0	0.000535	70.375
1270.0	0.0005351	70.4219999313
1270.0	0.0005352	70.4530000687
1270.0	0.0005355	70.5
1270.0	0.0005356	70.5469999313
1270.0	0.0005357	70.5780000687
1270.0	0.0005361	70.625
1270.0	0.0005362	70.6719999313
1270.0	0.0005363	70.7030000687
1270.0	0.0005367	70.75
1270.0	0.0005367	70.7809998989
1270.0	0.0005367	70.8280000687
1270.0	0.000537	70.875
1270.0	0.000537	70.9059998989
1270.0	0.0005371	70.9530000687
1270.0	0.0005368	71.0
1270.0	0.0005368	71.0309998989
1270.0	0.0005367	71.0780000687
1270.0	0.0005367	71.1089999676
1270.0	0.0005367	71.1559998989
1270.0	0.0005367	71.2030000687
1270.0	0.0005363	71.2339999676
1270.0	0.0005363	71.2809998989
1270.0	0.0005363	71.3280000687
1270.0	0.0005363	71.3589999676
1280.0	0.0005406	71.625
1280.0	0.0005418	71.6719999313
1280.0	0.000543	71.7190001011
1280.0	0.0005442	71.75
1280.0	0.000545	71.7969999313
1280.0	0.0005456	71.8280000687
1280.0	0.0005461	71.875
1280.0	0.0005463	71.9219999313
1280.0	0.0005465	71.9530000687
1280.0	0.0005465	72.0
1280.0	0.0005463	72.0469999313
1280.0	0.0005465	72.0780000687
1280.0	0.0005467	72.125
1280.0	0.0005463	72.1559998989
1280.0	0.0005462	72.2030000687
1280.0	0.0005458	72.25
1280.0	0.0005456	72.2809998989
1280.0	0.0005455	72.3280000687
1280.0	0.0005455	72.375
1280.0	0.0005456	72.4219999313
1280.0	0.0005455	72.4530000687
1280.0	0.0005452	72.5
1280.0	0.0005455	72.5309998989
1280.0	0.0005452	72.5780000687
1280.0	0.0005452	72.625
1280.0	0.0005455	72.6559998989
1280.0	0.0005452	72.7030000687
1280.0	0.0005451	72.75
1280.0	0.0005448	72.7809998989
1280.0	0.0005448	72.8280000687
1280.0	0.0005451	72.8589999676
1280.0	0.0005452	72.9059998989
1280.0	0.0005451	72.9530000687
1280.0	0.0005452	72.9839999676
1280.0	0.0005452	73.0309998989
1280.0	0.0005455	73.0780000687
1280.0	0.0005451	73.1089999676
1290.0	0.0005467	73.375
1290.0	0.0005475	73.4219999313
1290.0	0.0005476	73.4530000687
1290.0	0.000548	73.5
1290.0	0.0005482	73.5469999313
1290.0	0.0005486	73.5780000687
1290.0	0.0005487	73.625
1290.0	0.000549	73.6559998989
1290.0	0.0005486	73.7030000687
1290.0	0.0005483	73.75
1290.0	0.0005483	73.7809998989
1290.0	0.0005486	73.8280000687
1290.0	0.0005492	73.875
1290.0	0.0005495	73.9059998989
1290.0	0.0005501	73.9530000687
1290.0	0.0005505	73.9839999676
1290.0	0.0005505	74.0309998989
1290.0	0.0005502	74.0780000687
1290.0	0.0005505	74.1089999676
1290.0	0.0005505	74.1559998989
1290.0	0.0005506	74.2030000687
1290.0	0.0005506	74.2339999676
1290.0	0.0005506	74.2809998989
1290.0	0.0005507	74.3120000362
1290.0	0.0005506	74.3589999676
1290.0	0.0005507	74.4059998989
1290.0	0.0005511	74.4370000362
1290.0	0.0005511	74.4839999676
1290.0	0.0005508	74.5309998989
1290.0	0.0005507	74.5620000362
1290.0	0.0005506	74.6089999676
1290.0	0.0005506	74.6410000324
1290.0	0.0005501	74.6870000362
1290.0	0.0005501	74.7339999676
1290.0	0.0005498	74.7660000324
1290.0	0.0005498	74.8120000362
1290.0	0.0005498	74.8589999676
1300.0	0.0005495	75.1089999676
1300.0	0.0005495	75.1559998989
1300.0	0.0005496	75.2030000687
1300.0	0.0005495	75.2339999676
1300.0	0.0005495	75.2809998989
1300.0	0.0005495	75.3280000687
1300.0	0.0005493	75.3589999676
1300.0	0.0005492	75.4059998989
1300.0	0.0005492	75.4530000687
1300.0	0.0005492	75.4839999676
1300.0	0.0005492	75.5309998989
1300.0	0.0005492	75.5780000687
1300.0	0.0005492	75.6089999676
1300.0	0.000549	75.6559998989
1300.0	0.0005488	75.7030000687
1300.0	0.0005488	75.7339999676
1300.0	0.0005492	75.7809998989
1300.0	0.0005492	75.8120000362
1300.0	0.0005492	75.8589999676
1300.0	0.0005492	75.9059998989
1300.0	0.0005486	75.9370000362
1300.0	0.0005486	75.9839999676
1300.0	0.0005486	76.0309998989
1300.0	0.0005483	76.0620000362
1300.0	0.0005486	76.1089999676
1300.0	0.0005486	76.1559998989
1300.0	0.0005487	76.1870000362
1300.0	0.0005487	76.2339999676
1300.0	0.0005487	76.2809998989
1300.0	0.000549	76.3120000362
1300.0	0.0005492	76.3589999676
1300.0	0.0005495	76.3910000324
1300.0	0.0005496	76.4370000362
1300.0	0.0005496	76.4839999676
1300.0	0.0005498	76.5160000324
1300.0	0.0005498	76.5620000362
1300.0	0.0005496	76.6089999676
1310.0	0.0005496	76.8589999676
1310.0	0.0005488	76.9059998989
1310.0	0.0005483	76.9530000687
1310.0	0.0005481	76.9839999676
1310.0	0.000548	77.0309998989
1310.0	0.0005475	77.0780000687
1310.0	0.0005468	77.1089999676
1310.0	0.0005463	77.1559998989
1310.0	0.0005462	77.1870000362
1310.0	0.0005457	77.2339999676
1310.0	0.0005455	77.2809998989
1310.0	0.0005452	77.3120000362
1310.0	0.0005451	77.3589999676
1310.0	0.0005451	77.4059998989
1310.0	0.0005452	77.4370000362
1310.0	0.0005455	77.4839999676
1310.0	0.0005455	77.5160000324
1310.0	0.0005455	77.5620000362
1310.0	0.0005451	77.6089999676
1310.0	0.000545	77.6410000324
1310.0	0.0005446	77.6870000362
1310.0	0.0005445	77.7339999676
1310.0	0.0005443	77.7660000324
1310.0	0.0005443	77.8120000362
1310.0	0.0005445	77.8589999676
1310.0	0.0005442	77.8910000324
1310.0	0.000544	77.9370000362
1310.0	0.0005438	77.9839999676
1310.0	0.000544	78.0160000324
1310.0	0.000544	78.0620000362
1310.0	0.0005438	78.1089999676
1310.0	0.0005438	78.1410000324
1310.0	0.0005437	78.1870000362
1310.0	0.0005438	78.2190001011
1310.0	0.0005437	78.2660000324
1310.0	0.0005437	78.3120000362
1310.0	0.0005436	78.3440001011
1320.0	0.0005412	78.6089999676
1320.0	0.0005395	78.6559998989
1320.0	0.0005382	78.7030000687
1320.0	0.0005371	78.7339999676
1320.0	0.0005367	78.7809998989
1320.0	0.0005361	78.8280000687
1320.0	0.0005356	78.8589999676
1320.0	0.0005355	78.9059998989
1320.0	0.000535	78.9370000362
1320.0	0.0005346	78.9839999676
1320.0	0.0005346	79.0309998989
1320.0	0.0005346	79.0620000362
1320.0	0.000535	79.1089999676
1320.0	0.0005352	79.1559998989
1320.0	0.0005351	79.1870000362
1320.0	0.000535	79.2339999676
1320.0	0.0005348	79.2660000324
1320.0	0.0005348	79.3120000362
1320.0	0.000535	79.3589999676
1320.0	0.000535	79.3910000324
1320.0	0.0005352	79.4370000362
1320.0	0.0005355	79.4839999676
1320.0	0.0005355	79.5160000324
1320.0	0.0005355	79.5620000362
1320.0	0.0005357	79.5940001011
1320.0	0.0005357	79.6410000324
1320.0	0.0005356	79.6870000362
1320.0	0.0005352	79.7190001011
1320.0	0.0005346	79.7660000324
1320.0	0.0005345	79.8120000362
1320.0	0.000534	79.8440001011
1320.0	0.0005338	79.8910000324
1320.0	0.0005338	79.9370000362
1320.0	0.0005338	79.9690001011
1320.0	0.000534	80.0160000324
1320.0	0.0005342	80.0469999313
1320.0	0.0005345	80.0940001011
1330.0	0.0005292	80.3589999676
1330.0	0.000527	80.3910000324
1330.0	0.0005251	80.4370000362
1330.0	0.0005236	80.4839999676
1330.0	0.0005218	80.5160000324
1330.0	0.0005208	80.5620000362
1330.0	0.00052	80.6089999676
1330.0	0.0005192	80.6410000324
1330.0	0.0005187	80.6870000362
1330.0	0.0005182	80.7339999676
1330.0	0.0005176	80.7660000324
1330.0	0.0005171	80.8120000362
1330.0	0.0005171	80.8440001011
1330.0	0.0005171	80.8910000324
1330.0	0.0005173	80.9370000362
1330.0	0.0005175	80.9690001011
1330.0	0.0005177	81.0160000324
1330.0	0.0005177	81.0620000362
1330.0	0.000518	81.0940001011
1330.0	0.0005181	81.1410000324
1330.0	0.0005181	81.1870000362
1330.0	0.0005183	81.2190001011
1330.0	0.0005186	81.2660000324
1330.0	0.0005186	81.3120000362
1330.0	0.0005186	81.3440001011
1330.0	0.0005186	81.3910000324
1330.0	0.0005186	81.4370000362
1330.0	0.0005186	81.4690001011
1330.0	0.0005183	81.5160000324
1330.0	0.0005183	81.5620000362
1330.0	0.0005187	81.5940001011
1330.0	0.0005187	81.6410000324
1330.0	0.0005188	81.6870000362
1330.0	0.0005187	81.7190001011
1330.0	0.0005186	81.7660000324
1330.0	0.0005182	81.7969999313
1330.0	0.0005183	81.8440001011
1340.0	0.000512	82.1089999676
1340.0	0.0005095	82.1410000324
1340.0	0.0005073	82.1870000362
1340.0	0.0005056	82.2339999676
1340.0	0.000504	82.2660000324
1340.0	0.0005026	82.3120000362
1340.0	0.0005017	82.3589999676
1340.0	0.0005007	82.3910000324
1340.0	0.0005	82.4370000362
1340.0	0.0004995	82.4839999676
1340.0	0.0004993	82.5160000324
1340.0	0.0004992	82.5620000362
1340.0	0.0004988	82.5940001011
1340.0	0.0004987	82.6410000324
1340.0	0.0004987	82.6870000362
1340.0	0.0004986	82.7190001011
1340.0	0.0004982	82.7660000324
1340.0	0.0004981	82.8120000362
1340.0	0.000498	82.8440001011
1340.0	0.000498	82.8910000324
1340.0	0.0004977	82.9370000362
1340.0	0.0004976	82.9690001011
1340.0	0.0004975	83.0160000324
1340.0	0.0004975	83.0620000362
1340.0	0.0004973	83.0940001011
1340.0	0.0004968	83.1410000324
1340.0	0.0004967	83.1719999313
1340.0	0.0004967	83.2190001011
1340.0	0.0004968	83.2660000324
1340.0	0.000497	83.2969999313
1340.0	0.000497	83.3440001011
1340.0	0.000497	83.3910000324
1340.0	0.0004965	83.4219999313
1340.0	0.0004963	83.4690001011
1340.0	0.0004962	83.5
1340.0	0.0004958	83.5469999313
1340.0	0.0004958	83.5940001011
1350.0	0.0004886	83.8440001011
1350.0	0.0004857	83.8910000324
1350.0	0.0004831	83.9370000362
1350.0	0.0004812	83.9690001011
1350.0	0.0004796	84.0160000324
1350.0	0.0004786	84.0469999313
1350.0	0.0004773	84.0940001011
1350.0	0.0004767	84.1410000324
1350.0	0.0004761	84.1719999313
1350.0	0.0004757	84.2190001011
1350.0	0.0004755	84.2660000324
1350.0	0.0004748	84.2969999313
1350.0	0.0004746	84.3440001011
1350.0	0.0004746	84.3910000324
1350.0	0.0004746	84.4219999313
1350.0	0.0004748	84.4690001011
1350.0	0.000475	84.5
1350.0	0.000475	84.5469999313
1350.0	0.0004752	84.5940001011
1350.0	0.0004755	84.625
1350.0	0.0004755	84.6719999313
1350.0	0.0004755	84.7190001011
1350.0	0.0004751	84.75
1350.0	0.0004751	84.7969999313
1350.0	0.0004751	84.8280000687
1350.0	0.0004751	84.875
1350.0	0.0004751	84.9219999313
1350.0	0.0004752	84.9530000687
1350.0	0.0004751	85.0
1350.0	0.0004751	85.0469999313
1350.0	0.0004748	85.0780000687
1350.0	0.0004748	85.125
1350.0	0.0004748	85.1559998989
1350.0	0.0004745	85.2030000687
1350.0	0.0004743	85.25
1350.0	0.0004742	85.2809998989
1350.0	0.000474	85.3280000687
1360.0	0.0004658	85.5940001011
1360.0	0.0004621	85.625
1360.0	0.0004592	85.6719999313
1360.0	0.0004567	85.7190001011
1360.0	0.0004546	85.75
1360.0	0.000453	85.7969999313
1360.0	0.0004518	85.8440001011
1360.0	0.0004511	85.875
1360.0	0.0004502	85.9219999313
1360.0	0.0004498	85.9690001011
1360.0	0.0004492	86.0
1360.0	0.0004492	86.0469999313
1360.0	0.0004488	86.0940001011
1360.0	0.0004488	86.125
1360.0	0.000449	86.1719999313
1360.0	0.0004488	86.2030000687
1360.0	0.0004486	86.25
1360.0	0.0004483	86.2969999313
1360.0	0.0004482	86.3280000687
1360.0	0.000448	86.375
1360.0	0.0004477	86.4219999313
1360.0	0.000448	86.4530000687
1360.0	0.0004481	86.5
1360.0	0.0004482	86.5309998989
1360.0	0.0004483	86.5780000687
1360.0	0.0004482	86.625
1360.0	0.0004482	86.6559998989
1360.0	0.0004483	86.7030000687
1360.0	0.0004486	86.75
1360.0	0.0004486	86.7809998989
1360.0	0.0004487	86.8280000687
1360.0	0.0004486	86.875
1360.0	0.0004486	86.9059998989
1360.0	0.0004487	86.9530000687
1360.0	0.000449	86.9839999676
1360.0	0.0004495	87.0309998989
1360.0	0.0004498	87.0780000687
1370.0	0.0004417	87.3280000687
1370.0	0.000438	87.375
1370.0	0.0004346	87.4219999313
1370.0	0.0004323	87.4530000687
1370.0	0.0004305	87.5
1370.0	0.0004287	87.5469999313
1370.0	0.0004273	87.5780000687
1370.0	0.0004267	87.625
1370.0	0.0004258	87.6719999313
1370.0	0.0004255	87.7030000687
1370.0	0.0004248	87.75
1370.0	0.0004245	87.7809998989
1370.0	0.0004245	87.8280000687
1370.0	0.0004242	87.875
1370.0	0.0004242	87.9059998989
1370.0	0.000424	87.9530000687
1370.0	0.0004237	88.0
1370.0	0.0004233	88.0309998989
1370.0	0.0004231	88.0780000687
1370.0	0.000423	88.1089999676
1370.0	0.0004231	88.1559998989
1370.0	0.0004233	88.2030000687
1370.0	0.0004232	88.2339999676
1370.0	0.0004232	88.2809998989
1370.0	0.0004231	88.3280000687
1370.0	0.0004227	88.3589999676
1370.0	0.0004225	88.4059998989
1370.0	0.000422	88.4370000362
1370.0	0.000422	88.4839999676
1370.0	0.0004223	88.5309998989
1370.0	0.0004223	88.5620000362
1370.0	0.0004225	88.6089999676
1370.0	0.0004225	88.6559998989
1370.0	0.0004223	88.6870000362
1370.0	0.0004225	88.7339999676
1370.0	0.0004223	88.7660000324
1370.0	0.0004223	88.8120000362
1380.0	0.0004142	89.0780000687
1380.0	0.0004111	89.1089999676
1380.0	0.0004081	89.1559998989
1380.0	0.0004058	89.2030000687
1380.0	0.000404	89.2339999676
1380.0	0.0004027	89.2809998989
1380.0	0.0004017	89.3120000362
1380.0	0.0004007	89.3589999676
1380.0	0.0004001	89.4059998989
1380.0	0.0003996	89.4370000362
1380.0	0.0003993	89.4839999676
1380.0	0.0003992	89.5309998989
1380.0	0.0003992	89.5620000362
1380.0	0.000399	89.6089999676
1380.0	0.000399	89.6410000324
1380.0	0.000399	89.6870000362
1380.0	0.0003992	89.7339999676
1380.0	0.0003988	89.7660000324
1380.0	0.0003983	89.8120000362
1380.0	0.0003981	89.8589999676
1380.0	0.000398	89.8910000324
1380.0	0.0003981	89.9370000362
1380.0	0.0003982	89.9690001011
1380.0	0.0003982	90.0160000324
1380.0	0.0003983	90.0620000362
1380.0	0.0003983	90.0940001011
1380.0	0.0003986	90.1410000324
1380.0	0.0003988	90.1870000362
1380.0	0.0003987	90.2190001011
1380.0	0.0003987	90.2660000324
1380.0	0.0003987	90.3120000362
1380.0	0.0003986	90.3440001011
1380.0	0.0003986	90.3910000324
1380.0	0.0003982	90.4219999313
1380.0	0.0003983	90.4690001011
1380.0	0.0003986	90.5160000324
1380.0	0.0003986	90.5469999313
1390.0	0.0003895	90.8120000362
1390.0	0.0003867	90.8589999676
1390.0	0.0003838	90.9059998989
1390.0	0.0003818	90.9370000362
1390.0	0.0003801	90.9839999676
1390.0	0.0003787	91.0309998989
1390.0	0.0003776	91.0620000362
1390.0	0.0003767	91.1089999676
1390.0	0.0003756	91.1410000324
1390.0	0.0003751	91.1870000362
1390.0	0.0003745	91.2339999676
1390.0	0.0003742	91.2660000324
1390.0	0.0003738	91.3120000362
1390.0	0.0003737	91.3589999676
1390.0	0.0003736	91.3910000324
1390.0	0.0003732	91.4370000362
1390.0	0.0003733	91.4690001011
1390.0	0.0003736	91.5160000324
1390.0	0.0003737	91.5620000362
1390.0	0.0003737	91.6089999676
1390.0	0.0003737	91.6410000324
1390.0	0.0003736	91.6870000362
1390.0	0.0003736	91.7190001011
1390.0	0.0003736	91.7660000324
1390.0	0.0003736	91.8120000362
1390.0	0.0003733	91.8440001011
1390.0	0.0003732	91.8910000324
1390.0	0.0003732	91.9370000362
1390.0	0.0003732	91.9690001011
1390.0	0.000373	92.0160000324
1390.0	0.0003727	92.0620000362
1390.0	0.0003726	92.0940001011
1390.0	0.0003726	92.1410000324
1390.0	0.0003732	92.1719999313
1390.0	0.0003733	92.2190001011
1390.0	0.0003733	92.2660000324
1390.0	0.0003737	92.2969999313
1400.0	0.0003677	92.5620000362
1400.0	0.0003648	92.6089999676
1400.0	0.0003625	92.6559998989
1400.0	0.0003606	92.6870000362
1400.0	0.000359	92.7339999676
1400.0	0.0003577	92.7809998989
1400.0	0.0003571	92.8120000362
1400.0	0.0003567	92.8589999676
1400.0	0.0003561	92.8910000324
1400.0	0.0003557	92.9370000362
1400.0	0.0003555	92.9839999676
1400.0	0.0003551	93.0160000324
1400.0	0.0003551	93.0620000362
1400.0	0.0003552	93.1089999676
1400.0	0.0003555	93.1410000324
1400.0	0.0003555	93.1870000362
1400.0	0.0003555	93.2190001011
1400.0	0.0003552	93.2660000324
1400.0	0.0003552	93.3120000362
1400.0	0.0003551	93.3440001011
1400.0	0.000355	93.3910000324
1400.0	0.0003548	93.4370000362
1400.0	0.0003545	93.4690001011
1400.0	0.0003542	93.5160000324
1400.0	0.000354	93.5469999313
1400.0	0.000354	93.5940001011
1400.0	0.000354	93.6410000324
1400.0	0.0003538	93.6719999313
1400.0	0.0003537	93.7190001011
1400.0	0.0003536	93.7660000324
1400.0	0.0003538	93.7969999313
1400.0	0.0003538	93.8440001011
1400.0	0.0003538	93.875
1400.0	0.0003536	93.9219999313
1400.0	0.0003533	93.9690001011
1400.0	0.0003533	94.0
1400.0	0.0003531	94.0469999313
1410.0	0.0003468	94.3120000362
1410.0	0.0003442	94.3589999676
1410.0	0.0003421	94.3910000324
1410.0	0.0003405	94.4370000362
1410.0	0.0003388	94.4839999676
1410.0	0.000338	94.5160000324
1410.0	0.0003371	94.5620000362
1410.0	0.0003365	94.5940001011
1410.0	0.0003362	94.6410000324
1410.0	0.0003358	94.6870000362
1410.0	0.0003358	94.7190001011
1410.0	0.0003362	94.7660000324
1410.0	0.0003361	94.8120000362
1410.0	0.0003361	94.8440001011
1410.0	0.0003358	94.8910000324
1410.0	0.0003358	94.9219999313
1410.0	0.0003363	94.9690001011
1410.0	0.0003365	95.0160000324
1410.0	0.0003367	95.0469999313
1410.0	0.0003367	95.0940001011
1410.0	0.0003367	95.1410000324
1410.0	0.0003368	95.1719999313
1410.0	0.0003367	95.2190001011
1410.0	0.0003365	95.2660000324
1410.0	0.0003367	95.2969999313
1410.0	0.0003368	95.3440001011
1410.0	0.0003371	95.375
1410.0	0.0003373	95.4219999313
1410.0	0.0003371	95.4690001011
1410.0	0.0003373	95.5160000324
1410.0	0.0003371	95.5469999313
1410.0	0.000337	95.5940001011
1410.0	0.0003365	95.625
1410.0	0.0003363	95.6719999313
1410.0	0.0003361	95.7190001011
1410.0	0.0003362	95.75
1410.0	0.0003362	95.7969999313
1420.0	0.0003318	96.0620000362
1420.0	0.00033	96.1089999676
1420.0	0.0003282	96.1410000324
1420.0	0.0003268	96.1870000362
1420.0	0.0003258	96.2339999676
1420.0	0.000325	96.2660000324
1420.0	0.0003242	96.3120000362
1420.0	0.0003236	96.3440001011
1420.0	0.000323	96.3910000324
1420.0	0.0003223	96.4370000362
1420.0	0.000322	96.4690001011
1420.0	0.000322	96.5160000324
1420.0	0.0003221	96.5620000362
1420.0	0.000322	96.5940001011
1420.0	0.0003223	96.6410000324
1420.0	0.000322	96.6870000362
1420.0	0.0003218	96.7190001011
1420.0	0.0003215	96.7660000324
1420.0	0.0003211	96.7969999313
1420.0	0.0003207	96.8440001011
1420.0	0.0003206	96.8910000324
1420.0	0.0003207	96.9219999313
1420.0	0.0003211	96.9690001011
1420.0	0.0003211	97.0160000324
1420.0	0.0003207	97.0469999313
1420.0	0.0003207	97.0940001011
1420.0	0.0003211	97.125
1420.0	0.0003208	97.1719999313
1420.0	0.0003207	97.2190001011
1420.0	0.0003208	97.25
1420.0	0.0003213	97.2969999313
1420.0	0.0003215	97.3440001011
1420.0	0.0003215	97.375
1420.0	0.0003218	97.4219999313
1420.0	0.0003221	97.4530000687
1420.0	0.000322	97.5
1420.0	0.0003221	97.5469999313
1430.0	0.000319	97.8120000362
1430.0	0.0003177	97.8440001011
1430.0	0.0003168	97.8910000324
1430.0	0.000316	97.9370000362
1430.0	0.0003153	97.9690001011
1430.0	0.0003147	98.0160000324
1430.0	0.0003143	98.0620000362
1430.0	0.0003143	98.0940001011
1430.0	0.0003141	98.1410000324
1430.0	0.0003141	98.1719999313
1430.0	0.0003145	98.2190001011
1430.0	0.0003146	98.2660000324
1430.0	0.0003145	98.2969999313
1430.0	0.0003145	98.3440001011
1430.0	0.0003141	98.3910000324
1430.0	0.0003141	98.4219999313
1430.0	0.0003141	98.4690001011
1430.0	0.000314	98.5
1430.0	0.000314	98.5469999313
1430.0	0.0003138	98.5940001011
1430.0	0.0003137	98.625
1430.0	0.0003137	98.6719999313
1430.0	0.0003138	98.7190001011
1430.0	0.0003137	98.75
1430.0	0.0003138	98.7969999313
1430.0	0.0003137	98.8440001011
1430.0	0.0003138	98.875
1430.0	0.0003135	98.9219999313
1430.0	0.0003132	98.9690001011
1430.0	0.0003131	99.0
1430.0	0.0003131	99.0469999313
1430.0	0.0003132	99.0940001011
1430.0	0.0003132	99.125
1430.0	0.0003132	99.1719999313
1430.0	0.0003133	99.2030000687
1430.0	0.0003132	99.25
1430.0	0.0003132	99.2969999313
1440.0	0.0003103	99.5620000362
1440.0	0.0003096	99.5940001011
1440.0	0.0003095	99.6410000324
1440.0	0.0003091	99.6870000362
1440.0	0.0003088	99.7190001011
1440.0	0.000309	99.7660000324
1440.0	0.0003095	99.8120000362
1440.0	0.0003097	99.8440001011
1440.0	0.00031	99.8910000324
1440.0	0.00031	99.9219999313
1440.0	0.0003097	99.9690001011
1440.0	0.0003095	100.016000032
1440.0	0.000309	100.046999931
1440.0	0.0003091	100.094000101
1440.0	0.0003096	100.141000032
1440.0	0.0003096	100.171999931
1440.0	0.0003096	100.219000101
1440.0	0.0003096	100.25
1440.0	0.0003097	100.296999931
1440.0	0.0003097	100.344000101
1440.0	0.0003096	100.375
1440.0	0.0003096	100.421999931
1440.0	0.0003095	100.469000101
1440.0	0.0003093	100.5
1440.0	0.000309	100.546999931
1440.0	0.000309	100.594000101
1440.0	0.0003091	100.625
1440.0	0.0003093	100.671999931
1440.0	0.0003096	100.703000069
1440.0	0.0003097	100.75
1440.0	0.00031	100.796999931
1440.0	0.00031	100.828000069
1440.0	0.00031	100.875
1440.0	0.0003097	100.921999931
1440.0	0.0003096	100.953000069
1440.0	0.0003095	101.0
1440.0	0.0003095	101.030999899
1450.0	0.0003087	101.296999931
1450.0	0.0003087	101.344000101
1450.0	0.0003085	101.391000032
1450.0	0.0003083	101.421999931
1450.0	0.0003082	101.469000101
1450.0	0.0003082	101.516000032
1450.0	0.0003082	101.546999931
1450.0	0.0003081	101.594000101
1450.0	0.0003081	101.641000032
1450.0	0.0003081	101.671999931
1450.0	0.0003081	101.719000101
1450.0	0.0003081	101.75
1450.0	0.0003082	101.796999931
1450.0	0.0003081	101.844000101
1450.0	0.0003081	101.875
1450.0	0.0003078	101.921999931
1450.0	0.0003077	101.969000101
1450.0	0.0003077	102.0
1450.0	0.0003077	102.046999931
1450.0	0.0003078	102.078000069
1450.0	0.0003081	102.125
1450.0	0.0003081	102.171999931
1450.0	0.0003078	102.203000069
1450.0	0.0003081	102.25
1450.0	0.0003083	102.296999931
1450.0	0.0003088	102.328000069
1450.0	0.0003093	102.375
1450.0	0.0003093	102.405999899
1450.0	0.0003091	102.453000069
1450.0	0.0003087	102.5
1450.0	0.0003085	102.530999899
1450.0	0.0003082	102.578000069
1450.0	0.0003078	102.625
1450.0	0.0003076	102.655999899
1450.0	0.0003077	102.703000069
1450.0	0.0003077	102.75
1450.0	0.0003078	102.780999899
1460.0	0.0003091	103.046999931
1460.0	0.0003096	103.094000101
1460.0	0.0003101	103.125
1460.0	0.0003102	103.171999931
1460.0	0.0003102	103.219000101
1460.0	0.0003107	103.25
1460.0	0.0003108	103.296999931
1460.0	0.0003108	103.344000101
1460.0	0.0003108	103.375
1460.0	0.0003108	103.421999931
1460.0	0.0003107	103.453000069
1460.0	0.0003106	103.5
1460.0	0.0003102	103.546999931
1460.0	0.0003101	103.578000069
1460.0	0.00031	103.625
1460.0	0.00031	103.671999931
1460.0	0.0003102	103.703000069
1460.0	0.0003106	103.75
1460.0	0.0003108	103.796999931
1460.0	0.0003112	103.828000069
1460.0	0.0003112	103.875
1460.0	0.000311	103.921999931
1460.0	0.0003108	103.953000069
1460.0	0.0003107	104.0
1460.0	0.0003106	104.046999931
1460.0	0.0003102	104.078000069
1460.0	0.0003102	104.125
1460.0	0.0003102	104.155999899
1460.0	0.00031	104.203000069
1460.0	0.0003097	104.25
1460.0	0.0003095	104.280999899
1460.0	0.0003095	104.328000069
1460.0	0.0003095	104.375
1460.0	0.0003093	104.405999899
1460.0	0.0003095	104.453000069
1460.0	0.00031	104.483999968
1460.0	0.0003101	104.530999899
1470.0	0.000312	104.796999931
1470.0	0.0003126	104.844000101
1470.0	0.0003131	104.891000032
1470.0	0.0003133	104.937000036
1470.0	0.0003133	104.969000101
1470.0	0.0003133	105.016000032
1470.0	0.0003133	105.046999931
1470.0	0.0003133	105.094000101
1470.0	0.0003138	105.141000032
1470.0	0.000314	105.171999931
1470.0	0.000314	105.219000101
1470.0	0.0003143	105.266000032
1470.0	0.0003141	105.296999931
1470.0	0.0003138	105.344000101
1470.0	0.0003138	105.391000032
1470.0	0.0003138	105.421999931
1470.0	0.000314	105.469000101
1470.0	0.0003141	105.5
1470.0	0.0003143	105.546999931
1470.0	0.0003146	105.594000101
1470.0	0.0003147	105.625
1470.0	0.0003147	105.671999931
1470.0	0.0003147	105.719000101
1470.0	0.0003147	105.75
1470.0	0.0003146	105.796999931
1470.0	0.0003146	105.844000101
1470.0	0.0003145	105.875
1470.0	0.0003145	105.921999931
1470.0	0.0003146	105.969000101
1470.0	0.0003147	106.0
1470.0	0.0003147	106.046999931
1470.0	0.0003143	106.078000069
1470.0	0.000314	106.125
1470.0	0.0003138	106.171999931
1470.0	0.0003138	106.203000069
1470.0	0.0003141	106.25
1480.0	0.0003145	106.516000032
1480.0	0.000315	106.562000036
1480.0	0.0003153	106.594000101
1480.0	0.0003157	106.641000032
1480.0	0.000316	106.687000036
1480.0	0.0003163	106.719000101
1480.0	0.0003163	106.766000032
1480.0	0.000317	106.812000036
1480.0	0.0003171	106.844000101
1480.0	0.0003171	106.891000032
1480.0	0.0003172	106.937000036
1480.0	0.0003177	106.969000101
1480.0	0.0003178	107.016000032
1480.0	0.0003181	107.046999931
1480.0	0.0003181	107.094000101
1480.0	0.0003182	107.141000032
1480.0	0.0003183	107.171999931
1480.0	0.0003185	107.219000101
1480.0	0.0003187	107.266000032
1480.0	0.0003183	107.296999931
1480.0	0.0003182	107.344000101
1480.0	0.0003181	107.391000032
1480.0	0.0003178	107.421999931
1480.0	0.0003182	107.469000101
1480.0	0.0003183	107.5
1480.0	0.0003182	107.546999931
1480.0	0.0003183	107.594000101
1480.0	0.0003188	107.625
1480.0	0.0003188	107.671999931
1480.0	0.0003193	107.719000101
1480.0	0.0003193	107.75
1480.0	0.0003195	107.796999931
1480.0	0.0003195	107.828000069
1480.0	0.0003193	107.875
1480.0	0.0003191	107.921999931
1480.0	0.0003188	107.953000069
1480.0	0.0003188	108.0
1490.0	0.0003211	108.266000032
1490.0	0.0003217	108.312000036
1490.0	0.0003221	108.358999968
1490.0	0.0003223	108.391000032
1490.0	0.0003221	108.437000036
1490.0	0.0003223	108.469000101
1490.0	0.0003223	108.516000032
1490.0	0.0003225	108.562000036
1490.0	0.0003226	108.594000101
1490.0	0.0003226	108.641000032
1490.0	0.0003223	108.687000036
1490.0	0.0003223	108.719000101
1490.0	0.0003223	108.766000032
1490.0	0.0003223	108.796999931
1490.0	0.0003223	108.844000101
1490.0	0.000322	108.891000032
1490.0	0.000322	108.921999931
1490.0	0.0003218	108.969000101
1490.0	0.0003213	109.016000032
1490.0	0.0003212	109.046999931
1490.0	0.0003208	109.094000101
1490.0	0.0003207	109.141000032
1490.0	0.0003206	109.171999931
1490.0	0.0003207	109.219000101
1490.0	0.0003208	109.25
1490.0	0.0003208	109.296999931
1490.0	0.0003211	109.344000101
1490.0	0.0003211	109.375
1490.0	0.0003211	109.421999931
1490.0	0.0003211	109.469000101
1490.0	0.0003212	109.5
1490.0	0.0003211	109.546999931
1490.0	0.0003211	109.578000069
1490.0	0.0003213	109.625
1490.0	0.0003212	109.671999931
1490.0	0.0003213	109.703000069
1490.0	0.0003217	109.75
1500.0	0.0003226	110.016000032
1500.0	0.0003231	110.062000036
1500.0	0.0003233	110.108999968
1500.0	0.0003236	110.141000032
1500.0	0.0003236	110.187000036
1500.0	0.0003237	110.233999968
1500.0	0.0003238	110.266000032
1500.0	0.0003238	110.312000036
1500.0	0.0003242	110.358999968
1500.0	0.0003243	110.391000032
1500.0	0.0003243	110.437000036
1500.0	0.0003246	110.469000101
1500.0	0.0003246	110.516000032
1500.0	0.0003246	110.562000036
1500.0	0.0003248	110.594000101
1500.0	0.000325	110.641000032
1500.0	0.0003248	110.687000036
1500.0	0.0003245	110.719000101
1500.0	0.000324	110.766000032
1500.0	0.0003237	110.796999931
1500.0	0.0003238	110.844000101
1500.0	0.0003238	110.891000032
1500.0	0.000324	110.921999931
1500.0	0.0003245	110.969000101
1500.0	0.0003246	111.016000032
1500.0	0.0003251	111.046999931
1500.0	0.0003255	111.094000101
1500.0	0.0003255	111.141000032
1500.0	0.0003252	111.171999931
1500.0	0.0003251	111.219000101
1500.0	0.0003251	111.25
1500.0	0.000325	111.296999931
1500.0	0.000325	111.344000101
1500.0	0.000325	111.375
1500.0	0.0003248	111.421999931
1500.0	0.0003245	111.469000101
1500.0	0.0003243	111.5
1510.0	0.0003248	111.766000032
1510.0	0.0003251	111.812000036
1510.0	0.0003255	111.858999968
1510.0	0.0003255	111.891000032
1510.0	0.0003257	111.937000036
1510.0	0.0003258	111.983999968
1510.0	0.0003257	112.030999899
1510.0	0.0003262	112.062000036
1510.0	0.0003262	112.108999968
1510.0	0.0003262	112.141000032
1510.0	0.0003262	112.187000036
1510.0	0.0003262	112.233999968
1510.0	0.0003261	112.266000032
1510.0	0.0003263	112.312000036
1510.0	0.0003267	112.358999968
1510.0	0.0003267	112.391000032
1510.0	0.0003263	112.437000036
1510.0	0.0003262	112.469000101
1510.0	0.0003263	112.516000032
1510.0	0.0003263	112.562000036
1510.0	0.0003265	112.594000101
1510.0	0.0003268	112.641000032
1510.0	0.000327	112.687000036
1510.0	0.0003271	112.719000101
1510.0	0.0003271	112.766000032
1510.0	0.0003271	112.796999931
1510.0	0.0003275	112.844000101
1510.0	0.0003276	112.891000032
1510.0	0.0003271	112.921999931
1510.0	0.0003271	112.969000101
1510.0	0.0003271	113.016000032
1510.0	0.0003271	113.046999931
1510.0	0.0003273	113.094000101
1510.0	0.0003271	113.141000032
1510.0	0.0003271	113.171999931
1510.0	0.0003271	113.219000101
1510.0	0.000327	113.25
1520.0	0.0003276	113.530999899
1520.0	0.000328	113.578000069
1520.0	0.0003281	113.608999968
1520.0	0.0003282	113.655999899
1520.0	0.0003277	113.687000036
1520.0	0.0003276	113.733999968
1520.0	0.0003271	113.780999899
1520.0	0.000327	113.812000036
1520.0	0.0003273	113.858999968
1520.0	0.0003275	113.905999899
1520.0	0.0003276	113.937000036
1520.0	0.0003276	113.983999968
1520.0	0.0003276	114.030999899
1520.0	0.000328	114.062000036
1520.0	0.0003282	114.108999968
1520.0	0.0003282	114.141000032
1520.0	0.0003282	114.187000036
1520.0	0.0003282	114.233999968
1520.0	0.000328	114.266000032
1520.0	0.000328	114.312000036
1520.0	0.0003276	114.358999968
1520.0	0.0003275	114.391000032
1520.0	0.0003275	114.437000036
1520.0	0.0003276	114.469000101
1520.0	0.0003277	114.516000032
1520.0	0.0003277	114.562000036
1520.0	0.0003277	114.594000101
1520.0	0.000328	114.641000032
1520.0	0.000328	114.687000036
1520.0	0.000328	114.719000101
1520.0	0.0003281	114.766000032
1520.0	0.000328	114.796999931
1520.0	0.000328	114.844000101
1520.0	0.0003282	114.891000032
1520.0	0.000328	114.921999931
1520.0	0.000328	114.969000101
1520.0	0.0003277	115.016000032
1530.0	0.0003276	115.280999899
1530.0	0.0003277	115.328000069
1530.0	0.000328	115.375
1530.0	0.0003277	115.405999899
1530.0	0.000328	115.453000069
1530.0	0.0003277	115.483999968
1530.0	0.0003277	115.530999899
1530.0	0.0003275	115.578000069
1530.0	0.0003276	115.608999968
1530.0	0.0003277	115.655999899
1530.0	0.0003282	115.703000069
1530.0	0.0003282	115.733999968
1530.0	0.0003283	115.780999899
1530.0	0.0003287	115.812000036
1530.0	0.0003292	115.858999968
1530.0	0.0003293	115.905999899
1530.0	0.0003293	115.937000036
1530.0	0.0003295	115.983999968
1530.0	0.0003296	116.030999899
1530.0	0.0003296	116.062000036
1530.0	0.0003296	116.108999968
1530.0	0.0003295	116.141000032
1530.0	0.0003293	116.187000036
1530.0	0.0003292	116.233999968
1530.0	0.000329	116.266000032
1530.0	0.0003287	116.312000036
1530.0	0.0003283	116.358999968
1530.0	0.0003282	116.391000032
1530.0	0.0003282	116.437000036
1530.0	0.0003281	116.469000101
1530.0	0.0003277	116.516000032
1530.0	0.0003276	116.562000036
1530.0	0.0003275	116.594000101
1530.0	0.0003275	116.641000032
1530.0	0.0003275	116.687000036
1530.0	0.000327	116.719000101
1530.0	0.0003271	116.766000032
1540.0	0.0003275	117.046999931
1540.0	0.0003275	117.078000069
1540.0	0.0003273	117.125
1540.0	0.0003271	117.155999899
1540.0	0.0003275	117.203000069
1540.0	0.0003276	117.25
1540.0	0.0003276	117.280999899
1540.0	0.0003277	117.328000069
1540.0	0.0003277	117.375
1540.0	0.0003277	117.405999899
1540.0	0.0003276	117.453000069
1540.0	0.0003275	117.483999968
1540.0	0.0003276	117.530999899
1540.0	0.0003276	117.578000069
1540.0	0.0003275	117.608999968
1540.0	0.0003276	117.655999899
1540.0	0.0003276	117.703000069
1540.0	0.0003273	117.733999968
1540.0	0.0003276	117.780999899
1540.0	0.0003275	117.812000036
1540.0	0.0003277	117.858999968
1540.0	0.0003277	117.905999899
1540.0	0.0003275	117.937000036
1540.0	0.0003276	117.983999968
1540.0	0.0003273	118.030999899
1540.0	0.0003271	118.062000036
1540.0	0.0003271	118.108999968
1540.0	0.0003268	118.155999899
1540.0	0.0003263	118.187000036
1540.0	0.0003261	118.233999968
1540.0	0.0003257	118.280999899
1540.0	0.0003257	118.312000036
1540.0	0.0003257	118.358999968
1540.0	0.0003256	118.391000032
1540.0	0.0003257	118.437000036
1540.0	0.0003261	118.483999968
1540.0	0.0003262	118.516000032
1550.0	0.0003263	118.796999931
1550.0	0.0003261	118.828000069
1550.0	0.0003256	118.875
1550.0	0.0003251	118.921999931
1550.0	0.0003245	118.953000069
1550.0	0.000324	119.0
1550.0	0.0003236	119.046999931
1550.0	0.0003231	119.078000069
1550.0	0.0003231	119.125
1550.0	0.0003232	119.155999899
1550.0	0.0003233	119.203000069
1550.0	0.0003237	119.25
1550.0	0.0003237	119.280999899
1550.0	0.0003238	119.328000069
1550.0	0.000324	119.375
1550.0	0.0003238	119.405999899
1550.0	0.0003236	119.453000069
1550.0	0.0003236	119.483999968
1550.0	0.0003237	119.530999899
1550.0	0.0003238	119.578000069
1550.0	0.0003236	119.608999968
1550.0	0.0003236	119.655999899
1550.0	0.0003237	119.703000069
1550.0	0.0003236	119.75
1550.0	0.0003236	119.780999899
1550.0	0.0003236	119.828000069
1550.0	0.0003236	119.858999968
1550.0	0.0003238	119.905999899
1550.0	0.0003238	119.953000069
1550.0	0.0003238	120.0
1550.0	0.0003236	120.030999899
1550.0	0.0003236	120.078000069
1550.0	0.0003238	120.108999968
1550.0	0.000324	120.155999899
1550.0	0.0003242	120.203000069
1550.0	0.0003242	120.233999968
1550.0	0.000324	120.280999899
1560.0	0.0003225	120.546999931
1560.0	0.0003217	120.594000101
1560.0	0.0003207	120.641000032
1560.0	0.0003201	120.671999931
1560.0	0.0003195	120.719000101
1560.0	0.0003188	120.75
1560.0	0.0003188	120.796999931
1560.0	0.000319	120.844000101
1560.0	0.000319	120.875
1560.0	0.000319	120.921999931
1560.0	0.0003185	120.969000101
1560.0	0.0003183	121.0
1560.0	0.0003183	121.046999931
1560.0	0.0003177	121.078000069
1560.0	0.0003176	121.125
1560.0	0.0003176	121.171999931
1560.0	0.0003177	121.203000069
1560.0	0.0003178	121.25
1560.0	0.0003178	121.296999931
1560.0	0.0003177	121.328000069
1560.0	0.0003177	121.375
1560.0	0.0003176	121.405999899
1560.0	0.0003177	121.453000069
1560.0	0.0003177	121.5
1560.0	0.0003178	121.530999899
1560.0	0.0003181	121.578000069
1560.0	0.0003181	121.625
1560.0	0.0003181	121.655999899
1560.0	0.0003182	121.703000069
1560.0	0.0003178	121.75
1560.0	0.0003177	121.780999899
1560.0	0.0003176	121.828000069
1560.0	0.0003177	121.858999968
1560.0	0.0003181	121.905999899
1560.0	0.0003183	121.953000069
1560.0	0.0003183	121.983999968
1560.0	0.0003183	122.030999899
1570.0	0.0003146	122.296999931
1570.0	0.0003135	122.344000101
1570.0	0.0003127	122.391000032
1570.0	0.0003121	122.421999931
1570.0	0.000312	122.469000101
1570.0	0.0003113	122.516000032
1570.0	0.0003112	122.546999931
1570.0	0.000311	122.594000101
1570.0	0.0003108	122.641000032
1570.0	0.0003106	122.671999931
1570.0	0.0003103	122.719000101
1570.0	0.0003102	122.75
1570.0	0.0003103	122.796999931
1570.0	0.0003102	122.844000101
1570.0	0.00031	122.875
1570.0	0.0003097	122.921999931
1570.0	0.0003097	122.969000101
1570.0	0.0003095	123.0
1570.0	0.0003091	123.046999931
1570.0	0.0003091	123.078000069
1570.0	0.0003093	123.125
1570.0	0.0003091	123.171999931
1570.0	0.0003093	123.203000069
1570.0	0.0003096	123.25
1570.0	0.00031	123.296999931
1570.0	0.0003102	123.328000069
1570.0	0.0003102	123.375
1570.0	0.0003096	123.405999899
1570.0	0.0003096	123.453000069
1570.0	0.0003096	123.5
1570.0	0.0003096	123.530999899
1570.0	0.0003097	123.578000069
1570.0	0.0003096	123.625
1570.0	0.0003096	123.655999899
1570.0	0.0003095	123.703000069
1570.0	0.0003095	123.75
1570.0	0.0003093	123.780999899
1580.0	0.0003051	124.046999931
1580.0	0.0003033	124.094000101
1580.0	0.0003021	124.141000032
1580.0	0.0003008	124.171999931
1580.0	0.0003	124.219000101
1580.0	0.0002993	124.266000032
1580.0	0.0002988	124.296999931
1580.0	0.0002988	124.344000101
1580.0	0.0002988	124.391000032
1580.0	0.0002987	124.421999931
1580.0	0.0002987	124.469000101
1580.0	0.0002985	124.5
1580.0	0.0002982	124.546999931
1580.0	0.0002981	124.594000101
1580.0	0.0002978	124.625
1580.0	0.0002981	124.671999931
1580.0	0.0002981	124.719000101
1580.0	0.0002982	124.75
1580.0	0.0002982	124.796999931
1580.0	0.0002982	124.828000069
1580.0	0.0002981	124.875
1580.0	0.0002983	124.921999931
1580.0	0.0002985	124.953000069
1580.0	0.0002983	125.0
1580.0	0.0002983	125.046999931
1580.0	0.0002982	125.078000069
1580.0	0.0002982	125.125
1580.0	0.0002983	125.171999931
1580.0	0.0002983	125.203000069
1580.0	0.0002987	125.25
1580.0	0.0002988	125.296999931
1580.0	0.0002988	125.328000069
1580.0	0.0002987	125.375
1580.0	0.0002985	125.405999899
1580.0	0.0002987	125.453000069
1580.0	0.0002993	125.5
1580.0	0.0002996	125.530999899
1590.0	0.0002926	125.812000036
1590.0	0.0002907	125.858999968
1590.0	0.000289	125.891000032
1590.0	0.0002877	125.937000036
1590.0	0.0002865	125.969000101
1590.0	0.0002858	126.016000032
1590.0	0.0002853	126.062000036
1590.0	0.000285	126.094000101
1590.0	0.0002847	126.141000032
1590.0	0.000285	126.187000036
1590.0	0.000285	126.219000101
1590.0	0.0002852	126.266000032
1590.0	0.0002851	126.312000036
1590.0	0.000285	126.344000101
1590.0	0.000285	126.391000032
1590.0	0.0002847	126.421999931
1590.0	0.0002847	126.469000101
1590.0	0.0002846	126.516000032
1590.0	0.0002843	126.546999931
1590.0	0.000284	126.594000101
1590.0	0.0002838	126.641000032
1590.0	0.0002835	126.671999931
1590.0	0.0002835	126.719000101
1590.0	0.0002838	126.75
1590.0	0.0002838	126.796999931
1590.0	0.000284	126.844000101
1590.0	0.0002841	126.875
1590.0	0.0002841	126.921999931
1590.0	0.0002841	126.969000101
1590.0	0.0002841	127.0
1590.0	0.0002843	127.046999931
1590.0	0.0002845	127.094000101
1590.0	0.0002845	127.125
1590.0	0.0002845	127.171999931
1590.0	0.0002843	127.219000101
1590.0	0.0002843	127.25
1590.0	0.0002846	127.296999931
1600.0	0.0002802	127.578000069
1600.0	0.0002783	127.608999968
1600.0	0.0002768	127.655999899
1600.0	0.0002752	127.687000036
1600.0	0.0002743	127.733999968
1600.0	0.0002733	127.780999899
1600.0	0.0002727	127.812000036
1600.0	0.0002722	127.858999968
1600.0	0.0002716	127.891000032
1600.0	0.0002712	127.937000036
1600.0	0.0002708	127.983999968
1600.0	0.0002702	128.016000032
1600.0	0.0002701	128.062000036
1600.0	0.0002696	128.108999968
1600.0	0.0002691	128.141000032
1600.0	0.000269	128.187000036
1600.0	0.0002687	128.233999968
1600.0	0.0002687	128.266000032
1600.0	0.0002687	128.312000036
1600.0	0.0002688	128.344000101
1600.0	0.0002695	128.391000032
1600.0	0.0002695	128.437000036
1600.0	0.0002693	128.469000101
1600.0	0.0002691	128.516000032
1600.0	0.0002691	128.562000036
1600.0	0.0002693	128.594000101
1600.0	0.0002693	128.641000032
1600.0	0.000269	128.671999931
1600.0	0.000269	128.719000101
1600.0	0.0002688	128.766000032
1600.0	0.0002688	128.796999931
1600.0	0.000269	128.844000101
1600.0	0.0002691	128.891000032
1600.0	0.0002691	128.921999931
1600.0	0.0002693	128.969000101
1600.0	0.000269	129.016000032
1600.0	0.0002687	129.046999931
1610.0	0.0002627	129.328000069
1610.0	0.0002602	129.358999968
1610.0	0.0002582	129.405999899
1610.0	0.0002565	129.453000069
1610.0	0.0002552	129.483999968
1610.0	0.0002546	129.530999899
1610.0	0.0002537	129.562000036
1610.0	0.0002532	129.608999968
1610.0	0.0002528	129.655999899
1610.0	0.0002527	129.687000036
1610.0	0.0002525	129.733999968
1610.0	0.0002521	129.780999899
1610.0	0.0002518	129.812000036
1610.0	0.0002521	129.858999968
1610.0	0.0002522	129.891000032
1610.0	0.0002525	129.937000036
1610.0	0.0002527	129.983999968
1610.0	0.0002526	130.016000032
1610.0	0.0002525	130.062000036
1610.0	0.0002522	130.108999968
1610.0	0.0002522	130.141000032
1610.0	0.0002525	130.187000036
1610.0	0.0002526	130.233999968
1610.0	0.0002525	130.266000032
1610.0	0.0002526	130.312000036
1610.0	0.0002527	130.344000101
1610.0	0.0002527	130.391000032
1610.0	0.0002526	130.437000036
1610.0	0.0002522	130.469000101
1610.0	0.0002521	130.516000032
1610.0	0.0002518	130.562000036
1610.0	0.0002515	130.594000101
1610.0	0.0002512	130.641000032
1610.0	0.0002508	130.671999931
1610.0	0.0002508	130.719000101
1610.0	0.0002508	130.766000032
1610.0	0.0002507	130.796999931
1620.0	0.000244	131.078000069
1620.0	0.0002416	131.125
1620.0	0.0002396	131.171999931
1620.0	0.0002381	131.203000069
1620.0	0.0002365	131.25
1620.0	0.0002356	131.296999931
1620.0	0.0002346	131.328000069
1620.0	0.0002341	131.375
1620.0	0.0002337	131.421999931
1620.0	0.0002335	131.453000069
1620.0	0.0002332	131.5
1620.0	0.0002333	131.530999899
1620.0	0.0002328	131.578000069
1620.0	0.0002327	131.625
1620.0	0.0002327	131.655999899
1620.0	0.0002328	131.703000069
1620.0	0.0002332	131.75
1620.0	0.0002333	131.780999899
1620.0	0.0002332	131.828000069
1620.0	0.0002332	131.858999968
1620.0	0.0002333	131.905999899
1620.0	0.0002332	131.953000069
1620.0	0.0002333	131.983999968
1620.0	0.0002335	132.030999899
1620.0	0.0002335	132.078000069
1620.0	0.0002332	132.108999968
1620.0	0.0002327	132.155999899
1620.0	0.0002326	132.187000036
1620.0	0.0002327	132.233999968
1620.0	0.0002328	132.280999899
1620.0	0.0002328	132.312000036
1620.0	0.0002328	132.358999968
1620.0	0.0002331	132.405999899
1620.0	0.0002332	132.437000036
1620.0	0.0002333	132.483999968
1620.0	0.0002333	132.516000032
1630.0	0.000226	132.796999931
1630.0	0.0002233	132.844000101
1630.0	0.0002212	132.891000032
1630.0	0.0002193	132.921999931
1630.0	0.0002178	132.969000101
1630.0	0.0002165	133.016000032
1630.0	0.0002153	133.046999931
1630.0	0.0002146	133.094000101
1630.0	0.000214	133.141000032
1630.0	0.0002133	133.171999931
1630.0	0.0002131	133.219000101
1630.0	0.0002128	133.266000032
1630.0	0.0002127	133.296999931
1630.0	0.0002128	133.344000101
1630.0	0.0002126	133.375
1630.0	0.0002125	133.421999931
1630.0	0.0002121	133.469000101
1630.0	0.0002122	133.5
1630.0	0.0002126	133.546999931
1630.0	0.0002126	133.594000101
1630.0	0.0002126	133.625
1630.0	0.0002122	133.671999931
1630.0	0.0002118	133.703000069
1630.0	0.0002115	133.75
1630.0	0.0002115	133.796999931
1630.0	0.0002113	133.828000069
1630.0	0.0002115	133.875
1630.0	0.0002115	133.921999931
1630.0	0.0002115	133.953000069
1630.0	0.0002118	134.0
1630.0	0.0002116	134.030999899
1630.0	0.0002118	134.078000069
1630.0	0.000212	134.125
1630.0	0.000212	134.155999899
1630.0	0.0002122	134.203000069
1630.0	0.0002127	134.25
1630.0	0.0002127	134.280999899
1640.0	0.0002046	134.562000036
1640.0	0.0002016	134.608999968
1640.0	0.0001993	134.655999899
1640.0	0.0001976	134.687000036
1640.0	0.0001958	134.733999968
1640.0	0.0001945	134.780999899
1640.0	0.0001938	134.812000036
1640.0	0.0001933	134.858999968
1640.0	0.0001931	134.891000032
1640.0	0.0001927	134.937000036
1640.0	0.0001921	134.983999968
1640.0	0.0001918	135.016000032
1640.0	0.0001918	135.062000036
1640.0	0.000192	135.108999968
1640.0	0.0001921	135.141000032
1640.0	0.000192	135.187000036
1640.0	0.0001922	135.219000101
1640.0	0.0001922	135.266000032
1640.0	0.0001918	135.312000036
1640.0	0.0001916	135.344000101
1640.0	0.0001915	135.391000032
1640.0	0.0001918	135.437000036
1640.0	0.0001921	135.469000101
1640.0	0.000192	135.516000032
1640.0	0.0001921	135.546999931
1640.0	0.0001922	135.594000101
1640.0	0.0001927	135.641000032
1640.0	0.0001928	135.687000036
1640.0	0.0001927	135.719000101
1640.0	0.0001926	135.766000032
1640.0	0.0001925	135.812000036
1640.0	0.0001922	135.844000101
1640.0	0.0001925	135.891000032
1640.0	0.0001922	135.921999931
1640.0	0.0001922	135.969000101
1640.0	0.0001921	136.016000032
1640.0	0.000192	136.046999931
1650.0	0.0001843	136.328000069
1650.0	0.0001813	136.375
1650.0	0.0001793	136.421999931
1650.0	0.0001771	136.453000069
1650.0	0.0001753	136.5
1650.0	0.0001738	136.546999931
1650.0	0.0001731	136.578000069
1650.0	0.0001725	136.625
1650.0	0.0001721	136.655999899
1650.0	0.0001716	136.703000069
1650.0	0.000171	136.75
1650.0	0.0001708	136.780999899
1650.0	0.0001703	136.828000069
1650.0	0.0001702	136.875
1650.0	0.0001706	136.905999899
1650.0	0.0001703	136.953000069
1650.0	0.0001706	137.0
1650.0	0.0001702	137.030999899
1650.0	0.0001702	137.078000069
1650.0	0.0001703	137.108999968
1650.0	0.0001707	137.155999899
1650.0	0.0001708	137.203000069
1650.0	0.000171	137.233999968
1650.0	0.0001712	137.280999899
1650.0	0.000171	137.312000036
1650.0	0.0001708	137.358999968
1650.0	0.0001708	137.405999899
1650.0	0.0001708	137.437000036
1650.0	0.0001708	137.483999968
1650.0	0.0001708	137.530999899
1650.0	0.0001713	137.562000036
1650.0	0.0001716	137.608999968
1650.0	0.0001715	137.655999899
1650.0	0.0001716	137.687000036
1650.0	0.0001713	137.733999968
1650.0	0.000171	137.766000032
1650.0	0.0001713	137.812000036
1660.0	0.0001637	138.094000101
1660.0	0.0001612	138.141000032
1660.0	0.0001588	138.171999931
1660.0	0.0001571	138.219000101
1660.0	0.0001553	138.266000032
1660.0	0.0001543	138.296999931
1660.0	0.0001533	138.344000101
1660.0	0.0001525	138.391000032
1660.0	0.0001521	138.421999931
1660.0	0.0001518	138.469000101
1660.0	0.0001515	138.5
1660.0	0.0001513	138.546999931
1660.0	0.0001513	138.594000101
1660.0	0.0001512	138.625
1660.0	0.0001512	138.671999931
1660.0	0.0001513	138.719000101
1660.0	0.0001513	138.75
1660.0	0.0001513	138.796999931
1660.0	0.0001508	138.844000101
1660.0	0.0001506	138.875
1660.0	0.0001507	138.921999931
1660.0	0.0001507	138.969000101
1660.0	0.0001508	139.0
1660.0	0.0001507	139.046999931
1660.0	0.0001503	139.094000101
1660.0	0.0001502	139.125
1660.0	0.0001502	139.171999931
1660.0	0.0001502	139.203000069
1660.0	0.0001502	139.25
1660.0	0.00015	139.296999931
1660.0	0.0001497	139.328000069
1660.0	0.0001501	139.375
1660.0	0.0001501	139.421999931
1660.0	0.0001501	139.453000069
1660.0	0.0001501	139.5
1660.0	0.00015	139.530999899
1660.0	0.0001497	139.578000069
1670.0	0.000144	139.858999968
1670.0	0.000142	139.905999899
1670.0	0.0001401	139.937000036
1670.0	0.0001383	139.983999968
1670.0	0.0001372	140.030999899
1670.0	0.0001363	140.062000036
1670.0	0.0001356	140.108999968
1670.0	0.000135	140.155999899
1670.0	0.0001341	140.187000036
1670.0	0.0001338	140.233999968
1670.0	0.0001337	140.266000032
1670.0	0.0001332	140.312000036
1670.0	0.0001327	140.358999968
1670.0	0.0001326	140.391000032
1670.0	0.0001321	140.437000036
1670.0	0.000132	140.483999968
1670.0	0.0001318	140.516000032
1670.0	0.0001321	140.562000036
1670.0	0.0001325	140.608999968
1670.0	0.0001325	140.641000032
1670.0	0.0001326	140.687000036
1670.0	0.0001327	140.719000101
1670.0	0.0001326	140.766000032
1670.0	0.0001325	140.812000036
1670.0	0.0001321	140.844000101
1670.0	0.0001318	140.891000032
1670.0	0.0001318	140.937000036
1670.0	0.000132	140.969000101
1670.0	0.000132	141.016000032
1670.0	0.000132	141.046999931
1670.0	0.0001318	141.094000101
1670.0	0.000132	141.141000032
1670.0	0.000132	141.171999931
1670.0	0.0001316	141.219000101
1670.0	0.0001315	141.266000032
1670.0	0.0001318	141.296999931
1670.0	0.0001318	141.344000101
1680.0	0.0001257	141.625
1680.0	0.0001235	141.671999931
1680.0	0.0001218	141.703000069
1680.0	0.0001202	141.75
1680.0	0.000119	141.796999931
1680.0	0.0001182	141.828000069
1680.0	0.0001175	141.875
1680.0	0.0001168	141.905999899
1680.0	0.0001166	141.953000069
1680.0	0.0001162	142.0
1680.0	0.0001158	142.030999899
1680.0	0.0001156	142.078000069
1680.0	0.0001152	142.125
1680.0	0.0001151	142.155999899
1680.0	0.000115	142.203000069
1680.0	0.0001153	142.233999968
1680.0	0.0001158	142.280999899
1680.0	0.0001156	142.328000069
1680.0	0.0001156	142.358999968
1680.0	0.0001153	142.405999899
1680.0	0.0001152	142.453000069
1680.0	0.0001152	142.483999968
1680.0	0.0001151	142.530999899
1680.0	0.000115	142.562000036
1680.0	0.000115	142.608999968
1680.0	0.0001147	142.655999899
1680.0	0.000115	142.687000036
1680.0	0.0001151	142.733999968
1680.0	0.0001151	142.780999899
1680.0	0.0001153	142.812000036
1680.0	0.0001158	142.858999968
1680.0	0.0001158	142.905999899
1680.0	0.0001157	142.937000036
1680.0	0.0001156	142.983999968
1680.0	0.0001152	143.030999899
1680.0	0.0001151	143.062000036
1680.0	0.0001151	143.108999968
1690.0	0.0001095	143.391000032
1690.0	0.0001077	143.437000036
1690.0	0.0001063	143.483999968
1690.0	0.0001056	143.516000032
1690.0	0.0001045	143.562000036
1690.0	0.0001038	143.608999968
1690.0	0.0001032	143.641000032
1690.0	0.0001026	143.687000036
1690.0	0.0001025	143.733999968
1690.0	0.0001022	143.766000032
1690.0	0.0001022	143.812000036
1690.0	0.0001021	143.844000101
1690.0	0.0001016	143.891000032
1690.0	0.0001013	143.937000036
1690.0	0.0001012	143.969000101
1690.0	0.0001012	144.016000032
1690.0	0.0001012	144.062000036
1690.0	0.0001008	144.094000101
1690.0	0.0001008	144.141000032
1690.0	0.0001008	144.171999931
1690.0	0.0001007	144.219000101
1690.0	0.0001006	144.266000032
1690.0	0.0001006	144.296999931
1690.0	0.0001006	144.344000101
1690.0	0.0001007	144.391000032
1690.0	0.0001008	144.421999931
1690.0	0.000101	144.469000101
1690.0	0.000101	144.516000032
1690.0	0.0001008	144.546999931
1690.0	0.0001007	144.594000101
1690.0	0.0001007	144.625
1690.0	0.0001006	144.671999931
1690.0	0.0001006	144.719000101
1690.0	0.0001007	144.75
1690.0	0.0001003	144.796999931
1690.0	0.0001007	144.844000101
1690.0	0.0001007	144.875
1700.0	9.6e-05	145.155999899
1700.0	9.45e-05	145.187000036
1700.0	9.31e-05	145.233999968
1700.0	9.2e-05	145.266000032
1700.0	9.1e-05	145.312000036
1700.0	9e-05	145.344000101
1700.0	8.91e-05	145.375
1700.0	8.85e-05	145.421999931
1700.0	8.81e-05	145.453000069
1700.0	8.75e-05	145.483999968
1700.0	8.75e-05	145.530999899
1700.0	8.75e-05	145.562000036
1700.0	8.76e-05	145.608999968
1700.0	8.76e-05	145.641000032
1700.0	8.75e-05	145.671999931
1700.0	8.75e-05	145.719000101
1700.0	8.76e-05	145.75
1700.0	8.72e-05	145.796999931
1700.0	8.71e-05	145.828000069
1700.0	8.7e-05	145.858999968
1700.0	8.66e-05	145.905999899
1700.0	8.66e-05	145.937000036
1700.0	8.65e-05	145.983999968
1700.0	8.66e-05	146.016000032
1700.0	8.7e-05	146.046999931
1700.0	8.71e-05	146.094000101
1700.0	8.71e-05	146.125
1700.0	8.7e-05	146.171999931
1700.0	8.7e-05	146.203000069
1700.0	8.68e-05	146.25
1700.0	8.7e-05	146.280999899
1700.0	8.71e-05	146.312000036
1700.0	8.7e-05	146.358999968
1700.0	8.7e-05	146.391000032
1700.0	8.71e-05	146.421999931
1700.0	8.71e-05	146.469000101
1700.0	8.72e-05	146.5
1700.0	8.72e-05	146.530999899
1700.0	8.75e-05	146.578000069
1700.0	8.76e-05	146.608999968
1700.0	8.72e-05	146.641000032
1710.0	8.25e-05	146.921999931
1710.0	8.13e-05	146.969000101
1710.0	8.06e-05	147.0
1710.0	7.97e-05	147.030999899
1710.0	7.9e-05	147.078000069
1710.0	7.83e-05	147.108999968
1710.0	7.77e-05	147.155999899
1710.0	7.72e-05	147.187000036
1710.0	7.68e-05	147.219000101
1710.0	7.65e-05	147.266000032
1710.0	7.65e-05	147.296999931
1710.0	7.65e-05	147.328000069
1710.0	7.65e-05	147.375
1710.0	7.65e-05	147.405999899
1710.0	7.65e-05	147.453000069
1710.0	7.62e-05	147.483999968
1710.0	7.63e-05	147.516000032
1710.0	7.63e-05	147.562000036
1710.0	7.62e-05	147.594000101
1710.0	7.62e-05	147.641000032
1710.0	7.62e-05	147.671999931
1710.0	7.63e-05	147.703000069
1710.0	7.65e-05	147.75
1710.0	7.65e-05	147.780999899
1710.0	7.65e-05	147.812000036
1710.0	7.63e-05	147.858999968
1710.0	7.62e-05	147.891000032
1710.0	7.58e-05	147.921999931
1710.0	7.58e-05	147.969000101
1710.0	7.58e-05	148.0
1710.0	7.6e-05	148.046999931
1710.0	7.6e-05	148.078000069
1710.0	7.58e-05	148.108999968
1710.0	7.58e-05	148.155999899
1710.0	7.6e-05	148.187000036
1710.0	7.62e-05	148.219000101
1710.0	7.62e-05	148.266000032
1710.0	7.65e-05	148.296999931
1710.0	7.65e-05	148.344000101
1710.0	7.65e-05	148.375
1710.0	7.63e-05	148.405999899
1720.0	7.15e-05	148.687000036
1720.0	7.02e-05	148.719000101
1720.0	6.93e-05	148.766000032
1720.0	6.81e-05	148.796999931
1720.0	6.75e-05	148.844000101
1720.0	6.7e-05	148.875
1720.0	6.63e-05	148.905999899
1720.0	6.6e-05	148.953000069
1720.0	6.58e-05	148.983999968
1720.0	6.56e-05	149.016000032
1720.0	6.52e-05	149.062000036
1720.0	6.52e-05	149.094000101
1720.0	6.52e-05	149.141000032
1720.0	6.56e-05	149.171999931
1720.0	6.56e-05	149.203000069
1720.0	6.52e-05	149.25
1720.0	6.53e-05	149.280999899
1720.0	6.53e-05	149.312000036
1720.0	6.53e-05	149.358999968
1720.0	6.56e-05	149.391000032
1720.0	6.57e-05	149.421999931
1720.0	6.53e-05	149.469000101
1720.0	6.56e-05	149.5
1720.0	6.56e-05	149.546999931
1720.0	6.56e-05	149.578000069
1720.0	6.58e-05	149.608999968
1720.0	6.6e-05	149.655999899
1720.0	6.62e-05	149.687000036
1720.0	6.6e-05	149.719000101
1720.0	6.58e-05	149.766000032
1720.0	6.58e-05	149.796999931
1720.0	6.53e-05	149.828000069
1720.0	6.53e-05	149.875
1720.0	6.53e-05	149.905999899
1720.0	6.53e-05	149.953000069
1720.0	6.57e-05	149.983999968
1720.0	6.58e-05	150.016000032
1720.0	6.58e-05	150.062000036
1720.0	6.6e-05	150.094000101
1720.0	6.58e-05	150.125
1720.0	6.58e-05	150.171999931
1730.0	6.2e-05	150.453000069
1730.0	6.1e-05	150.483999968
1730.0	6.03e-05	150.530999899
1730.0	6e-05	150.562000036
1730.0	5.93e-05	150.594000101
1730.0	5.9e-05	150.641000032
1730.0	5.88e-05	150.671999931
1730.0	5.87e-05	150.703000069
1730.0	5.85e-05	150.75
1730.0	5.87e-05	150.780999899
1730.0	5.87e-05	150.828000069
1730.0	5.85e-05	150.858999968
1730.0	5.83e-05	150.891000032
1730.0	5.83e-05	150.937000036
1730.0	5.81e-05	150.969000101
1730.0	5.78e-05	151.0
1730.0	5.77e-05	151.046999931
1730.0	5.78e-05	151.078000069
1730.0	5.78e-05	151.125
1730.0	5.77e-05	151.155999899
1730.0	5.76e-05	151.187000036
1730.0	5.76e-05	151.233999968
1730.0	5.75e-05	151.266000032
1730.0	5.72e-05	151.312000036
1730.0	5.72e-05	151.344000101
1730.0	5.72e-05	151.375
1730.0	5.72e-05	151.421999931
1730.0	5.75e-05	151.453000069
1730.0	5.75e-05	151.483999968
1730.0	5.75e-05	151.530999899
1730.0	5.72e-05	151.562000036
1730.0	5.75e-05	151.594000101
1730.0	5.76e-05	151.641000032
1730.0	5.77e-05	151.671999931
1730.0	5.77e-05	151.719000101
1730.0	5.76e-05	151.75
1730.0	5.76e-05	151.780999899
1730.0	5.75e-05	151.828000069
1730.0	5.76e-05	151.858999968
1730.0	5.78e-05	151.891000032
1730.0	5.77e-05	151.937000036
1740.0	5.46e-05	152.219000101
1740.0	5.38e-05	152.25
1740.0	5.28e-05	152.296999931
1740.0	5.22e-05	152.328000069
1740.0	5.16e-05	152.358999968
1740.0	5.12e-05	152.405999899
1740.0	5.12e-05	152.437000036
1740.0	5.1e-05	152.469000101
1740.0	5.08e-05	152.516000032
1740.0	5.07e-05	152.546999931
1740.0	5.07e-05	152.594000101
1740.0	5.03e-05	152.625
1740.0	5.03e-05	152.655999899
1740.0	5.03e-05	152.703000069
1740.0	5.02e-05	152.733999968
1740.0	5.03e-05	152.766000032
1740.0	5.02e-05	152.812000036
1740.0	5.02e-05	152.844000101
1740.0	5.01e-05	152.891000032
1740.0	5.01e-05	152.921999931
1740.0	4.97e-05	152.953000069
1740.0	4.96e-05	153.0
1740.0	4.96e-05	153.030999899
1740.0	4.97e-05	153.062000036
1740.0	5e-05	153.108999968
1740.0	4.97e-05	153.141000032
1740.0	4.97e-05	153.171999931
1740.0	4.97e-05	153.219000101
1740.0	4.97e-05	153.25
1740.0	4.97e-05	153.296999931
1740.0	5e-05	153.328000069
1740.0	5.02e-05	153.358999968
1740.0	5.01e-05	153.405999899
1740.0	5.03e-05	153.437000036
1740.0	5.07e-05	153.469000101
1740.0	5.07e-05	153.516000032
1740.0	5.07e-05	153.546999931
1740.0	5.08e-05	153.594000101
1740.0	5.06e-05	153.625
1740.0	5.02e-05	153.655999899
1740.0	5.02e-05	153.703000069
1750.0	4.72e-05	153.983999968
1750.0	4.66e-05	154.030999899
1750.0	4.63e-05	154.062000036
1750.0	4.6e-05	154.094000101
1750.0	4.62e-05	154.141000032
1750.0	4.6e-05	154.171999931
1750.0	4.58e-05	154.219000101
1750.0	4.58e-05	154.25
1750.0	4.6e-05	154.280999899
1750.0	4.58e-05	154.328000069
1750.0	4.57e-05	154.358999968
1750.0	4.56e-05	154.391000032
1750.0	4.56e-05	154.437000036
1750.0	4.57e-05	154.469000101
1750.0	4.56e-05	154.516000032
1750.0	4.56e-05	154.546999931
1750.0	4.56e-05	154.578000069
1750.0	4.56e-05	154.625
1750.0	4.56e-05	154.655999899
1750.0	4.56e-05	154.687000036
1750.0	4.53e-05	154.733999968
1750.0	4.52e-05	154.766000032
1750.0	4.51e-05	154.812000036
1750.0	4.51e-05	154.844000101
1750.0	4.51e-05	154.875
1750.0	4.51e-05	154.921999931
1750.0	4.5e-05	154.953000069
1750.0	4.5e-05	154.983999968
1750.0	4.5e-05	155.030999899
1750.0	4.47e-05	155.062000036
1750.0	4.47e-05	155.094000101
1750.0	4.46e-05	155.141000032
1750.0	4.45e-05	155.171999931
1750.0	4.46e-05	155.219000101
1750.0	4.5e-05	155.25
1750.0	4.52e-05	155.280999899
1750.0	4.53e-05	155.328000069
1750.0	4.53e-05	155.358999968
1750.0	4.53e-05	155.391000032
1750.0	4.52e-05	155.437000036
1750.0	4.52e-05	155.469000101
1760.0	4.26e-05	155.766000032
1760.0	4.2e-05	155.796999931
1760.0	4.13e-05	155.844000101
1760.0	4.1e-05	155.875
1760.0	4.08e-05	155.905999899
1760.0	4.06e-05	155.953000069
1760.0	4.02e-05	155.983999968
1760.0	4e-05	156.030999899
1760.0	3.96e-05	156.062000036
1760.0	3.96e-05	156.094000101
1760.0	4e-05	156.141000032
1760.0	4.01e-05	156.171999931
1760.0	4e-05	156.203000069
1760.0	4.02e-05	156.25
1760.0	4.02e-05	156.280999899
1760.0	4.01e-05	156.312000036
1760.0	4.02e-05	156.358999968
1760.0	4e-05	156.391000032
1760.0	3.96e-05	156.437000036
1760.0	3.91e-05	156.469000101
1760.0	3.91e-05	156.5
1760.0	3.9e-05	156.546999931
1760.0	3.9e-05	156.578000069
1760.0	3.9e-05	156.608999968
1760.0	3.88e-05	156.655999899
1760.0	3.9e-05	156.687000036
1760.0	3.91e-05	156.733999968
1760.0	3.91e-05	156.766000032
1760.0	3.93e-05	156.796999931
1760.0	3.96e-05	156.844000101
1760.0	3.96e-05	156.875
1760.0	3.97e-05	156.905999899
1760.0	4e-05	156.953000069
1760.0	3.97e-05	156.983999968
1760.0	4.01e-05	157.016000032
1760.0	4.02e-05	157.062000036
1760.0	4.03e-05	157.094000101
1760.0	4.02e-05	157.141000032
1760.0	4.01e-05	157.171999931
1760.0	4e-05	157.203000069
1760.0	4.01e-05	157.25
1770.0	3.93e-05	157.546999931
1770.0	3.88e-05	157.578000069
1770.0	3.83e-05	157.608999968
1770.0	3.81e-05	157.655999899
1770.0	3.78e-05	157.687000036
1770.0	3.76e-05	157.719000101
1770.0	3.7e-05	157.766000032
1770.0	3.68e-05	157.796999931
1770.0	3.65e-05	157.844000101
1770.0	3.62e-05	157.875
1770.0	3.63e-05	157.905999899
1770.0	3.62e-05	157.953000069
1770.0	3.6e-05	157.983999968
1770.0	3.58e-05	158.016000032
1770.0	3.57e-05	158.062000036
1770.0	3.56e-05	158.094000101
1770.0	3.56e-05	158.125
1770.0	3.56e-05	158.171999931
1770.0	3.57e-05	158.203000069
1770.0	3.58e-05	158.25
1770.0	3.62e-05	158.280999899
1770.0	3.62e-05	158.328000069
1770.0	3.65e-05	158.358999968
1770.0	3.65e-05	158.391000032
1770.0	3.65e-05	158.437000036
1770.0	3.66e-05	158.469000101
1770.0	3.7e-05	158.5
1770.0	3.68e-05	158.546999931
1770.0	3.7e-05	158.578000069
1770.0	3.68e-05	158.608999968
1770.0	3.65e-05	158.655999899
1770.0	3.6e-05	158.687000036
1770.0	3.58e-05	158.733999968
1770.0	3.58e-05	158.766000032
1770.0	3.58e-05	158.796999931
1770.0	3.58e-05	158.844000101
1770.0	3.57e-05	158.875
1770.0	3.58e-05	158.905999899
1770.0	3.58e-05	158.953000069
1770.0	3.56e-05	158.983999968
1770.0	3.52e-05	159.016000032
1780.0	3.32e-05	159.312000036
1780.0	3.28e-05	159.358999968
1780.0	3.27e-05	159.391000032
1780.0	3.25e-05	159.437000036
1780.0	3.21e-05	159.469000101
1780.0	3.21e-05	159.5
1780.0	3.21e-05	159.546999931
1780.0	3.2e-05	159.578000069
1780.0	3.21e-05	159.608999968
1780.0	3.22e-05	159.655999899
1780.0	3.25e-05	159.687000036
1780.0	3.26e-05	159.719000101
1780.0	3.26e-05	159.766000032
1780.0	3.22e-05	159.796999931
1780.0	3.21e-05	159.844000101
1780.0	3.18e-05	159.875
1780.0	3.16e-05	159.905999899
1780.0	3.16e-05	159.953000069
1780.0	3.16e-05	159.983999968
1780.0	3.16e-05	160.016000032
1780.0	3.15e-05	160.062000036
1780.0	3.13e-05	160.094000101
1780.0	3.15e-05	160.125
1780.0	3.15e-05	160.171999931
1780.0	3.15e-05	160.203000069
1780.0	3.16e-05	160.25
1780.0	3.15e-05	160.280999899
1780.0	3.13e-05	160.312000036
1780.0	3.12e-05	160.358999968
1780.0	3.15e-05	160.391000032
1780.0	3.15e-05	160.421999931
1780.0	3.15e-05	160.469000101
1780.0	3.16e-05	160.5
1780.0	3.16e-05	160.546999931
1780.0	3.18e-05	160.578000069
1780.0	3.21e-05	160.608999968
1780.0	3.22e-05	160.655999899
1780.0	3.22e-05	160.687000036
1780.0	3.25e-05	160.719000101
1780.0	3.22e-05	160.766000032
1780.0	3.21e-05	160.796999931
1790.0	3.13e-05	161.094000101
1790.0	3.08e-05	161.125
1790.0	3.06e-05	161.171999931
1790.0	3.02e-05	161.203000069
1790.0	3.01e-05	161.233999968
1790.0	3.01e-05	161.280999899
1790.0	3e-05	161.312000036
1790.0	3e-05	161.358999968
1790.0	2.97e-05	161.391000032
1790.0	2.96e-05	161.437000036
1790.0	2.96e-05	161.469000101
1790.0	2.96e-05	161.5
1790.0	2.96e-05	161.546999931
1790.0	2.95e-05	161.578000069
1790.0	2.93e-05	161.608999968
1790.0	2.91e-05	161.655999899
1790.0	2.9e-05	161.687000036
1790.0	2.9e-05	161.719000101
1790.0	2.88e-05	161.766000032
1790.0	2.88e-05	161.796999931
1790.0	2.9e-05	161.844000101
1790.0	2.9e-05	161.875
1790.0	2.87e-05	161.905999899
1790.0	2.88e-05	161.953000069
1790.0	2.88e-05	161.983999968
1790.0	2.88e-05	162.016000032
1790.0	2.88e-05	162.062000036
1790.0	2.88e-05	162.094000101
1790.0	2.9e-05	162.125
1790.0	2.91e-05	162.171999931
1790.0	2.88e-05	162.203000069
1790.0	2.85e-05	162.25
1790.0	2.83e-05	162.280999899
1790.0	2.82e-05	162.312000036
1790.0	2.82e-05	162.358999968
1790.0	2.83e-05	162.391000032
1790.0	2.83e-05	162.421999931
1790.0	2.82e-05	162.469000101
1790.0	2.82e-05	162.5
1790.0	2.82e-05	162.546999931
1800.0	2.68e-05	162.828000069
1800.0	2.65e-05	162.875
1800.0	2.62e-05	162.905999899
1800.0	2.6e-05	162.937000036
1800.0	2.58e-05	162.983999968
1800.0	2.58e-05	163.016000032
1800.0	2.62e-05	163.046999931
1800.0	2.6e-05	163.094000101
1800.0	2.58e-05	163.125
1800.0	2.58e-05	163.155999899
1800.0	2.58e-05	163.203000069
1800.0	2.58e-05	163.233999968
1800.0	2.58e-05	163.280999899
1800.0	2.57e-05	163.312000036
1800.0	2.57e-05	163.344000101
1800.0	2.57e-05	163.391000032
1800.0	2.58e-05	163.421999931
1800.0	2.6e-05	163.453000069
1800.0	2.6e-05	163.5
1800.0	2.63e-05	163.530999899
1800.0	2.63e-05	163.562000036
1800.0	2.65e-05	163.608999968
1800.0	2.66e-05	163.641000032
1800.0	2.66e-05	163.687000036
1800.0	2.68e-05	163.719000101
1800.0	2.68e-05	163.75
1800.0	2.66e-05	163.796999931
1800.0	2.68e-05	163.828000069
1800.0	2.68e-05	163.858999968
1800.0	2.65e-05	163.905999899
1800.0	2.63e-05	163.937000036
1800.0	2.63e-05	163.983999968
1800.0	2.62e-05	164.016000032
1800.0	2.62e-05	164.046999931
1800.0	2.63e-05	164.094000101
1800.0	2.62e-05	164.125
1800.0	2.6e-05	164.155999899
1800.0	2.62e-05	164.203000069
1800.0	2.66e-05	164.233999968
1800.0	2.7e-05	164.266000032
1800.0	2.71e-05	164.312000036
