Your edit line - do NOT delete this line
Wavelength [nm], Voltage [V], Elapsed time [s]
900.0	0.00182	14.0940001011
900.0	0.00178	14.1410000324
900.0	0.00176	14.1720001698
900.0	0.00175	14.2030000687
900.0	0.00172	14.25
900.0	0.00171	14.2810001373
900.0	0.00171	14.3280000687
900.0	0.0017	14.3600001335
900.0	0.0017	14.4060001373
900.0	0.0017	14.4380002022
900.0	0.0017	14.4690001011
900.0	0.0017	14.5160000324
900.0	0.00168	14.5470001698
900.0	0.00168	14.6100001335
900.0	0.00168	14.6560001373
900.0	0.00168	14.7030000687
900.0	0.00168	14.7350001335
900.0	0.00168	14.7810001373
900.0	0.00168	14.8440001011
900.0	0.00168	14.875
900.0	0.00168	14.9060001373
900.0	0.00168	14.9530000687
900.0	0.00168	14.9850001335
900.0	0.00168	15.0160000324
900.0	0.0017	15.0630002022
910.0	0.00175	15.3600001335
910.0	0.00177	15.4060001373
910.0	0.00178	15.4380002022
910.0	0.00181	15.4850001335
910.0	0.00181	15.5160000324
910.0	0.00182	15.5630002022
910.0	0.00183	15.5940001011
910.0	0.00183	15.625
910.0	0.00183	15.6720001698
910.0	0.00185	15.7030000687
910.0	0.00185	15.7810001373
910.0	0.00185	15.8130002022
910.0	0.00185	15.8440001011
910.0	0.00185	15.8910000324
910.0	0.00185	15.9220001698
910.0	0.00185	15.9690001011
910.0	0.00185	16.0
910.0	0.00185	16.0470001698
910.0	0.00185	16.0780000687
910.0	0.00185	16.1100001335
910.0	0.00185	16.1560001373
910.0	0.00185	16.1880002022
910.0	0.00185	16.2190001011
910.0	0.00185	16.2660000324
910.0	0.00185	16.2970001698
910.0	0.00185	16.3440001011
920.0	0.00193	16.6410000324
920.0	0.00195	16.6720001698
920.0	0.00197	16.7190001011
920.0	0.002	16.75
920.0	0.00201	16.7970001698
920.0	0.00201	16.8280000687
920.0	0.00202	16.875
920.0	0.00202	16.9060001373
920.0	0.00203	16.9380002022
920.0	0.00203	16.9850001335
920.0	0.00203	17.0160000324
920.0	0.00203	17.0630002022
920.0	0.00203	17.0940001011
920.0	0.00203	17.1410000324
920.0	0.00203	17.1720001698
920.0	0.00203	17.2190001011
920.0	0.00203	17.25
920.0	0.00203	17.2810001373
920.0	0.00203	17.3280000687
920.0	0.00203	17.3600001335
920.0	0.00203	17.3910000324
920.0	0.00203	17.4380002022
920.0	0.00203	17.4690001011
920.0	0.00203	17.5
920.0	0.00203	17.5470001698
920.0	0.00203	17.5780000687
920.0	0.00203	17.625
930.0	0.00212	17.9060001373
930.0	0.00215	17.9530000687
930.0	0.00216	17.9850001335
930.0	0.00218	18.0310001373
930.0	0.0022	18.0630002022
930.0	0.0022	18.0940001011
930.0	0.00221	18.1410000324
930.0	0.00221	18.1720001698
930.0	0.00222	18.2030000687
930.0	0.00222	18.25
930.0	0.00222	18.2810001373
930.0	0.00222	18.3280000687
930.0	0.00222	18.3600001335
930.0	0.00222	18.3910000324
930.0	0.00222	18.4380002022
930.0	0.00225	18.4690001011
930.0	0.00222	18.5
930.0	0.00225	18.5470001698
930.0	0.00225	18.5780000687
930.0	0.00225	18.6100001335
930.0	0.00222	18.6560001373
930.0	0.00222	18.6880002022
930.0	0.00225	18.7350001335
930.0	0.00225	18.7660000324
930.0	0.00225	18.7970001698
930.0	0.00225	18.8440001011
930.0	0.00225	18.875
940.0	0.00232	19.1560001373
940.0	0.00233	19.2030000687
940.0	0.00237	19.2350001335
940.0	0.00237	19.2810001373
940.0	0.0024	19.3130002022
940.0	0.0024	19.3440001011
940.0	0.00241	19.3910000324
940.0	0.00241	19.4220001698
940.0	0.00243	19.4530000687
940.0	0.00243	19.5
940.0	0.00243	19.5310001373
940.0	0.00243	19.5630002022
940.0	0.00243	19.6100001335
940.0	0.00243	19.6410000324
940.0	0.00243	19.6720001698
940.0	0.00243	19.7190001011
940.0	0.00243	19.75
940.0	0.00243	19.7970001698
940.0	0.00243	19.8280000687
940.0	0.00243	19.8600001335
940.0	0.00243	19.9060001373
940.0	0.00243	19.9380002022
940.0	0.00243	19.9690001011
940.0	0.00243	20.0160000324
940.0	0.00243	20.0470001698
940.0	0.00243	20.0780000687
940.0	0.00245	20.125
950.0	0.00251	20.4060001373
950.0	0.00253	20.4380002022
950.0	0.00256	20.4850001335
950.0	0.00258	20.5160000324
950.0	0.0026	20.5630002022
950.0	0.0026	20.5940001011
950.0	0.0026	20.625
950.0	0.00262	20.6720001698
950.0	0.00262	20.7030000687
950.0	0.00263	20.7350001335
950.0	0.00263	20.7810001373
950.0	0.00263	20.8130002022
950.0	0.00263	20.8600001335
950.0	0.00263	20.8910000324
950.0	0.00263	20.9220001698
950.0	0.00263	20.9690001011
950.0	0.00263	21.0
950.0	0.00263	21.0470001698
950.0	0.00263	21.0780000687
950.0	0.00263	21.125
950.0	0.00263	21.1560001373
950.0	0.00263	21.1880002022
950.0	0.00263	21.2350001335
950.0	0.00263	21.2660000324
950.0	0.00263	21.2970001698
950.0	0.00263	21.3440001011
950.0	0.00263	21.375
960.0	0.00271	21.6560001373
960.0	0.00272	21.6880002022
960.0	0.00276	21.7350001335
960.0	0.00277	21.7660000324
960.0	0.00278	21.7970001698
960.0	0.00278	21.8440001011
960.0	0.00281	21.875
960.0	0.00281	21.9220001698
960.0	0.00282	21.9530000687
960.0	0.00282	21.9850001335
960.0	0.00282	22.0310001373
960.0	0.00282	22.0630002022
960.0	0.00282	22.0940001011
960.0	0.00282	22.1410000324
960.0	0.00282	22.1720001698
960.0	0.00283	22.2030000687
960.0	0.00283	22.25
960.0	0.00283	22.2810001373
960.0	0.00283	22.3280000687
960.0	0.00283	22.3600001335
960.0	0.00283	22.3910000324
960.0	0.00283	22.4380002022
960.0	0.00283	22.4690001011
960.0	0.00283	22.5
960.0	0.00283	22.5470001698
960.0	0.00283	22.5780000687
960.0	0.00283	22.6100001335
970.0	0.0029	22.8910000324
970.0	0.00293	22.9220001698
970.0	0.00295	22.9690001011
970.0	0.00296	23.0
970.0	0.00297	23.0470001698
970.0	0.003	23.0780000687
970.0	0.003	23.1100001335
970.0	0.00301	23.1560001373
970.0	0.00301	23.1880002022
970.0	0.00301	23.2190001011
970.0	0.00302	23.2660000324
970.0	0.00302	23.2970001698
970.0	0.00302	23.3280000687
970.0	0.00302	23.375
970.0	0.00302	23.4060001373
970.0	0.00302	23.4530000687
970.0	0.00302	23.4850001335
970.0	0.00302	23.5160000324
970.0	0.00302	23.5630002022
970.0	0.00303	23.5940001011
970.0	0.00302	23.625
970.0	0.00302	23.6720001698
970.0	0.00302	23.7030000687
970.0	0.00302	23.75
970.0	0.00302	23.7810001373
970.0	0.00302	23.8130002022
970.0	0.00302	23.8600001335
980.0	0.00308	24.125
980.0	0.00312	24.1560001373
980.0	0.00313	24.2030000687
980.0	0.00315	24.2350001335
980.0	0.00318	24.2660000324
980.0	0.00318	24.3130002022
980.0	0.0032	24.3440001011
980.0	0.00321	24.375
980.0	0.00321	24.4220001698
980.0	0.00321	24.4530000687
980.0	0.00321	24.5
980.0	0.00321	24.5310001373
980.0	0.00322	24.5630002022
980.0	0.00322	24.6100001335
980.0	0.00321	24.6410000324
980.0	0.00321	24.6720001698
980.0	0.00321	24.7190001011
980.0	0.00322	24.75
980.0	0.00321	24.7970001698
980.0	0.00322	24.8280000687
980.0	0.00321	24.8600001335
980.0	0.00322	24.9060001373
980.0	0.00321	24.9380002022
980.0	0.00322	24.9690001011
980.0	0.00322	25.0160000324
980.0	0.00322	25.0470001698
980.0	0.00322	25.0780000687
980.0	0.00321	25.125
990.0	0.00328	25.3910000324
990.0	0.00332	25.4220001698
990.0	0.00333	25.4690001011
990.0	0.00335	25.5
990.0	0.00337	25.5470001698
990.0	0.00338	25.5780000687
990.0	0.00338	25.6100001335
990.0	0.0034	25.6560001373
990.0	0.0034	25.6880002022
990.0	0.0034	25.7190001011
990.0	0.00341	25.7660000324
990.0	0.00341	25.7970001698
990.0	0.00341	25.8440001011
990.0	0.00341	25.875
990.0	0.00341	25.9060001373
990.0	0.00341	25.9530000687
990.0	0.00341	25.9850001335
990.0	0.00341	26.0160000324
990.0	0.00341	26.0630002022
990.0	0.00341	26.0940001011
990.0	0.00341	26.125
990.0	0.00341	26.1720001698
990.0	0.00341	26.2030000687
990.0	0.00341	26.25
990.0	0.00341	26.2810001373
990.0	0.00341	26.3130002022
990.0	0.00341	26.3600001335
1000.0	0.00347	26.625
1000.0	0.00351	26.6560001373
1000.0	0.00352	26.7030000687
1000.0	0.00356	26.7350001335
1000.0	0.00356	26.7660000324
1000.0	0.00357	26.8130002022
1000.0	0.00358	26.8440001011
1000.0	0.00358	26.8910000324
1000.0	0.0036	26.9220001698
1000.0	0.0036	26.9530000687
1000.0	0.0036	27.0
1000.0	0.0036	27.0310001373
1000.0	0.0036	27.0630002022
1000.0	0.0036	27.1100001335
1000.0	0.0036	27.1410000324
1000.0	0.0036	27.1720001698
1000.0	0.00362	27.2190001011
1000.0	0.00362	27.25
1000.0	0.00362	27.2970001698
1000.0	0.00362	27.3280000687
1000.0	0.00362	27.3600001335
1000.0	0.00362	27.4060001373
1000.0	0.00362	27.4380002022
1000.0	0.00362	27.4690001011
1000.0	0.00362	27.5160000324
1000.0	0.00362	27.5470001698
1000.0	0.0036	27.5780000687
1010.0	0.00368	27.8600001335
1010.0	0.00371	27.8910000324
1010.0	0.00372	27.9380002022
1010.0	0.00375	27.9690001011
1010.0	0.00376	28.0
1010.0	0.00377	28.0470001698
1010.0	0.00377	28.0780000687
1010.0	0.00378	28.1100001335
1010.0	0.00378	28.1560001373
1010.0	0.00378	28.1880002022
1010.0	0.00381	28.2350001335
1010.0	0.00381	28.2660000324
1010.0	0.00381	28.2970001698
1010.0	0.00381	28.3440001011
1010.0	0.00381	28.375
1010.0	0.00381	28.4220001698
1010.0	0.00381	28.4530000687
1010.0	0.00381	28.4850001335
1010.0	0.00381	28.5310001373
1010.0	0.00381	28.5630002022
1010.0	0.00381	28.5940001011
1010.0	0.00381	28.6410000324
1010.0	0.00381	28.6720001698
1010.0	0.00381	28.7190001011
1010.0	0.00381	28.75
1010.0	0.00381	28.7810001373
1010.0	0.00381	28.8280000687
1020.0	0.00388	29.0940001011
1020.0	0.0039	29.1410000324
1020.0	0.00391	29.1720001698
1020.0	0.00395	29.2030000687
1020.0	0.00395	29.25
1020.0	0.00396	29.2970001698
1020.0	0.00397	29.3280000687
1020.0	0.00397	29.375
1020.0	0.004	29.4060001373
1020.0	0.004	29.4380002022
1020.0	0.004	29.4850001335
1020.0	0.004	29.5160000324
1020.0	0.00401	29.5470001698
1020.0	0.00401	29.5940001011
1020.0	0.00401	29.625
1020.0	0.00401	29.6720001698
1020.0	0.00401	29.7030000687
1020.0	0.00401	29.7350001335
1020.0	0.00401	29.7810001373
1020.0	0.00401	29.8130002022
1020.0	0.00401	29.8440001011
1020.0	0.00401	29.8910000324
1020.0	0.00401	29.9220001698
1020.0	0.00401	29.9530000687
1020.0	0.00401	30.0
1020.0	0.00401	30.0310001373
1020.0	0.00401	30.0780000687
1030.0	0.00407	30.3440001011
1030.0	0.0041	30.3910000324
1030.0	0.00412	30.4220001698
1030.0	0.00415	30.4530000687
1030.0	0.00415	30.5
1030.0	0.00416	30.5310001373
1030.0	0.00418	30.5630002022
1030.0	0.00418	30.6100001335
1030.0	0.0042	30.6410000324
1030.0	0.0042	30.6720001698
1030.0	0.0042	30.7190001011
1030.0	0.0042	30.75
1030.0	0.00421	30.7970001698
1030.0	0.0042	30.8280000687
1030.0	0.00421	30.8600001335
1030.0	0.00421	30.9060001373
1030.0	0.0042	30.9380002022
1030.0	0.00421	30.9690001011
1030.0	0.00421	31.0160000324
1030.0	0.00421	31.0470001698
1030.0	0.00421	31.0780000687
1030.0	0.00421	31.125
1030.0	0.00421	31.1560001373
1030.0	0.00421	31.2030000687
1030.0	0.00421	31.2350001335
1030.0	0.00421	31.2660000324
1030.0	0.00421	31.3130002022
1040.0	0.00427	31.5780000687
1040.0	0.00431	31.625
1040.0	0.00432	31.6560001373
1040.0	0.00433	31.6880002022
1040.0	0.00435	31.7350001335
1040.0	0.00435	31.7660000324
1040.0	0.00437	31.7970001698
1040.0	0.00437	31.8440001011
1040.0	0.00438	31.875
1040.0	0.00438	31.9220001698
1040.0	0.00438	31.9530000687
1040.0	0.0044	31.9850001335
1040.0	0.0044	32.0310001373
1040.0	0.0044	32.0630002022
1040.0	0.0044	32.0940001011
1040.0	0.0044	32.1410000324
1040.0	0.0044	32.1720001698
1040.0	0.00441	32.2190001011
1040.0	0.0044	32.25
1040.0	0.0044	32.2810001373
1040.0	0.0044	32.3280000687
1040.0	0.0044	32.3600001335
1040.0	0.0044	32.3910000324
1040.0	0.0044	32.4380002022
1040.0	0.0044	32.4690001011
1040.0	0.00441	32.5
1040.0	0.0044	32.5470001698
1050.0	0.00447	32.8130002022
1050.0	0.0045	32.8600001335
1050.0	0.00452	32.8910000324
1050.0	0.00453	32.9220001698
1050.0	0.00456	32.9690001011
1050.0	0.00457	33.0
1050.0	0.00457	33.0470001698
1050.0	0.00458	33.0780000687
1050.0	0.00458	33.1100001335
1050.0	0.00458	33.1560001373
1050.0	0.00458	33.1880002022
1050.0	0.00458	33.2190001011
1050.0	0.00458	33.2660000324
1050.0	0.00458	33.2970001698
1050.0	0.00458	33.3440001011
1050.0	0.00458	33.375
1050.0	0.00458	33.4060001373
1050.0	0.0046	33.4530000687
1050.0	0.0046	33.4850001335
1050.0	0.00458	33.5160000324
1050.0	0.0046	33.5630002022
1050.0	0.0046	33.5940001011
1050.0	0.0046	33.625
1050.0	0.0046	33.6720001698
1050.0	0.0046	33.7030000687
1050.0	0.0046	33.75
1050.0	0.0046	33.7810001373
1060.0	0.00466	34.0630002022
1060.0	0.0047	34.0940001011
1060.0	0.00471	34.125
1060.0	0.00472	34.1720001698
1060.0	0.00475	34.2030000687
1060.0	0.00476	34.2350001335
1060.0	0.00476	34.2810001373
1060.0	0.00477	34.3130002022
1060.0	0.00477	34.3440001011
1060.0	0.00477	34.3910000324
1060.0	0.00477	34.4220001698
1060.0	0.00477	34.4690001011
1060.0	0.00478	34.5
1060.0	0.00478	34.5310001373
1060.0	0.00478	34.5780000687
1060.0	0.00478	34.6100001335
1060.0	0.00478	34.6410000324
1060.0	0.00478	34.6880002022
1060.0	0.00478	34.7190001011
1060.0	0.00478	34.75
1060.0	0.00478	34.7970001698
1060.0	0.00478	34.8280000687
1060.0	0.00478	34.875
1060.0	0.00478	34.9060001373
1060.0	0.00478	34.9380002022
1060.0	0.00478	34.9850001335
1060.0	0.00478	35.0160000324
1070.0	0.00485	35.2970001698
1070.0	0.00487	35.3280000687
1070.0	0.00488	35.3600001335
1070.0	0.0049	35.4060001373
1070.0	0.00491	35.4380002022
1070.0	0.00491	35.4690001011
1070.0	0.00493	35.5160000324
1070.0	0.00493	35.5470001698
1070.0	0.00495	35.5940001011
1070.0	0.00495	35.625
1070.0	0.00496	35.6560001373
1070.0	0.00496	35.7030000687
1070.0	0.00496	35.7350001335
1070.0	0.00496	35.7660000324
1070.0	0.00496	35.8130002022
1070.0	0.00496	35.8440001011
1070.0	0.00496	35.875
1070.0	0.00496	35.9220001698
1070.0	0.00496	35.9530000687
1070.0	0.00497	36.0
1070.0	0.00497	36.0310001373
1070.0	0.00497	36.0630002022
1070.0	0.00496	36.1100001335
1070.0	0.00496	36.1410000324
1070.0	0.00497	36.1720001698
1070.0	0.00496	36.2190001011
1070.0	0.00496	36.25
1080.0	0.00502	36.5310001373
1080.0	0.00503	36.5630002022
1080.0	0.00506	36.6100001335
1080.0	0.00508	36.6410000324
1080.0	0.00508	36.6720001698
1080.0	0.0051	36.7190001011
1080.0	0.0051	36.75
1080.0	0.00512	36.7810001373
1080.0	0.00512	36.8280000687
1080.0	0.00512	36.8600001335
1080.0	0.00512	36.8910000324
1080.0	0.00512	36.9380002022
1080.0	0.00512	36.9690001011
1080.0	0.00512	37.0
1080.0	0.00512	37.0470001698
1080.0	0.00512	37.0780000687
1080.0	0.00512	37.125
1080.0	0.00512	37.1560001373
1080.0	0.00513	37.1880002022
1080.0	0.00513	37.2350001335
1080.0	0.00513	37.2660000324
1080.0	0.00513	37.2970001698
1080.0	0.00513	37.3440001011
1080.0	0.00513	37.375
1080.0	0.00513	37.4220001698
1080.0	0.00513	37.4530000687
1080.0	0.00512	37.4850001335
1090.0	0.0052	37.7660000324
1090.0	0.00521	37.7970001698
1090.0	0.00522	37.8440001011
1090.0	0.00525	37.875
1090.0	0.00526	37.9220001698
1090.0	0.00527	37.9530000687
1090.0	0.00527	37.9850001335
1090.0	0.00527	38.0310001373
1090.0	0.00528	38.0630002022
1090.0	0.00528	38.0940001011
1090.0	0.00528	38.1410000324
1090.0	0.00528	38.1720001698
1090.0	0.00528	38.2190001011
1090.0	0.00528	38.25
1090.0	0.00528	38.2810001373
1090.0	0.00528	38.3280000687
1090.0	0.00528	38.3600001335
1090.0	0.00528	38.3910000324
1090.0	0.00531	38.4380002022
1090.0	0.00531	38.4690001011
1090.0	0.00531	38.5
1090.0	0.00531	38.5470001698
1090.0	0.00531	38.5780000687
1090.0	0.00531	38.625
1090.0	0.00531	38.6560001373
1090.0	0.00531	38.6880002022
1090.0	0.00531	38.7350001335
1100.0	0.00535	39.0160000324
1100.0	0.00538	39.0470001698
1100.0	0.0054	39.0780000687
1100.0	0.0054	39.125
1100.0	0.00541	39.1560001373
1100.0	0.00543	39.2030000687
1100.0	0.00543	39.2350001335
1100.0	0.00543	39.2660000324
1100.0	0.00543	39.3130002022
1100.0	0.00545	39.3440001011
1100.0	0.00545	39.375
1100.0	0.00545	39.4220001698
1100.0	0.00545	39.4530000687
1100.0	0.00545	39.5
1100.0	0.00545	39.5310001373
1100.0	0.00545	39.5630002022
1100.0	0.00543	39.6100001335
1100.0	0.00545	39.6410000324
1100.0	0.00545	39.6720001698
1100.0	0.00545	39.7190001011
1100.0	0.00545	39.75
1100.0	0.00545	39.7970001698
1100.0	0.00545	39.8280000687
1100.0	0.00545	39.8600001335
1100.0	0.00545	39.9060001373
1100.0	0.00545	39.9380002022
1100.0	0.00545	39.9690001011
1110.0	0.00551	40.25
1110.0	0.00552	40.2810001373
1110.0	0.00553	40.3130002022
1110.0	0.00556	40.3600001335
1110.0	0.00557	40.3910000324
1110.0	0.00557	40.4220001698
1110.0	0.00558	40.4690001011
1110.0	0.00558	40.5
1110.0	0.0056	40.5470001698
1110.0	0.00558	40.5780000687
1110.0	0.0056	40.6100001335
1110.0	0.00558	40.6560001373
1110.0	0.0056	40.6880002022
1110.0	0.0056	40.7190001011
1110.0	0.0056	40.7660000324
1110.0	0.0056	40.7970001698
1110.0	0.0056	40.8280000687
1110.0	0.0056	40.875
1110.0	0.0056	40.9060001373
1110.0	0.0056	40.9530000687
1110.0	0.0056	40.9850001335
1110.0	0.0056	41.0160000324
1110.0	0.00562	41.0630002022
1110.0	0.0056	41.0940001011
1110.0	0.00562	41.125
1110.0	0.00562	41.1720001698
1110.0	0.00562	41.2030000687
1120.0	0.00566	41.4690001011
1120.0	0.00568	41.5160000324
1120.0	0.0057	41.5470001698
1120.0	0.0057	41.5780000687
1120.0	0.00571	41.625
1120.0	0.00571	41.6560001373
1120.0	0.00572	41.6880002022
1120.0	0.00572	41.7350001335
1120.0	0.00572	41.7660000324
1120.0	0.00575	41.8130002022
1120.0	0.00575	41.8440001011
1120.0	0.00575	41.875
1120.0	0.00575	41.9220001698
1120.0	0.00575	41.9530000687
1120.0	0.00575	41.9850001335
1120.0	0.00575	42.0310001373
1120.0	0.00575	42.0630002022
1120.0	0.00575	42.0940001011
1120.0	0.00575	42.1410000324
1120.0	0.00575	42.1720001698
1120.0	0.00576	42.2190001011
1120.0	0.00575	42.25
1120.0	0.00575	42.2810001373
1120.0	0.00575	42.3280000687
1120.0	0.00575	42.3600001335
1120.0	0.00575	42.3910000324
1120.0	0.00575	42.4380002022
1130.0	0.00581	42.7030000687
1130.0	0.00582	42.7350001335
1130.0	0.00583	42.7810001373
1130.0	0.00583	42.8130002022
1130.0	0.00583	42.8440001011
1130.0	0.00585	42.8910000324
1130.0	0.00587	42.9220001698
1130.0	0.00587	42.9530000687
1130.0	0.00587	43.0
1130.0	0.00587	43.0310001373
1130.0	0.00588	43.0780000687
1130.0	0.00588	43.1100001335
1130.0	0.00588	43.1410000324
1130.0	0.00588	43.1880002022
1130.0	0.00588	43.2190001011
1130.0	0.00588	43.25
1130.0	0.00588	43.2970001698
1130.0	0.00588	43.3280000687
1130.0	0.00588	43.3600001335
1130.0	0.00588	43.4060001373
1130.0	0.00588	43.4380002022
1130.0	0.00588	43.4850001335
1130.0	0.00588	43.5160000324
1130.0	0.00587	43.5630002022
1130.0	0.00587	43.5940001011
1130.0	0.00588	43.625
1130.0	0.00588	43.6720001698
1140.0	0.00593	43.9220001698
1140.0	0.00595	43.9690001011
1140.0	0.00596	44.0
1140.0	0.00597	44.0470001698
1140.0	0.00597	44.0780000687
1140.0	0.006	44.1100001335
1140.0	0.006	44.1560001373
1140.0	0.006	44.1880002022
1140.0	0.006	44.2190001011
1140.0	0.00601	44.2660000324
1140.0	0.00601	44.2970001698
1140.0	0.00601	44.3280000687
1140.0	0.00601	44.375
1140.0	0.00601	44.4060001373
1140.0	0.00601	44.4530000687
1140.0	0.00601	44.4850001335
1140.0	0.00601	44.5160000324
1140.0	0.00601	44.5630002022
1140.0	0.00601	44.5940001011
1140.0	0.00601	44.625
1140.0	0.00601	44.6720001698
1140.0	0.00601	44.7030000687
1140.0	0.00601	44.75
1140.0	0.00601	44.7810001373
1140.0	0.00601	44.8130002022
1140.0	0.00601	44.8600001335
1140.0	0.00602	44.8910000324
1150.0	0.00606	45.1560001373
1150.0	0.00607	45.1880002022
1150.0	0.00608	45.2190001011
1150.0	0.0061	45.2660000324
1150.0	0.0061	45.2970001698
1150.0	0.00612	45.3440001011
1150.0	0.00612	45.375
1150.0	0.00612	45.4060001373
1150.0	0.00613	45.4530000687
1150.0	0.00613	45.4850001335
1150.0	0.00613	45.5160000324
1150.0	0.00613	45.5630002022
1150.0	0.00613	45.5940001011
1150.0	0.00613	45.6410000324
1150.0	0.00613	45.6720001698
1150.0	0.00612	45.7190001011
1150.0	0.00612	45.75
1150.0	0.00612	45.7810001373
1150.0	0.00612	45.8280000687
1150.0	0.00612	45.8600001335
1150.0	0.00612	45.9060001373
1150.0	0.00612	45.9380002022
1150.0	0.00612	45.9690001011
1150.0	0.00613	46.0160000324
1150.0	0.00612	46.0470001698
1150.0	0.00612	46.0940001011
1150.0	0.00612	46.125
1160.0	0.00615	46.375
1160.0	0.00616	46.4220001698
1160.0	0.00618	46.4530000687
1160.0	0.00618	46.4850001335
1160.0	0.0062	46.5310001373
1160.0	0.00621	46.5630002022
1160.0	0.00621	46.6100001335
1160.0	0.00621	46.6410000324
1160.0	0.00622	46.6720001698
1160.0	0.00622	46.7190001011
1160.0	0.00622	46.75
1160.0	0.00622	46.7810001373
1160.0	0.00625	46.8280000687
1160.0	0.00622	46.8600001335
1160.0	0.00622	46.9060001373
1160.0	0.00622	46.9380002022
1160.0	0.00622	46.9690001011
1160.0	0.00622	47.0160000324
1160.0	0.00622	47.0470001698
1160.0	0.00622	47.0780000687
1160.0	0.00622	47.125
1160.0	0.00622	47.1560001373
1160.0	0.00622	47.1880002022
1160.0	0.00622	47.2350001335
1160.0	0.00622	47.2660000324
1160.0	0.00622	47.2970001698
1160.0	0.00622	47.3440001011
1170.0	0.00626	47.5940001011
1170.0	0.00627	47.625
1170.0	0.00628	47.6720001698
1170.0	0.00631	47.7030000687
1170.0	0.00631	47.75
1170.0	0.00632	47.7810001373
1170.0	0.00632	47.8130002022
1170.0	0.00632	47.8600001335
1170.0	0.00632	47.8910000324
1170.0	0.00633	47.9220001698
1170.0	0.00633	47.9690001011
1170.0	0.00633	48.0
1170.0	0.00633	48.0470001698
1170.0	0.00633	48.0780000687
1170.0	0.00633	48.1100001335
1170.0	0.00633	48.1560001373
1170.0	0.00633	48.1880002022
1170.0	0.00633	48.2190001011
1170.0	0.00633	48.2660000324
1170.0	0.00633	48.2970001698
1170.0	0.00633	48.3280000687
1170.0	0.00633	48.375
1170.0	0.00633	48.4060001373
1170.0	0.00633	48.4530000687
1170.0	0.00633	48.4850001335
1170.0	0.00633	48.5160000324
1170.0	0.00633	48.5630002022
1180.0	0.00635	48.7970001698
1180.0	0.00637	48.8440001011
1180.0	0.00638	48.875
1180.0	0.00638	48.9220001698
1180.0	0.0064	48.9530000687
1180.0	0.0064	48.9850001335
1180.0	0.0064	49.0310001373
1180.0	0.0064	49.0630002022
1180.0	0.0064	49.0940001011
1180.0	0.0064	49.1410000324
1180.0	0.0064	49.1720001698
1180.0	0.0064	49.2030000687
1180.0	0.0064	49.25
1180.0	0.0064	49.2810001373
1180.0	0.00641	49.3280000687
1180.0	0.00641	49.3600001335
1180.0	0.00643	49.3910000324
1180.0	0.00641	49.4380002022
1180.0	0.00643	49.4690001011
1180.0	0.00643	49.5
1180.0	0.00643	49.5470001698
1180.0	0.00643	49.5780000687
1180.0	0.00643	49.625
1180.0	0.00643	49.6560001373
1180.0	0.00641	49.6880002022
1180.0	0.00641	49.7350001335
1180.0	0.00643	49.7660000324
1190.0	0.00646	50.0160000324
1190.0	0.00646	50.0630002022
1190.0	0.00646	50.0940001011
1190.0	0.00647	50.125
1190.0	0.00647	50.1720001698
1190.0	0.0065	50.2030000687
1190.0	0.0065	50.2350001335
1190.0	0.0065	50.2810001373
1190.0	0.0065	50.3130002022
1190.0	0.00651	50.3600001335
1190.0	0.00651	50.3910000324
1190.0	0.00651	50.4380002022
1190.0	0.00651	50.4690001011
1190.0	0.00651	50.5
1190.0	0.00651	50.5470001698
1190.0	0.00652	50.5780000687
1190.0	0.00652	50.6100001335
1190.0	0.00652	50.6560001373
1190.0	0.00652	50.6880002022
1190.0	0.00652	50.7190001011
1190.0	0.00652	50.7660000324
1190.0	0.00652	50.7970001698
1190.0	0.00651	50.8440001011
1190.0	0.00651	50.875
1190.0	0.00651	50.9060001373
1190.0	0.00651	50.9530000687
1190.0	0.00651	50.9850001335
1200.0	0.00653	51.2350001335
1200.0	0.00653	51.2810001373
1200.0	0.00656	51.3130002022
1200.0	0.00656	51.3440001011
1200.0	0.00657	51.3910000324
1200.0	0.00657	51.4220001698
1200.0	0.00657	51.4690001011
1200.0	0.00658	51.5
1200.0	0.00658	51.5310001373
1200.0	0.00658	51.5780000687
1200.0	0.00658	51.6100001335
1200.0	0.00658	51.6560001373
1200.0	0.00658	51.6880002022
1200.0	0.00658	51.7190001011
1200.0	0.0066	51.7660000324
1200.0	0.0066	51.7970001698
1200.0	0.0066	51.8280000687
1200.0	0.0066	51.875
1200.0	0.0066	51.9060001373
1200.0	0.0066	51.9530000687
1200.0	0.0066	51.9850001335
1200.0	0.0066	52.0160000324
1200.0	0.00658	52.0630002022
1200.0	0.00658	52.0940001011
1200.0	0.00658	52.125
1200.0	0.00658	52.1720001698
1200.0	0.00658	52.2030000687
1210.0	0.00663	52.4690001011
1210.0	0.00663	52.5
1210.0	0.00665	52.5310001373
1210.0	0.00666	52.5780000687
1210.0	0.00666	52.6100001335
1210.0	0.00666	52.6560001373
1210.0	0.00666	52.6880002022
1210.0	0.00666	52.7190001011
1210.0	0.00666	52.7660000324
1210.0	0.00666	52.7970001698
1210.0	0.00666	52.8280000687
1210.0	0.00668	52.875
1210.0	0.00668	52.9060001373
1210.0	0.00668	52.9380002022
1210.0	0.00668	52.9850001335
1210.0	0.00668	53.0160000324
1210.0	0.00668	53.0470001698
1210.0	0.00668	53.0940001011
1210.0	0.00668	53.125
1210.0	0.00668	53.1720001698
1210.0	0.00668	53.2030000687
1210.0	0.00668	53.2350001335
1210.0	0.00668	53.2810001373
1210.0	0.00668	53.3130002022
1210.0	0.0067	53.3600001335
1210.0	0.0067	53.3910000324
1210.0	0.00668	53.4220001698
1220.0	0.00671	53.6880002022
1220.0	0.00671	53.7190001011
1220.0	0.00671	53.7660000324
1220.0	0.00672	53.7970001698
1220.0	0.00672	53.8280000687
1220.0	0.00672	53.875
1220.0	0.00672	53.9060001373
1220.0	0.00672	53.9530000687
1220.0	0.00675	53.9850001335
1220.0	0.00675	54.0160000324
1220.0	0.00675	54.0630002022
1220.0	0.00675	54.0940001011
1220.0	0.00675	54.125
1220.0	0.00675	54.1720001698
1220.0	0.00675	54.2030000687
1220.0	0.00676	54.2350001335
1220.0	0.00676	54.2810001373
1220.0	0.00676	54.3130002022
1220.0	0.00676	54.3600001335
1220.0	0.00676	54.3910000324
1220.0	0.00675	54.4220001698
1220.0	0.00675	54.4690001011
1220.0	0.00675	54.5
1220.0	0.00676	54.5310001373
1220.0	0.00676	54.5780000687
1220.0	0.00676	54.6100001335
1220.0	0.00676	54.6560001373
1230.0	0.00677	54.9060001373
1230.0	0.00678	54.9530000687
1230.0	0.00678	54.9850001335
1230.0	0.00678	55.0160000324
1230.0	0.00678	55.0630002022
1230.0	0.00678	55.0940001011
1230.0	0.00678	55.1410000324
1230.0	0.00678	55.1720001698
1230.0	0.00678	55.2030000687
1230.0	0.00678	55.25
1230.0	0.00678	55.2810001373
1230.0	0.00678	55.3130002022
1230.0	0.00678	55.3600001335
1230.0	0.00678	55.3910000324
1230.0	0.00681	55.4220001698
1230.0	0.00678	55.4690001011
1230.0	0.00678	55.5
1230.0	0.00678	55.5470001698
1230.0	0.00681	55.5780000687
1230.0	0.00681	55.6100001335
1230.0	0.00681	55.6560001373
1230.0	0.00681	55.6880002022
1230.0	0.00681	55.7190001011
1230.0	0.00682	55.7660000324
1230.0	0.00681	55.7970001698
1230.0	0.00681	55.8280000687
1230.0	0.00681	55.875
1240.0	0.00682	56.1410000324
1240.0	0.00683	56.1720001698
1240.0	0.00683	56.2190001011
1240.0	0.00683	56.25
1240.0	0.00683	56.2810001373
1240.0	0.00685	56.3280000687
1240.0	0.00685	56.3600001335
1240.0	0.00685	56.4060001373
1240.0	0.00685	56.4380002022
1240.0	0.00685	56.4690001011
1240.0	0.00685	56.5160000324
1240.0	0.00685	56.5470001698
1240.0	0.00685	56.5780000687
1240.0	0.00685	56.625
1240.0	0.00685	56.6560001373
1240.0	0.00685	56.6880002022
1240.0	0.00685	56.7350001335
1240.0	0.00685	56.7660000324
1240.0	0.00683	56.7970001698
1240.0	0.00683	56.8440001011
1240.0	0.00683	56.875
1240.0	0.00683	56.9220001698
1240.0	0.00683	56.9530000687
1240.0	0.00683	56.9850001335
1240.0	0.00685	57.0310001373
1240.0	0.00683	57.0630002022
1240.0	0.00685	57.0940001011
1250.0	0.00685	57.3600001335
1250.0	0.00685	57.4060001373
1250.0	0.00687	57.4380002022
1250.0	0.00687	57.4690001011
1250.0	0.00687	57.5160000324
1250.0	0.00687	57.5470001698
1250.0	0.00687	57.5780000687
1250.0	0.00687	57.625
1250.0	0.00688	57.6560001373
1250.0	0.00688	57.7030000687
1250.0	0.00688	57.7350001335
1250.0	0.00688	57.7660000324
1250.0	0.00688	57.8130002022
1250.0	0.00688	57.8440001011
1250.0	0.00688	57.875
1250.0	0.00688	57.9220001698
1250.0	0.0069	57.9530000687
1250.0	0.0069	58.0
1250.0	0.0069	58.0310001373
1250.0	0.0069	58.0780000687
1250.0	0.0069	58.1100001335
1250.0	0.0069	58.1410000324
1250.0	0.0069	58.1880002022
1250.0	0.0069	58.2190001011
1250.0	0.0069	58.25
1250.0	0.0069	58.2970001698
1250.0	0.00688	58.3280000687
1260.0	0.0069	58.5940001011
1260.0	0.0069	58.625
1260.0	0.0069	58.6560001373
1260.0	0.00691	58.7030000687
1260.0	0.00691	58.7350001335
1260.0	0.00691	58.7660000324
1260.0	0.00691	58.8130002022
1260.0	0.00691	58.8440001011
1260.0	0.00691	58.8910000324
1260.0	0.00691	58.9220001698
1260.0	0.00691	58.9530000687
1260.0	0.00691	59.0
1260.0	0.00691	59.0310001373
1260.0	0.00691	59.0630002022
1260.0	0.00691	59.1100001335
1260.0	0.00691	59.1410000324
1260.0	0.00691	59.1720001698
1260.0	0.00691	59.2190001011
1260.0	0.00691	59.25
1260.0	0.00691	59.2970001698
1260.0	0.0069	59.3280000687
1260.0	0.0069	59.3600001335
1260.0	0.00691	59.4060001373
1260.0	0.00691	59.4380002022
1260.0	0.00691	59.4690001011
1260.0	0.00691	59.5160000324
1260.0	0.00691	59.5470001698
1270.0	0.00693	59.8130002022
1270.0	0.00693	59.8440001011
1270.0	0.00693	59.875
1270.0	0.00693	59.9220001698
1270.0	0.00693	59.9530000687
1270.0	0.00693	60.0
1270.0	0.00693	60.0310001373
1270.0	0.00693	60.0630002022
1270.0	0.00693	60.1100001335
1270.0	0.00693	60.1410000324
1270.0	0.00693	60.1720001698
1270.0	0.00695	60.2190001011
1270.0	0.00695	60.25
1270.0	0.00695	60.2810001373
1270.0	0.00695	60.3280000687
1270.0	0.00695	60.3600001335
1270.0	0.00695	60.4060001373
1270.0	0.00695	60.4380002022
1270.0	0.00693	60.4690001011
1270.0	0.00695	60.5160000324
1270.0	0.00695	60.5470001698
1270.0	0.00693	60.5780000687
1270.0	0.00695	60.625
1270.0	0.00695	60.6560001373
1270.0	0.00695	60.6880002022
1270.0	0.00695	60.7350001335
1270.0	0.00693	60.7660000324
1280.0	0.00695	61.0310001373
1280.0	0.00695	61.0630002022
1280.0	0.00695	61.0940001011
1280.0	0.00695	61.1410000324
1280.0	0.00696	61.1720001698
1280.0	0.00695	61.2190001011
1280.0	0.00695	61.25
1280.0	0.00695	61.2810001373
1280.0	0.00696	61.3280000687
1280.0	0.00695	61.3600001335
1280.0	0.00695	61.3910000324
1280.0	0.00695	61.4380002022
1280.0	0.00696	61.4690001011
1280.0	0.00696	61.5
1280.0	0.00696	61.5470001698
1280.0	0.00695	61.5780000687
1280.0	0.00696	61.625
1280.0	0.00696	61.6560001373
1280.0	0.00696	61.6880002022
1280.0	0.00696	61.7350001335
1280.0	0.00695	61.7660000324
1280.0	0.00696	61.7970001698
1280.0	0.00695	61.8440001011
1280.0	0.00695	61.875
1280.0	0.00695	61.9220001698
1280.0	0.00695	61.9530000687
1280.0	0.00695	61.9850001335
1290.0	0.00695	62.25
1290.0	0.00695	62.2810001373
1290.0	0.00696	62.3280000687
1290.0	0.00696	62.3600001335
1290.0	0.00696	62.3910000324
1290.0	0.00696	62.4380002022
1290.0	0.00696	62.4690001011
1290.0	0.00696	62.5
1290.0	0.00696	62.5470001698
1290.0	0.00696	62.5780000687
1290.0	0.00696	62.625
1290.0	0.00696	62.6560001373
1290.0	0.00696	62.6880002022
1290.0	0.00696	62.7350001335
1290.0	0.00696	62.7660000324
1290.0	0.00696	62.7970001698
1290.0	0.00696	62.8440001011
1290.0	0.00696	62.875
1290.0	0.00696	62.9060001373
1290.0	0.00696	62.9530000687
1290.0	0.00696	62.9850001335
1290.0	0.00696	63.0310001373
1290.0	0.00696	63.0630002022
1290.0	0.00696	63.0940001011
1290.0	0.00696	63.1410000324
1290.0	0.00696	63.1720001698
1290.0	0.00697	63.2190001011
1300.0	0.00695	63.4690001011
1300.0	0.00695	63.5
1300.0	0.00695	63.5470001698
1300.0	0.00695	63.5780000687
1300.0	0.00693	63.6100001335
1300.0	0.00695	63.6560001373
1300.0	0.00695	63.6880002022
1300.0	0.00695	63.7190001011
1300.0	0.00695	63.7660000324
1300.0	0.00695	63.7970001698
1300.0	0.00695	63.8440001011
1300.0	0.00695	63.875
1300.0	0.00695	63.9060001373
1300.0	0.00695	63.9530000687
1300.0	0.00695	63.9850001335
1300.0	0.00695	64.0160000324
1300.0	0.00695	64.0630002022
1300.0	0.00695	64.0940001011
1300.0	0.00695	64.125
1300.0	0.00695	64.1720001698
1300.0	0.00695	64.2030000687
1300.0	0.00696	64.25
1300.0	0.00695	64.2810001373
1300.0	0.00695	64.3130002022
1300.0	0.00695	64.3600001335
1300.0	0.00696	64.3910000324
1300.0	0.00696	64.4220001698
1310.0	0.00695	64.6880002022
1310.0	0.00693	64.7190001011
1310.0	0.00693	64.75
1310.0	0.00693	64.7970001698
1310.0	0.00693	64.8280000687
1310.0	0.00693	64.875
1310.0	0.00693	64.9060001373
1310.0	0.00693	64.9380002022
1310.0	0.00693	64.9850001335
1310.0	0.00693	65.0160000324
1310.0	0.00693	65.0630002022
1310.0	0.00693	65.0940001011
1310.0	0.00691	65.125
1310.0	0.00691	65.1720001698
1310.0	0.00691	65.2030000687
1310.0	0.00691	65.25
1310.0	0.00691	65.2810001373
1310.0	0.00691	65.3130002022
1310.0	0.00691	65.3600001335
1310.0	0.00691	65.3910000324
1310.0	0.00691	65.4380002022
1310.0	0.00691	65.4690001011
1310.0	0.00691	65.5
1310.0	0.00691	65.5470001698
1310.0	0.00693	65.5780000687
1310.0	0.00693	65.6100001335
1310.0	0.00691	65.6560001373
1320.0	0.0069	65.9060001373
1320.0	0.0069	65.9380002022
1320.0	0.00688	65.9850001335
1320.0	0.00688	66.0160000324
1320.0	0.00688	66.0470001698
1320.0	0.00687	66.0940001011
1320.0	0.00687	66.125
1320.0	0.00687	66.1720001698
1320.0	0.00687	66.2030000687
1320.0	0.00687	66.2350001335
1320.0	0.00687	66.2810001373
1320.0	0.00687	66.3130002022
1320.0	0.00687	66.3440001011
1320.0	0.00687	66.3910000324
1320.0	0.00685	66.4220001698
1320.0	0.00685	66.4690001011
1320.0	0.00687	66.5
1320.0	0.00685	66.5310001373
1320.0	0.00685	66.5780000687
1320.0	0.00685	66.6100001335
1320.0	0.00685	66.6410000324
1320.0	0.00685	66.6880002022
1320.0	0.00685	66.7190001011
1320.0	0.00685	66.75
1320.0	0.00685	66.7970001698
1320.0	0.00687	66.8280000687
1320.0	0.00685	66.875
1330.0	0.00683	67.125
1330.0	0.00682	67.1560001373
1330.0	0.00681	67.1880002022
1330.0	0.00681	67.2350001335
1330.0	0.00678	67.2660000324
1330.0	0.00677	67.2970001698
1330.0	0.00677	67.3440001011
1330.0	0.00677	67.375
1330.0	0.00677	67.4060001373
1330.0	0.00677	67.4530000687
1330.0	0.00677	67.4850001335
1330.0	0.00676	67.5310001373
1330.0	0.00676	67.5630002022
1330.0	0.00676	67.5940001011
1330.0	0.00676	67.6410000324
1330.0	0.00676	67.6720001698
1330.0	0.00676	67.7030000687
1330.0	0.00676	67.75
1330.0	0.00676	67.7810001373
1330.0	0.00676	67.8280000687
1330.0	0.00677	67.8600001335
1330.0	0.00677	67.8910000324
1330.0	0.00677	67.9380002022
1330.0	0.00677	67.9690001011
1330.0	0.00677	68.0
1330.0	0.00677	68.0470001698
1330.0	0.00676	68.0780000687
1340.0	0.00671	68.3280000687
1340.0	0.00671	68.375
1340.0	0.0067	68.4060001373
1340.0	0.00668	68.4380002022
1340.0	0.00668	68.4850001335
1340.0	0.00666	68.5160000324
1340.0	0.00666	68.5630002022
1340.0	0.00666	68.5940001011
1340.0	0.00665	68.6410000324
1340.0	0.00665	68.6720001698
1340.0	0.00665	68.7030000687
1340.0	0.00665	68.75
1340.0	0.00665	68.7810001373
1340.0	0.00665	68.8130002022
1340.0	0.00665	68.8600001335
1340.0	0.00665	68.8910000324
1340.0	0.00665	68.9220001698
1340.0	0.00665	68.9690001011
1340.0	0.00665	69.0
1340.0	0.00665	69.0470001698
1340.0	0.00665	69.0780000687
1340.0	0.00665	69.1100001335
1340.0	0.00665	69.1560001373
1340.0	0.00665	69.1880002022
1340.0	0.00663	69.2190001011
1340.0	0.00665	69.2660000324
1340.0	0.00665	69.2970001698
1350.0	0.00658	69.5470001698
1350.0	0.00657	69.5940001011
1350.0	0.00656	69.625
1350.0	0.00656	69.6720001698
1350.0	0.00653	69.7030000687
1350.0	0.00652	69.7350001335
1350.0	0.00652	69.7810001373
1350.0	0.00651	69.8130002022
1350.0	0.00651	69.8440001011
1350.0	0.00651	69.8910000324
1350.0	0.00651	69.9220001698
1350.0	0.00651	69.9530000687
1350.0	0.00651	70.0
1350.0	0.0065	70.0310001373
1350.0	0.0065	70.0780000687
1350.0	0.0065	70.1100001335
1350.0	0.0065	70.1410000324
1350.0	0.0065	70.1880002022
1350.0	0.0065	70.2190001011
1350.0	0.0065	70.25
1350.0	0.0065	70.2970001698
1350.0	0.00651	70.3280000687
1350.0	0.00651	70.375
1350.0	0.00651	70.4060001373
1350.0	0.00651	70.4380002022
1350.0	0.00651	70.4850001335
1350.0	0.00651	70.5160000324
1360.0	0.00645	70.7660000324
1360.0	0.00643	70.8130002022
1360.0	0.00641	70.8440001011
1360.0	0.0064	70.875
1360.0	0.0064	70.9220001698
1360.0	0.00638	70.9530000687
1360.0	0.00638	70.9850001335
1360.0	0.00637	71.0310001373
1360.0	0.00637	71.0630002022
1360.0	0.00637	71.1100001335
1360.0	0.00637	71.1410000324
1360.0	0.00635	71.1720001698
1360.0	0.00637	71.2190001011
1360.0	0.00635	71.25
1360.0	0.00635	71.2810001373
1360.0	0.00635	71.3280000687
1360.0	0.00635	71.3600001335
1360.0	0.00635	71.3910000324
1360.0	0.00635	71.4380002022
1360.0	0.00635	71.4690001011
1360.0	0.00635	71.5160000324
1360.0	0.00633	71.5470001698
1360.0	0.00635	71.5780000687
1360.0	0.00635	71.625
1360.0	0.00633	71.6560001373
1360.0	0.00635	71.6880002022
1360.0	0.00635	71.7350001335
1370.0	0.00631	71.9850001335
1370.0	0.00628	72.0160000324
1370.0	0.00627	72.0630002022
1370.0	0.00626	72.0940001011
1370.0	0.00625	72.1410000324
1370.0	0.00622	72.1720001698
1370.0	0.00622	72.2030000687
1370.0	0.00621	72.25
1370.0	0.00621	72.2810001373
1370.0	0.00621	72.3130002022
1370.0	0.00621	72.3600001335
1370.0	0.00621	72.3910000324
1370.0	0.00621	72.4220001698
1370.0	0.00621	72.4690001011
1370.0	0.00621	72.5
1370.0	0.00621	72.5470001698
1370.0	0.00621	72.5780000687
1370.0	0.00621	72.6100001335
1370.0	0.00622	72.6560001373
1370.0	0.00621	72.6880002022
1370.0	0.00621	72.7190001011
1370.0	0.00621	72.7660000324
1370.0	0.00621	72.7970001698
1370.0	0.00621	72.8280000687
1370.0	0.00621	72.875
1370.0	0.00621	72.9060001373
1370.0	0.00621	72.9530000687
1380.0	0.00616	73.2030000687
1380.0	0.00615	73.25
1380.0	0.00613	73.2810001373
1380.0	0.00613	73.3130002022
1380.0	0.00612	73.3600001335
1380.0	0.00612	73.3910000324
1380.0	0.0061	73.4220001698
1380.0	0.0061	73.4690001011
1380.0	0.0061	73.5
1380.0	0.0061	73.5310001373
1380.0	0.0061	73.5780000687
1380.0	0.0061	73.6100001335
1380.0	0.0061	73.6560001373
1380.0	0.0061	73.6880002022
1380.0	0.0061	73.7190001011
1380.0	0.0061	73.7660000324
1380.0	0.0061	73.7970001698
1380.0	0.0061	73.8280000687
1380.0	0.0061	73.875
1380.0	0.0061	73.9060001373
1380.0	0.0061	73.9380002022
1380.0	0.00608	73.9850001335
1380.0	0.00608	74.0160000324
1380.0	0.00608	74.0630002022
1380.0	0.00608	74.0940001011
1380.0	0.00608	74.125
1380.0	0.00608	74.1720001698
1390.0	0.00606	74.4220001698
1390.0	0.00603	74.4690001011
1390.0	0.00602	74.5
1390.0	0.00602	74.5310001373
1390.0	0.00602	74.5780000687
1390.0	0.00601	74.6100001335
1390.0	0.00601	74.6410000324
1390.0	0.00601	74.6880002022
1390.0	0.006	74.7190001011
1390.0	0.006	74.75
1390.0	0.006	74.7970001698
1390.0	0.006	74.8280000687
1390.0	0.006	74.875
1390.0	0.006	74.9060001373
1390.0	0.006	74.9380002022
1390.0	0.006	74.9850001335
1390.0	0.006	75.0160000324
1390.0	0.006	75.0470001698
1390.0	0.006	75.0940001011
1390.0	0.006	75.125
1390.0	0.006	75.1720001698
1390.0	0.006	75.2030000687
1390.0	0.006	75.2350001335
1390.0	0.006	75.2810001373
1390.0	0.006	75.3130002022
1390.0	0.006	75.3440001011
1390.0	0.006	75.3910000324
1400.0	0.00596	75.6410000324
1400.0	0.00595	75.6880002022
1400.0	0.00595	75.7190001011
1400.0	0.00595	75.75
1400.0	0.00593	75.7970001698
1400.0	0.00593	75.8280000687
1400.0	0.00593	75.8600001335
1400.0	0.00593	75.9060001373
1400.0	0.00593	75.9380002022
1400.0	0.00591	75.9850001335
1400.0	0.00593	76.0160000324
1400.0	0.00593	76.0630002022
1400.0	0.00591	76.0940001011
1400.0	0.00591	76.125
1400.0	0.00591	76.1720001698
1400.0	0.00591	76.2030000687
1400.0	0.00591	76.2350001335
1400.0	0.00591	76.2810001373
1400.0	0.00591	76.3130002022
1400.0	0.00591	76.3440001011
1400.0	0.00591	76.3910000324
1400.0	0.00591	76.4220001698
1400.0	0.00591	76.4690001011
1400.0	0.00591	76.5
1400.0	0.0059	76.5310001373
1400.0	0.00591	76.5780000687
1400.0	0.00591	76.6100001335
1410.0	0.00588	76.875
1410.0	0.00587	76.9060001373
1410.0	0.00588	76.9380002022
1410.0	0.00587	76.9850001335
1410.0	0.00587	77.0160000324
1410.0	0.00587	77.0470001698
1410.0	0.00587	77.0940001011
1410.0	0.00587	77.125
1410.0	0.00587	77.1720001698
1410.0	0.00587	77.2030000687
1410.0	0.00587	77.2350001335
1410.0	0.00587	77.2810001373
1410.0	0.00585	77.3130002022
1410.0	0.00585	77.3440001011
1410.0	0.00585	77.3910000324
1410.0	0.00585	77.4220001698
1410.0	0.00585	77.4530000687
1410.0	0.00585	77.5
1410.0	0.00585	77.5310001373
1410.0	0.00585	77.5780000687
1410.0	0.00585	77.6100001335
1410.0	0.00587	77.6410000324
1410.0	0.00585	77.6880002022
1410.0	0.00585	77.7190001011
1410.0	0.00587	77.75
1410.0	0.00585	77.7970001698
1410.0	0.00585	77.8280000687
1420.0	0.00585	78.0940001011
1420.0	0.00583	78.125
1420.0	0.00583	78.1560001373
1420.0	0.00583	78.2030000687
1420.0	0.00583	78.2350001335
1420.0	0.00583	78.2810001373
1420.0	0.00583	78.3130002022
1420.0	0.00583	78.3440001011
1420.0	0.00583	78.3910000324
1420.0	0.00583	78.4220001698
1420.0	0.00583	78.4530000687
1420.0	0.00583	78.5
1420.0	0.00583	78.5310001373
1420.0	0.00583	78.5630002022
1420.0	0.00582	78.6100001335
1420.0	0.00583	78.6410000324
1420.0	0.00582	78.6880002022
1420.0	0.00582	78.7190001011
1420.0	0.00582	78.7660000324
1420.0	0.00583	78.7970001698
1420.0	0.00582	78.8280000687
1420.0	0.00582	78.875
1420.0	0.00582	78.9060001373
1420.0	0.00582	78.9530000687
1420.0	0.00583	78.9850001335
1420.0	0.00582	79.0310001373
1420.0	0.00582	79.0630002022
1430.0	0.00583	79.3280000687
1430.0	0.00583	79.3600001335
1430.0	0.00583	79.3910000324
1430.0	0.00583	79.4380002022
1430.0	0.00583	79.4690001011
1430.0	0.00583	79.5
1430.0	0.00583	79.5470001698
1430.0	0.00583	79.5780000687
1430.0	0.00585	79.6100001335
1430.0	0.00585	79.6560001373
1430.0	0.00585	79.6880002022
1430.0	0.00585	79.7350001335
1430.0	0.00585	79.7660000324
1430.0	0.00585	79.7970001698
1430.0	0.00585	79.8440001011
1430.0	0.00583	79.875
1430.0	0.00585	79.9060001373
1430.0	0.00585	79.9530000687
1430.0	0.00585	79.9850001335
1430.0	0.00585	80.0310001373
1430.0	0.00583	80.0630002022
1430.0	0.00585	80.0940001011
1430.0	0.00585	80.1410000324
1430.0	0.00585	80.1720001698
1430.0	0.00585	80.2030000687
1430.0	0.00585	80.25
1430.0	0.00585	80.2810001373
1440.0	0.00587	80.5470001698
1440.0	0.00587	80.5780000687
1440.0	0.00587	80.6100001335
1440.0	0.00587	80.6560001373
1440.0	0.00587	80.6880002022
1440.0	0.00588	80.7190001011
1440.0	0.00588	80.7660000324
1440.0	0.00588	80.7970001698
1440.0	0.00588	80.8440001011
1440.0	0.00588	80.875
1440.0	0.00588	80.9060001373
1440.0	0.00588	80.9530000687
1440.0	0.0059	80.9850001335
1440.0	0.0059	81.0160000324
1440.0	0.0059	81.0630002022
1440.0	0.0059	81.0940001011
1440.0	0.0059	81.125
1440.0	0.0059	81.1720001698
1440.0	0.0059	81.2030000687
1440.0	0.00588	81.25
1440.0	0.00588	81.2810001373
1440.0	0.00588	81.3130002022
1440.0	0.00588	81.3600001335
1440.0	0.00588	81.3910000324
1440.0	0.00588	81.4220001698
1440.0	0.00588	81.4690001011
1440.0	0.00588	81.5
1450.0	0.00593	81.7660000324
1450.0	0.00593	81.7970001698
1450.0	0.00595	81.8280000687
1450.0	0.00595	81.875
1450.0	0.00596	81.9060001373
1450.0	0.00596	81.9530000687
1450.0	0.00596	81.9850001335
1450.0	0.00596	82.0160000324
1450.0	0.00596	82.0630002022
1450.0	0.00596	82.0940001011
1450.0	0.00596	82.125
1450.0	0.00597	82.1720001698
1450.0	0.00596	82.2030000687
1450.0	0.00597	82.2350001335
1450.0	0.00597	82.2810001373
1450.0	0.00597	82.3130002022
1450.0	0.00597	82.3600001335
1450.0	0.00597	82.3910000324
1450.0	0.00597	82.4220001698
1450.0	0.00597	82.4850001335
1450.0	0.00596	82.5310001373
1450.0	0.00597	82.5630002022
1450.0	0.00597	82.6100001335
1450.0	0.00597	82.6410000324
1450.0	0.00596	82.6720001698
1450.0	0.00597	82.7190001011
1460.0	0.006	82.9690001011
1460.0	0.00601	83.0160000324
1460.0	0.00602	83.0470001698
1460.0	0.00603	83.0780000687
1460.0	0.00603	83.125
1460.0	0.00603	83.1560001373
1460.0	0.00606	83.1880002022
1460.0	0.00606	83.2350001335
1460.0	0.00606	83.2660000324
1460.0	0.00606	83.2970001698
1460.0	0.00606	83.3440001011
1460.0	0.00606	83.375
1460.0	0.00606	83.4220001698
1460.0	0.00606	83.4530000687
1460.0	0.00606	83.4850001335
1460.0	0.00606	83.5310001373
1460.0	0.00606	83.5630002022
1460.0	0.00606	83.5940001011
1460.0	0.00606	83.6410000324
1460.0	0.00606	83.6720001698
1460.0	0.00606	83.7190001011
1460.0	0.00607	83.75
1460.0	0.00607	83.7810001373
1460.0	0.00607	83.8280000687
1460.0	0.00606	83.8600001335
1460.0	0.00607	83.8910000324
1460.0	0.00606	83.9380002022
1470.0	0.0061	84.1880002022
1470.0	0.0061	84.2350001335
1470.0	0.00612	84.2660000324
1470.0	0.00613	84.2970001698
1470.0	0.00615	84.3440001011
1470.0	0.00615	84.375
1470.0	0.00615	84.4220001698
1470.0	0.00615	84.4530000687
1470.0	0.00615	84.4850001335
1470.0	0.00615	84.5310001373
1470.0	0.00615	84.5630002022
1470.0	0.00616	84.6100001335
1470.0	0.00615	84.6410000324
1470.0	0.00615	84.6720001698
1470.0	0.00615	84.7190001011
1470.0	0.00615	84.75
1470.0	0.00615	84.7810001373
1470.0	0.00615	84.8280000687
1470.0	0.00615	84.8600001335
1470.0	0.00615	84.9060001373
1470.0	0.00616	84.9380002022
1470.0	0.00615	84.9690001011
1470.0	0.00615	85.0160000324
1470.0	0.00615	85.0470001698
1470.0	0.00615	85.0780000687
1470.0	0.00615	85.125
1470.0	0.00615	85.1560001373
1480.0	0.00618	85.4220001698
1480.0	0.0062	85.4530000687
1480.0	0.0062	85.4850001335
1480.0	0.00621	85.5310001373
1480.0	0.00622	85.5630002022
1480.0	0.00622	85.5940001011
1480.0	0.00622	85.6410000324
1480.0	0.00622	85.6720001698
1480.0	0.00622	85.7190001011
1480.0	0.00622	85.75
1480.0	0.00622	85.7810001373
1480.0	0.00622	85.8280000687
1480.0	0.00622	85.8600001335
1480.0	0.00622	85.8910000324
1480.0	0.00622	85.9380002022
1480.0	0.00622	85.9690001011
1480.0	0.00622	86.0
1480.0	0.00622	86.0470001698
1480.0	0.00622	86.0780000687
1480.0	0.00622	86.125
1480.0	0.00622	86.1560001373
1480.0	0.00622	86.1880002022
1480.0	0.00622	86.2350001335
1480.0	0.00622	86.2660000324
1480.0	0.00622	86.3130002022
1480.0	0.00622	86.3440001011
1480.0	0.00622	86.375
1490.0	0.00625	86.6410000324
1490.0	0.00626	86.6880002022
1490.0	0.00627	86.7190001011
1490.0	0.00627	86.75
1490.0	0.00627	86.7970001698
1490.0	0.00627	86.8280000687
1490.0	0.00628	86.8600001335
1490.0	0.00628	86.9060001373
1490.0	0.00628	86.9380002022
1490.0	0.00628	86.9690001011
1490.0	0.00628	87.0160000324
1490.0	0.00628	87.0470001698
1490.0	0.00628	87.0940001011
1490.0	0.00628	87.125
1490.0	0.00627	87.1560001373
1490.0	0.00628	87.2030000687
1490.0	0.00627	87.2350001335
1490.0	0.00628	87.2660000324
1490.0	0.00627	87.3130002022
1490.0	0.00627	87.3440001011
1490.0	0.00627	87.3910000324
1490.0	0.00628	87.4220001698
1490.0	0.00628	87.4530000687
1490.0	0.00628	87.5
1490.0	0.00628	87.5310001373
1490.0	0.00628	87.5630002022
1490.0	0.00628	87.6100001335
1500.0	0.00631	87.875
1500.0	0.00631	87.9060001373
1500.0	0.00631	87.9380002022
1500.0	0.00631	87.9850001335
1500.0	0.00631	88.0160000324
1500.0	0.00631	88.0470001698
1500.0	0.00631	88.0940001011
1500.0	0.00631	88.125
1500.0	0.00631	88.1560001373
1500.0	0.00631	88.2030000687
1500.0	0.00631	88.2350001335
1500.0	0.00631	88.2810001373
1500.0	0.00631	88.3130002022
1500.0	0.00632	88.3440001011
1500.0	0.00632	88.3910000324
1500.0	0.00631	88.4220001698
1500.0	0.00632	88.4530000687
1500.0	0.00632	88.5
1500.0	0.00632	88.5310001373
1500.0	0.00632	88.5780000687
1500.0	0.00632	88.6100001335
1500.0	0.00632	88.6560001373
1500.0	0.00632	88.6880002022
1500.0	0.00632	88.7190001011
1500.0	0.00632	88.7660000324
1500.0	0.00632	88.7970001698
1500.0	0.00632	88.8280000687
1510.0	0.00632	89.0940001011
1510.0	0.00632	89.1410000324
1510.0	0.00632	89.1720001698
1510.0	0.00632	89.2030000687
1510.0	0.00632	89.25
1510.0	0.00632	89.2810001373
1510.0	0.00632	89.3130002022
1510.0	0.00632	89.3600001335
1510.0	0.00632	89.3910000324
1510.0	0.00631	89.4220001698
1510.0	0.00631	89.4690001011
1510.0	0.00631	89.5
1510.0	0.00631	89.5470001698
1510.0	0.00631	89.5780000687
1510.0	0.00631	89.6100001335
1510.0	0.00631	89.6560001373
1510.0	0.00631	89.6880002022
1510.0	0.00631	89.7190001011
1510.0	0.00632	89.7660000324
1510.0	0.00632	89.7970001698
1510.0	0.00631	89.8280000687
1510.0	0.00631	89.875
1510.0	0.00631	89.9060001373
1510.0	0.00631	89.9530000687
1510.0	0.00631	89.9850001335
1510.0	0.00632	90.0160000324
1510.0	0.00632	90.0630002022
1520.0	0.00631	90.3130002022
1520.0	0.00631	90.3600001335
1520.0	0.00631	90.3910000324
1520.0	0.00631	90.4380002022
1520.0	0.00631	90.4690001011
1520.0	0.00631	90.5
1520.0	0.00631	90.5470001698
1520.0	0.00631	90.5780000687
1520.0	0.00631	90.6100001335
1520.0	0.00628	90.6560001373
1520.0	0.00628	90.6880002022
1520.0	0.00631	90.7190001011
1520.0	0.00631	90.7660000324
1520.0	0.00631	90.7970001698
1520.0	0.00631	90.8440001011
1520.0	0.00631	90.875
1520.0	0.00631	90.9060001373
1520.0	0.00631	90.9530000687
1520.0	0.00631	90.9850001335
1520.0	0.00631	91.0160000324
1520.0	0.00631	91.0630002022
1520.0	0.00631	91.0940001011
1520.0	0.00631	91.1410000324
1520.0	0.00631	91.1720001698
1520.0	0.00631	91.2030000687
1520.0	0.00631	91.25
1520.0	0.00631	91.2810001373
1530.0	0.00628	91.5470001698
1530.0	0.00628	91.5780000687
1530.0	0.00627	91.625
1530.0	0.00627	91.6560001373
1530.0	0.00626	91.7030000687
1530.0	0.00626	91.7350001335
1530.0	0.00626	91.7660000324
1530.0	0.00625	91.8130002022
1530.0	0.00625	91.8440001011
1530.0	0.00625	91.875
1530.0	0.00625	91.9220001698
1530.0	0.00625	91.9530000687
1530.0	0.00625	91.9850001335
1530.0	0.00625	92.0310001373
1530.0	0.00626	92.0630002022
1530.0	0.00625	92.1100001335
1530.0	0.00626	92.1410000324
1530.0	0.00625	92.1720001698
1530.0	0.00626	92.2190001011
1530.0	0.00625	92.25
1530.0	0.00625	92.2810001373
1530.0	0.00625	92.3280000687
1530.0	0.00625	92.3600001335
1530.0	0.00626	92.4060001373
1530.0	0.00626	92.4380002022
1530.0	0.00626	92.4690001011
1530.0	0.00626	92.5160000324
1540.0	0.00622	92.7810001373
1540.0	0.00622	92.8130002022
1540.0	0.00621	92.8440001011
1540.0	0.00621	92.8910000324
1540.0	0.0062	92.9220001698
1540.0	0.0062	92.9530000687
1540.0	0.0062	93.0
1540.0	0.00618	93.0310001373
1540.0	0.00618	93.0780000687
1540.0	0.00618	93.1100001335
1540.0	0.00618	93.1410000324
1540.0	0.00618	93.1880002022
1540.0	0.00618	93.2190001011
1540.0	0.00618	93.25
1540.0	0.00618	93.2970001698
1540.0	0.00618	93.3280000687
1540.0	0.00618	93.375
1540.0	0.00618	93.4060001373
1540.0	0.0062	93.4380002022
1540.0	0.0062	93.4850001335
1540.0	0.0062	93.5160000324
1540.0	0.0062	93.5470001698
1540.0	0.0062	93.5940001011
1540.0	0.0062	93.625
1540.0	0.0062	93.6720001698
1540.0	0.0062	93.7030000687
1540.0	0.0062	93.7350001335
1550.0	0.00615	94.0160000324
1550.0	0.00613	94.0470001698
1550.0	0.00612	94.0780000687
1550.0	0.00612	94.125
1550.0	0.0061	94.1560001373
1550.0	0.0061	94.1880002022
1550.0	0.00608	94.2350001335
1550.0	0.00608	94.2660000324
1550.0	0.00608	94.2970001698
1550.0	0.00608	94.3440001011
1550.0	0.00608	94.375
1550.0	0.00608	94.4220001698
1550.0	0.00608	94.4530000687
1550.0	0.00608	94.5
1550.0	0.00608	94.5310001373
1550.0	0.00608	94.5780000687
1550.0	0.00608	94.6100001335
1550.0	0.00608	94.6410000324
1550.0	0.00608	94.6880002022
1550.0	0.00608	94.7190001011
1550.0	0.00608	94.75
1550.0	0.00608	94.7970001698
1550.0	0.00608	94.8280000687
1550.0	0.00608	94.8600001335
1550.0	0.00608	94.9060001373
1550.0	0.00608	94.9380002022
1550.0	0.00608	94.9850001335
1560.0	0.00602	95.25
1560.0	0.00601	95.2810001373
1560.0	0.006	95.3130002022
1560.0	0.00597	95.3600001335
1560.0	0.00597	95.3910000324
1560.0	0.00596	95.4220001698
1560.0	0.00596	95.4690001011
1560.0	0.00596	95.5
1560.0	0.00596	95.5470001698
1560.0	0.00595	95.5780000687
1560.0	0.00595	95.6100001335
1560.0	0.00595	95.6560001373
1560.0	0.00595	95.6880002022
1560.0	0.00595	95.7190001011
1560.0	0.00593	95.7660000324
1560.0	0.00593	95.7970001698
1560.0	0.00593	95.8440001011
1560.0	0.00593	95.875
1560.0	0.00593	95.9060001373
1560.0	0.00593	95.9530000687
1560.0	0.00593	95.9850001335
1560.0	0.00593	96.0160000324
1560.0	0.00593	96.0630002022
1560.0	0.00593	96.0940001011
1560.0	0.00593	96.125
1560.0	0.00593	96.1720001698
1560.0	0.00593	96.2030000687
1570.0	0.00588	96.4690001011
1570.0	0.00585	96.5
1570.0	0.00583	96.5470001698
1570.0	0.00582	96.5780000687
1570.0	0.00581	96.6100001335
1570.0	0.00581	96.6560001373
1570.0	0.00578	96.6880002022
1570.0	0.00578	96.7350001335
1570.0	0.00577	96.7660000324
1570.0	0.00577	96.7970001698
1570.0	0.00577	96.8440001011
1570.0	0.00577	96.875
1570.0	0.00577	96.9060001373
1570.0	0.00577	96.9530000687
1570.0	0.00577	96.9850001335
1570.0	0.00577	97.0310001373
1570.0	0.00577	97.0630002022
1570.0	0.00577	97.0940001011
1570.0	0.00577	97.1410000324
1570.0	0.00577	97.1720001698
1570.0	0.00577	97.2030000687
1570.0	0.00577	97.25
1570.0	0.00577	97.2810001373
1570.0	0.00577	97.3130002022
1570.0	0.00577	97.3600001335
1570.0	0.00577	97.3910000324
1570.0	0.00577	97.4220001698
1580.0	0.00568	97.6880002022
1580.0	0.00565	97.7350001335
1580.0	0.00563	97.7660000324
1580.0	0.00562	97.7970001698
1580.0	0.0056	97.8440001011
1580.0	0.00558	97.875
1580.0	0.00558	97.9220001698
1580.0	0.00557	97.9530000687
1580.0	0.00557	97.9850001335
1580.0	0.00557	98.0310001373
1580.0	0.00557	98.0630002022
1580.0	0.00556	98.0940001011
1580.0	0.00557	98.1410000324
1580.0	0.00556	98.1720001698
1580.0	0.00557	98.2190001011
1580.0	0.00556	98.25
1580.0	0.00557	98.2810001373
1580.0	0.00557	98.3280000687
1580.0	0.00557	98.3600001335
1580.0	0.00556	98.4060001373
1580.0	0.00557	98.4380002022
1580.0	0.00556	98.4690001011
1580.0	0.00556	98.5160000324
1580.0	0.00556	98.5470001698
1580.0	0.00556	98.5940001011
1580.0	0.00556	98.625
1580.0	0.00556	98.6560001373
1590.0	0.00546	98.9220001698
1590.0	0.00543	98.9690001011
1590.0	0.00541	99.0
1590.0	0.0054	99.0470001698
1590.0	0.00537	99.0780000687
1590.0	0.00535	99.1100001335
1590.0	0.00535	99.1560001373
1590.0	0.00533	99.1880002022
1590.0	0.00533	99.2190001011
1590.0	0.00533	99.2660000324
1590.0	0.00532	99.2970001698
1590.0	0.00532	99.3280000687
1590.0	0.00532	99.375
1590.0	0.00532	99.4060001373
1590.0	0.00532	99.4530000687
1590.0	0.00532	99.4850001335
1590.0	0.00532	99.5310001373
1590.0	0.00532	99.5630002022
1590.0	0.00532	99.5940001011
1590.0	0.00532	99.6410000324
1590.0	0.00532	99.6720001698
1590.0	0.00532	99.7030000687
1590.0	0.00531	99.75
1590.0	0.00532	99.7810001373
1590.0	0.00532	99.8280000687
1590.0	0.00532	99.8600001335
1590.0	0.00532	99.8910000324
1600.0	0.00522	100.156000137
1600.0	0.00518	100.203000069
1600.0	0.00516	100.235000134
1600.0	0.00513	100.266000032
1600.0	0.00512	100.313000202
1600.0	0.0051	100.344000101
1600.0	0.00508	100.375
1600.0	0.00508	100.42200017
1600.0	0.00507	100.453000069
1600.0	0.00507	100.5
1600.0	0.00506	100.531000137
1600.0	0.00506	100.563000202
1600.0	0.00506	100.610000134
1600.0	0.00506	100.641000032
1600.0	0.00503	100.67200017
1600.0	0.00503	100.719000101
1600.0	0.00503	100.75
1600.0	0.00503	100.79700017
1600.0	0.00503	100.828000069
1600.0	0.00503	100.860000134
1600.0	0.00503	100.906000137
1600.0	0.00503	100.938000202
1600.0	0.00503	100.969000101
1600.0	0.00503	101.016000032
1600.0	0.00503	101.04700017
1600.0	0.00503	101.078000069
1600.0	0.00503	101.125
1610.0	0.00495	101.391000032
1610.0	0.0049	101.42200017
1610.0	0.00487	101.469000101
1610.0	0.00483	101.5
1610.0	0.00482	101.54700017
1610.0	0.00481	101.578000069
1610.0	0.00478	101.610000134
1610.0	0.00477	101.656000137
1610.0	0.00477	101.688000202
1610.0	0.00476	101.719000101
1610.0	0.00476	101.766000032
1610.0	0.00476	101.79700017
1610.0	0.00476	101.844000101
1610.0	0.00475	101.875
1610.0	0.00475	101.906000137
1610.0	0.00475	101.953000069
1610.0	0.00475	101.985000134
1610.0	0.00475	102.031000137
1610.0	0.00475	102.063000202
1610.0	0.00475	102.094000101
1610.0	0.00475	102.141000032
1610.0	0.00475	102.17200017
1610.0	0.00475	102.203000069
1610.0	0.00475	102.25
1610.0	0.00475	102.281000137
1610.0	0.00475	102.328000069
1610.0	0.00475	102.360000134
1620.0	0.00463	102.625
1620.0	0.00458	102.67200017
1620.0	0.00456	102.703000069
1620.0	0.00452	102.735000134
1620.0	0.00451	102.781000137
1620.0	0.0045	102.813000202
1620.0	0.00447	102.844000101
1620.0	0.00446	102.891000032
1620.0	0.00445	102.92200017
1620.0	0.00445	102.969000101
1620.0	0.00443	103.0
1620.0	0.00445	103.031000137
1620.0	0.00443	103.078000069
1620.0	0.00443	103.110000134
1620.0	0.00443	103.141000032
1620.0	0.00443	103.188000202
1620.0	0.00443	103.219000101
1620.0	0.00443	103.266000032
1620.0	0.00445	103.29700017
1620.0	0.00445	103.328000069
1620.0	0.00443	103.375
1620.0	0.00445	103.406000137
1620.0	0.00445	103.438000202
1620.0	0.00445	103.485000134
1620.0	0.00443	103.516000032
1620.0	0.00443	103.54700017
1620.0	0.00443	103.594000101
1630.0	0.00432	103.860000134
1630.0	0.00427	103.906000137
1630.0	0.00425	103.938000202
1630.0	0.00421	103.969000101
1630.0	0.00418	104.016000032
1630.0	0.00416	104.04700017
1630.0	0.00415	104.078000069
1630.0	0.00413	104.125
1630.0	0.00412	104.156000137
1630.0	0.00412	104.188000202
1630.0	0.0041	104.235000134
1630.0	0.0041	104.266000032
1630.0	0.0041	104.313000202
1630.0	0.0041	104.344000101
1630.0	0.0041	104.375
1630.0	0.0041	104.42200017
1630.0	0.0041	104.453000069
1630.0	0.0041	104.485000134
1630.0	0.0041	104.531000137
1630.0	0.0041	104.563000202
1630.0	0.0041	104.594000101
1630.0	0.0041	104.641000032
1630.0	0.0041	104.67200017
1630.0	0.0041	104.719000101
1630.0	0.0041	104.75
1630.0	0.00408	104.781000137
1630.0	0.0041	104.828000069
1640.0	0.00397	105.094000101
1640.0	0.00393	105.141000032
1640.0	0.0039	105.17200017
1640.0	0.00387	105.203000069
1640.0	0.00385	105.25
1640.0	0.00383	105.281000137
1640.0	0.00382	105.313000202
1640.0	0.00381	105.360000134
1640.0	0.00381	105.391000032
1640.0	0.00378	105.438000202
1640.0	0.00377	105.469000101
1640.0	0.00377	105.5
1640.0	0.00377	105.54700017
1640.0	0.00377	105.578000069
1640.0	0.00377	105.610000134
1640.0	0.00377	105.656000137
1640.0	0.00376	105.688000202
1640.0	0.00376	105.719000101
1640.0	0.00376	105.766000032
1640.0	0.00377	105.79700017
1640.0	0.00377	105.844000101
1640.0	0.00376	105.875
1640.0	0.00377	105.906000137
1640.0	0.00377	105.953000069
1640.0	0.00377	105.985000134
1640.0	0.00377	106.031000137
1640.0	0.00377	106.063000202
1650.0	0.00365	106.344000101
1650.0	0.00362	106.375
1650.0	0.00358	106.406000137
1650.0	0.00356	106.453000069
1650.0	0.00352	106.485000134
1650.0	0.00351	106.531000137
1650.0	0.0035	106.563000202
1650.0	0.0035	106.594000101
1650.0	0.00347	106.641000032
1650.0	0.00347	106.67200017
1650.0	0.00346	106.703000069
1650.0	0.00346	106.75
1650.0	0.00346	106.781000137
1650.0	0.00346	106.813000202
1650.0	0.00345	106.860000134
1650.0	0.00345	106.891000032
1650.0	0.00345	106.92200017
1650.0	0.00345	106.969000101
1650.0	0.00345	107.0
1650.0	0.00345	107.04700017
1650.0	0.00346	107.078000069
1650.0	0.00346	107.110000134
1650.0	0.00346	107.156000137
1650.0	0.00346	107.188000202
1650.0	0.00346	107.235000134
1650.0	0.00345	107.266000032
1650.0	0.00345	107.29700017
1660.0	0.00335	107.578000069
1660.0	0.00331	107.610000134
1660.0	0.00328	107.656000137
1660.0	0.00326	107.688000202
1660.0	0.00322	107.719000101
1660.0	0.00321	107.766000032
1660.0	0.0032	107.79700017
1660.0	0.00318	107.844000101
1660.0	0.00318	107.875
1660.0	0.00318	107.906000137
1660.0	0.00316	107.953000069
1660.0	0.00316	107.985000134
1660.0	0.00316	108.016000032
1660.0	0.00315	108.063000202
1660.0	0.00315	108.094000101
1660.0	0.00315	108.125
1660.0	0.00315	108.17200017
1660.0	0.00315	108.203000069
1660.0	0.00316	108.25
1660.0	0.00316	108.281000137
1660.0	0.00315	108.313000202
1660.0	0.00315	108.360000134
1660.0	0.00315	108.391000032
1660.0	0.00315	108.42200017
1660.0	0.00315	108.469000101
1660.0	0.00315	108.5
1660.0	0.00316	108.54700017
1670.0	0.00306	108.813000202
1670.0	0.00302	108.844000101
1670.0	0.00301	108.891000032
1670.0	0.00297	108.92200017
1670.0	0.00296	108.969000101
1670.0	0.00295	109.0
1670.0	0.00293	109.031000137
1670.0	0.00291	109.078000069
1670.0	0.0029	109.110000134
1670.0	0.0029	109.141000032
1670.0	0.0029	109.188000202
1670.0	0.0029	109.219000101
1670.0	0.00288	109.266000032
1670.0	0.00288	109.29700017
1670.0	0.00288	109.328000069
1670.0	0.00288	109.375
1670.0	0.00288	109.406000137
1670.0	0.00288	109.438000202
1670.0	0.00288	109.485000134
1670.0	0.00288	109.516000032
1670.0	0.00288	109.54700017
1670.0	0.00288	109.594000101
1670.0	0.00288	109.625
1670.0	0.00288	109.67200017
1670.0	0.00288	109.703000069
1670.0	0.00288	109.735000134
1670.0	0.00288	109.781000137
1680.0	0.00278	110.04700017
1680.0	0.00276	110.094000101
1680.0	0.00275	110.125
1680.0	0.00271	110.156000137
1680.0	0.0027	110.203000069
1680.0	0.00268	110.235000134
1680.0	0.00268	110.266000032
1680.0	0.00266	110.313000202
1680.0	0.00265	110.344000101
1680.0	0.00265	110.391000032
1680.0	0.00265	110.42200017
1680.0	0.00265	110.469000101
1680.0	0.00265	110.5
1680.0	0.00263	110.531000137
1680.0	0.00263	110.578000069
1680.0	0.00263	110.610000134
1680.0	0.00263	110.641000032
1680.0	0.00263	110.688000202
1680.0	0.00263	110.719000101
1680.0	0.00263	110.75
1680.0	0.00263	110.79700017
1680.0	0.00263	110.828000069
1680.0	0.00263	110.875
1680.0	0.00263	110.906000137
1680.0	0.00263	110.938000202
1680.0	0.00263	110.985000134
1680.0	0.00263	111.016000032
1690.0	0.00256	111.29700017
1690.0	0.00252	111.328000069
1690.0	0.00251	111.375
1690.0	0.00247	111.406000137
1690.0	0.00246	111.438000202
1690.0	0.00245	111.485000134
1690.0	0.00245	111.516000032
1690.0	0.00243	111.54700017
1690.0	0.00243	111.594000101
1690.0	0.00243	111.625
1690.0	0.00241	111.67200017
1690.0	0.00241	111.703000069
1690.0	0.00241	111.735000134
1690.0	0.00241	111.781000137
1690.0	0.00241	111.813000202
1690.0	0.00241	111.844000101
1690.0	0.00241	111.891000032
1690.0	0.00241	111.92200017
1690.0	0.00241	111.953000069
1690.0	0.00241	112.0
1690.0	0.00241	112.031000137
1690.0	0.00241	112.078000069
1690.0	0.00241	112.110000134
1690.0	0.00241	112.141000032
1690.0	0.00241	112.188000202
1690.0	0.00241	112.219000101
1690.0	0.00241	112.25
1700.0	0.00233	112.531000137
1700.0	0.00231	112.578000069
1700.0	0.00228	112.610000134
1700.0	0.00227	112.641000032
1700.0	0.00226	112.688000202
1700.0	0.00225	112.719000101
1700.0	0.00225	112.75
1700.0	0.00222	112.79700017
1700.0	0.00222	112.828000069
1700.0	0.00222	112.875
1700.0	0.00221	112.906000137
1700.0	0.00221	112.938000202
1700.0	0.00221	112.985000134
1700.0	0.00221	113.016000032
1700.0	0.00221	113.04700017
1700.0	0.00221	113.094000101
1700.0	0.00221	113.125
1700.0	0.0022	113.17200017
1700.0	0.00221	113.203000069
1700.0	0.0022	113.235000134
1700.0	0.00221	113.281000137
1700.0	0.00221	113.313000202
1700.0	0.0022	113.344000101
1700.0	0.0022	113.391000032
1700.0	0.00221	113.42200017
1700.0	0.00221	113.453000069
1700.0	0.00221	113.5
1710.0	0.00213	113.781000137
1710.0	0.0021	113.813000202
1710.0	0.00208	113.844000101
1710.0	0.00207	113.891000032
1710.0	0.00206	113.92200017
1710.0	0.00206	113.969000101
1710.0	0.00203	114.0
1710.0	0.00203	114.031000137
1710.0	0.00202	114.078000069
1710.0	0.00202	114.110000134
1710.0	0.00202	114.141000032
1710.0	0.00202	114.188000202
1710.0	0.00201	114.219000101
1710.0	0.00201	114.25
1710.0	0.00201	114.29700017
1710.0	0.00201	114.328000069
1710.0	0.00201	114.375
1710.0	0.00201	114.406000137
1710.0	0.00201	114.438000202
1710.0	0.00201	114.485000134
1710.0	0.00201	114.516000032
1710.0	0.00201	114.54700017
1710.0	0.00201	114.594000101
1710.0	0.00201	114.625
1710.0	0.00201	114.656000137
1710.0	0.00201	114.703000069
1710.0	0.00201	114.735000134
1720.0	0.00195	115.016000032
1720.0	0.00193	115.04700017
1720.0	0.00191	115.094000101
1720.0	0.0019	115.125
1720.0	0.00188	115.17200017
1720.0	0.00187	115.203000069
1720.0	0.00187	115.235000134
1720.0	0.00185	115.281000137
1720.0	0.00185	115.313000202
1720.0	0.00185	115.344000101
1720.0	0.00185	115.391000032
1720.0	0.00185	115.42200017
1720.0	0.00185	115.453000069
1720.0	0.00185	115.5
1720.0	0.00183	115.531000137
1720.0	0.00185	115.578000069
1720.0	0.00185	115.610000134
1720.0	0.00185	115.641000032
1720.0	0.00183	115.688000202
1720.0	0.00183	115.719000101
1720.0	0.00183	115.75
1720.0	0.00183	115.79700017
1720.0	0.00183	115.828000069
1720.0	0.00183	115.860000134
1720.0	0.00183	115.906000137
1720.0	0.00183	115.938000202
1720.0	0.00183	115.985000134
1730.0	0.00178	116.25
1730.0	0.00176	116.29700017
1730.0	0.00175	116.328000069
1730.0	0.00172	116.375
1730.0	0.00171	116.406000137
1730.0	0.00171	116.438000202
1730.0	0.00171	116.485000134
1730.0	0.0017	116.516000032
1730.0	0.0017	116.54700017
1730.0	0.0017	116.594000101
1730.0	0.00168	116.625
1730.0	0.00168	116.656000137
1730.0	0.00168	116.703000069
1730.0	0.00168	116.735000134
1730.0	0.00168	116.781000137
1730.0	0.00168	116.813000202
1730.0	0.00168	116.844000101
1730.0	0.00168	116.891000032
1730.0	0.00168	116.92200017
1730.0	0.00168	116.953000069
1730.0	0.00168	117.0
1730.0	0.00168	117.031000137
1730.0	0.00168	117.078000069
1730.0	0.00168	117.110000134
1730.0	0.00168	117.141000032
1730.0	0.00168	117.188000202
1730.0	0.00168	117.219000101
1740.0	0.00162	117.5
1740.0	0.0016	117.531000137
1740.0	0.00158	117.578000069
1740.0	0.00157	117.610000134
1740.0	0.00157	117.656000137
1740.0	0.00156	117.688000202
1740.0	0.00156	117.719000101
1740.0	0.00153	117.766000032
1740.0	0.00153	117.79700017
1740.0	0.00153	117.828000069
1740.0	0.00152	117.875
1740.0	0.00152	117.906000137
1740.0	0.00152	117.953000069
1740.0	0.00152	117.985000134
1740.0	0.00152	118.016000032
1740.0	0.00152	118.063000202
1740.0	0.00152	118.094000101
1740.0	0.00152	118.125
1740.0	0.00152	118.17200017
1740.0	0.00152	118.203000069
1740.0	0.00152	118.235000134
1740.0	0.00152	118.281000137
1740.0	0.00152	118.313000202
1740.0	0.00152	118.360000134
1740.0	0.00152	118.391000032
1740.0	0.00152	118.42200017
1740.0	0.00152	118.469000101
1750.0	0.00146	118.75
1750.0	0.00146	118.781000137
1750.0	0.00143	118.828000069
1750.0	0.00143	118.860000134
1750.0	0.00141	118.906000137
1750.0	0.00141	118.938000202
1750.0	0.0014	118.969000101
1750.0	0.0014	119.016000032
1750.0	0.0014	119.04700017
1750.0	0.0014	119.078000069
1750.0	0.00138	119.125
1750.0	0.00138	119.156000137
1750.0	0.00138	119.188000202
1750.0	0.00138	119.235000134
1750.0	0.00138	119.266000032
1750.0	0.00138	119.313000202
1750.0	0.00138	119.344000101
1750.0	0.00138	119.375
1750.0	0.00138	119.42200017
1750.0	0.00138	119.453000069
1750.0	0.00138	119.485000134
1750.0	0.00138	119.531000137
1750.0	0.00138	119.563000202
1750.0	0.00138	119.594000101
1750.0	0.00138	119.641000032
1750.0	0.00138	119.67200017
1750.0	0.00138	119.719000101
1760.0	0.00133	120.0
1760.0	0.00132	120.04700017
1760.0	0.00131	120.078000069
1760.0	0.00128	120.110000134
1760.0	0.00128	120.156000137
1760.0	0.00127	120.188000202
1760.0	0.00127	120.219000101
1760.0	0.00126	120.266000032
1760.0	0.00126	120.29700017
1760.0	0.00126	120.328000069
1760.0	0.00126	120.375
1760.0	0.00126	120.406000137
1760.0	0.00126	120.453000069
1760.0	0.00125	120.485000134
1760.0	0.00126	120.516000032
1760.0	0.00126	120.563000202
1760.0	0.00125	120.594000101
1760.0	0.00125	120.625
1760.0	0.00126	120.67200017
1760.0	0.00125	120.703000069
1760.0	0.00125	120.75
1760.0	0.00125	120.781000137
1760.0	0.00125	120.813000202
1760.0	0.00125	120.860000134
1760.0	0.00125	120.891000032
1760.0	0.00125	120.92200017
1760.0	0.00125	120.969000101
1770.0	0.00121	121.266000032
1770.0	0.00118	121.29700017
1770.0	0.00118	121.328000069
1770.0	0.00116	121.375
1770.0	0.00115	121.406000137
1770.0	0.00115	121.453000069
1770.0	0.00113	121.485000134
1770.0	0.00113	121.516000032
1770.0	0.00113	121.563000202
1770.0	0.00113	121.594000101
1770.0	0.00113	121.641000032
1770.0	0.00113	121.67200017
1770.0	0.00113	121.703000069
1770.0	0.00113	121.75
1770.0	0.00113	121.781000137
1770.0	0.00113	121.813000202
1770.0	0.00113	121.860000134
1770.0	0.00113	121.891000032
1770.0	0.00113	121.92200017
1770.0	0.00113	121.969000101
1770.0	0.00113	122.0
1770.0	0.00112	122.04700017
1770.0	0.00113	122.078000069
1770.0	0.00113	122.110000134
1770.0	0.00113	122.156000137
1770.0	0.00113	122.188000202
1770.0	0.00113	122.219000101
1780.0	0.00108	122.516000032
1780.0	0.00107	122.563000202
1780.0	0.00106	122.594000101
1780.0	0.00103	122.625
1780.0	0.00103	122.67200017
1780.0	0.00103	122.703000069
1780.0	0.00102	122.75
1780.0	0.00102	122.781000137
1780.0	0.00102	122.813000202
1780.0	0.00101	122.860000134
1780.0	0.00101	122.891000032
1780.0	0.00101	122.92200017
1780.0	0.00101	122.969000101
1780.0	0.00101	123.0
1780.0	0.00101	123.031000137
1780.0	0.00101	123.078000069
1780.0	0.00101	123.110000134
1780.0	0.00101	123.141000032
1780.0	0.00101	123.188000202
1780.0	0.00101	123.219000101
1780.0	0.00101	123.266000032
1780.0	0.00101	123.29700017
1780.0	0.00101	123.328000069
1780.0	0.00101	123.375
1780.0	0.00101	123.406000137
1780.0	0.00101	123.438000202
1780.0	0.00101	123.485000134
1790.0	0.00096	123.781000137
1790.0	0.00095	123.813000202
1790.0	0.00095	123.844000101
1790.0	0.00093	123.891000032
1790.0	0.00093	123.92200017
1790.0	0.00091	123.969000101
1790.0	0.00091	124.0
1790.0	0.00091	124.031000137
1790.0	0.0009	124.078000069
1790.0	0.0009	124.110000134
1790.0	0.0009	124.141000032
1790.0	0.0009	124.188000202
1790.0	0.0009	124.219000101
1790.0	0.0009	124.266000032
1790.0	0.0009	124.29700017
1790.0	0.0009	124.328000069
1790.0	0.0009	124.375
1790.0	0.0009	124.406000137
1790.0	0.0009	124.438000202
1790.0	0.0009	124.485000134
1790.0	0.0009	124.516000032
1790.0	0.0009	124.54700017
1790.0	0.0009	124.594000101
1790.0	0.0009	124.625
1790.0	0.0009	124.67200017
1790.0	0.0009	124.703000069
1790.0	0.0009	124.735000134
1800.0	0.00085	125.031000137
1800.0	0.00083	125.063000202
1800.0	0.00083	125.110000134
1800.0	0.00082	125.141000032
1800.0	0.00082	125.17200017
1800.0	0.00081	125.219000101
1800.0	0.00081	125.25
1800.0	0.00081	125.281000137
1800.0	0.00081	125.328000069
1800.0	0.00081	125.360000134
1800.0	0.00081	125.406000137
1800.0	0.00078	125.438000202
1800.0	0.00078	125.469000101
1800.0	0.00078	125.516000032
1800.0	0.00078	125.54700017
1800.0	0.00078	125.578000069
1800.0	0.00078	125.625
1800.0	0.00078	125.656000137
1800.0	0.00078	125.703000069
1800.0	0.00078	125.735000134
1800.0	0.00078	125.766000032
1800.0	0.00078	125.813000202
1800.0	0.00078	125.844000101
1800.0	0.00078	125.875
1800.0	0.00078	125.92200017
1800.0	0.00078	125.953000069
1800.0	0.00078	125.985000134
