Your edit line - do NOT delete this line
Wavelength [nm], Voltage [V], Elapsed time [s]
900.0	0.0001208	6.20300006866
900.0	0.000118	6.23500013351
900.0	0.0001165	6.28100013733
900.0	0.000115	6.32800006866
900.0	0.000114	6.36000013351
900.0	0.000113	6.40600013733
900.0	0.0001125	6.43800020218
900.0	0.0001118	6.48500013351
900.0	0.0001115	6.53100013733
900.0	0.0001113	6.56300020218
900.0	0.0001108	6.61000013351
900.0	0.0001105	6.65600013733
900.0	0.0001105	6.68800020218
900.0	0.0001103	6.73500013351
900.0	0.0001103	6.76600003242
900.0	0.0001103	6.81300020218
900.0	0.0001103	6.86000013351
900.0	0.0001103	6.89100003242
900.0	0.0001103	6.93800020218
900.0	0.0001103	6.98500013351
900.0	0.0001105	7.01600003242
900.0	0.0001105	7.06300020218
900.0	0.0001105	7.09400010109
900.0	0.0001105	7.14100003242
900.0	0.0001108	7.18800020218
900.0	0.0001113	7.21900010109
900.0	0.0001118	7.26600003242
900.0	0.0001118	7.31300020218
900.0	0.0001118	7.36000013351
900.0	0.0001118	7.39100003242
900.0	0.0001118	7.43800020218
900.0	0.0001115	7.48500013351
900.0	0.0001115	7.51600003242
900.0	0.0001115	7.56300020218
900.0	0.0001115	7.61000013351
900.0	0.0001115	7.64100003242
900.0	0.0001113	7.68800020218
910.0	0.0001153	7.98500013351
910.0	0.000117	8.03100013733
910.0	0.0001183	8.07800006866
910.0	0.0001193	8.11000013351
910.0	0.0001205	8.15600013733
910.0	0.0001213	8.20300006866
910.0	0.0001215	8.23500013351
910.0	0.0001218	8.28100013733
910.0	0.000122	8.32800006866
910.0	0.0001225	8.36000013351
910.0	0.0001228	8.40600013733
910.0	0.0001228	8.43800020218
910.0	0.0001228	8.48500013351
910.0	0.0001228	8.53100013733
910.0	0.0001225	8.56300020218
910.0	0.000122	8.61000013351
910.0	0.0001225	8.65600013733
910.0	0.0001228	8.68800020218
910.0	0.0001228	8.73500013351
910.0	0.0001225	8.76600003242
910.0	0.0001225	8.81300020218
910.0	0.0001225	8.86000013351
910.0	0.000122	8.89100003242
910.0	0.000122	8.93800020218
910.0	0.0001228	8.98500013351
910.0	0.000123	9.01600003242
910.0	0.0001233	9.06300020218
910.0	0.0001238	9.11000013351
910.0	0.0001233	9.14100003242
910.0	0.000123	9.18800020218
910.0	0.000123	9.21900010109
910.0	0.000123	9.26600003242
910.0	0.000123	9.31300020218
910.0	0.0001228	9.34400010109
910.0	0.0001228	9.39100003242
910.0	0.0001228	9.43800020218
910.0	0.0001225	9.46900010109
920.0	0.0001278	9.78100013733
920.0	0.00013	9.81300020218
920.0	0.0001313	9.86000013351
920.0	0.0001325	9.89100003242
920.0	0.000133	9.93800020218
920.0	0.000134	9.98500013351
920.0	0.0001343	10.0160000324
920.0	0.0001345	10.0630002022
920.0	0.000135	10.1100001335
920.0	0.0001353	10.1410000324
920.0	0.0001353	10.1880002022
920.0	0.000135	10.2350001335
920.0	0.000135	10.2660000324
920.0	0.0001353	10.3130002022
920.0	0.0001355	10.3440001011
920.0	0.0001355	10.3910000324
920.0	0.0001355	10.4380002022
920.0	0.0001355	10.4690001011
920.0	0.0001355	10.5160000324
920.0	0.0001358	10.5630002022
920.0	0.0001358	10.5940001011
920.0	0.0001363	10.6410000324
920.0	0.0001363	10.6720001698
920.0	0.0001363	10.7190001011
920.0	0.0001363	10.7660000324
920.0	0.0001358	10.8130002022
920.0	0.0001358	10.8440001011
920.0	0.0001355	10.8910000324
920.0	0.0001355	10.9220001698
920.0	0.0001355	10.9690001011
920.0	0.0001355	11.0160000324
920.0	0.0001355	11.0470001698
920.0	0.0001355	11.0940001011
920.0	0.0001355	11.1410000324
920.0	0.0001355	11.1720001698
920.0	0.0001355	11.2190001011
920.0	0.0001355	11.2660000324
930.0	0.0001415	11.5630002022
930.0	0.000143	11.6100001335
930.0	0.0001443	11.6410000324
930.0	0.0001455	11.6880002022
930.0	0.0001468	11.7190001011
930.0	0.0001478	11.7660000324
930.0	0.0001483	11.8130002022
930.0	0.0001488	11.8440001011
930.0	0.000149	11.8910000324
930.0	0.0001493	11.9380002022
930.0	0.0001495	11.9690001011
930.0	0.00015	12.0160000324
930.0	0.00015	12.0470001698
930.0	0.00015	12.0940001011
930.0	0.00015	12.1410000324
930.0	0.00015	12.1720001698
930.0	0.00015	12.2190001011
930.0	0.0001495	12.2660000324
930.0	0.0001495	12.2970001698
930.0	0.0001495	12.3440001011
930.0	0.0001495	12.3910000324
930.0	0.0001495	12.4220001698
930.0	0.0001493	12.4690001011
930.0	0.000149	12.5
930.0	0.0001488	12.5470001698
930.0	0.0001488	12.5940001011
930.0	0.0001488	12.625
930.0	0.0001488	12.6720001698
930.0	0.000149	12.7190001011
930.0	0.0001493	12.75
930.0	0.0001493	12.7970001698
930.0	0.0001493	12.8280000687
930.0	0.0001493	12.875
930.0	0.0001493	12.9220001698
930.0	0.0001493	12.9530000687
930.0	0.000149	13.0
930.0	0.000149	13.0470001698
940.0	0.0001555	13.3440001011
940.0	0.000157	13.375
940.0	0.000159	13.4220001698
940.0	0.0001603	13.4530000687
940.0	0.0001613	13.5
940.0	0.0001618	13.5470001698
940.0	0.000162	13.5780000687
940.0	0.0001625	13.625
940.0	0.000163	13.6720001698
940.0	0.0001633	13.7030000687
940.0	0.0001638	13.75
940.0	0.0001638	13.7810001373
940.0	0.0001638	13.8280000687
940.0	0.0001638	13.875
940.0	0.000164	13.9060001373
940.0	0.0001638	13.9530000687
940.0	0.0001638	14.0
940.0	0.0001638	14.0310001373
940.0	0.0001638	14.0780000687
940.0	0.0001638	14.1100001335
940.0	0.0001633	14.1560001373
940.0	0.0001638	14.2030000687
940.0	0.0001638	14.2350001335
940.0	0.0001633	14.2810001373
940.0	0.000163	14.3280000687
940.0	0.000163	14.3600001335
940.0	0.000163	14.4060001373
940.0	0.0001628	14.4380002022
940.0	0.0001628	14.4850001335
940.0	0.0001628	14.5310001373
940.0	0.0001628	14.5630002022
940.0	0.000163	14.6100001335
940.0	0.0001633	14.6560001373
940.0	0.0001633	14.6880002022
940.0	0.0001638	14.7350001335
940.0	0.000164	14.7660000324
940.0	0.0001643	14.8130002022
950.0	0.0001695	15.1100001335
950.0	0.0001715	15.1410000324
950.0	0.000173	15.1880002022
950.0	0.0001745	15.2350001335
950.0	0.0001755	15.2810001373
950.0	0.0001765	15.3130002022
950.0	0.000177	15.3600001335
950.0	0.0001775	15.4060001373
950.0	0.000178	15.4380002022
950.0	0.0001783	15.4850001335
950.0	0.0001788	15.5310001373
950.0	0.000179	15.5630002022
950.0	0.0001788	15.6100001335
950.0	0.0001788	15.6410000324
950.0	0.0001788	15.6880002022
950.0	0.0001788	15.7350001335
950.0	0.0001788	15.7660000324
950.0	0.000179	15.8130002022
950.0	0.0001793	15.8600001335
950.0	0.0001793	15.8910000324
950.0	0.0001793	15.9380002022
950.0	0.0001795	15.9850001335
950.0	0.0001795	16.0160000324
950.0	0.0001795	16.0630002022
950.0	0.0001795	16.0940001011
950.0	0.0001795	16.1410000324
950.0	0.00018	16.1880002022
950.0	0.0001795	16.2190001011
950.0	0.0001795	16.2660000324
950.0	0.0001793	16.3130002022
950.0	0.0001793	16.3440001011
950.0	0.0001793	16.3910000324
950.0	0.0001793	16.4220001698
950.0	0.0001793	16.4690001011
950.0	0.0001793	16.5160000324
950.0	0.0001793	16.5470001698
950.0	0.0001793	16.5940001011
960.0	0.000185	16.875
960.0	0.0001868	16.9220001698
960.0	0.0001883	16.9690001011
960.0	0.0001895	17.0
960.0	0.0001908	17.0470001698
960.0	0.000192	17.0940001011
960.0	0.000193	17.125
960.0	0.0001933	17.1720001698
960.0	0.0001938	17.2190001011
960.0	0.000194	17.25
960.0	0.000194	17.2970001698
960.0	0.0001943	17.3440001011
960.0	0.0001943	17.375
960.0	0.0001945	17.4220001698
960.0	0.0001945	17.4530000687
960.0	0.000195	17.5
960.0	0.0001945	17.5470001698
960.0	0.0001945	17.5780000687
960.0	0.0001943	17.625
960.0	0.0001943	17.6720001698
960.0	0.0001943	17.7030000687
960.0	0.0001943	17.75
960.0	0.0001943	17.7810001373
960.0	0.0001943	17.8280000687
960.0	0.0001945	17.875
960.0	0.0001945	17.9060001373
960.0	0.0001945	17.9530000687
960.0	0.0001943	18.0
960.0	0.000194	18.0310001373
960.0	0.000194	18.0780000687
960.0	0.0001943	18.1100001335
960.0	0.0001943	18.1560001373
960.0	0.0001945	18.2030000687
960.0	0.000195	18.2350001335
960.0	0.0001945	18.2810001373
960.0	0.0001943	18.3280000687
960.0	0.000194	18.3600001335
970.0	0.0002008	18.6410000324
970.0	0.0002033	18.6880002022
970.0	0.0002053	18.7350001335
970.0	0.0002068	18.7660000324
970.0	0.000208	18.8130002022
970.0	0.0002088	18.8600001335
970.0	0.000209	18.8910000324
970.0	0.0002093	18.9380002022
970.0	0.00021	18.9690001011
970.0	0.0002103	19.0160000324
970.0	0.00021	19.0630002022
970.0	0.00021	19.0940001011
970.0	0.00021	19.1410000324
970.0	0.00021	19.1880002022
970.0	0.00021	19.2190001011
970.0	0.00021	19.2660000324
970.0	0.0002103	19.2970001698
970.0	0.0002108	19.3440001011
970.0	0.0002113	19.3910000324
970.0	0.0002113	19.4220001698
970.0	0.0002108	19.4690001011
970.0	0.0002105	19.5160000324
970.0	0.0002108	19.5470001698
970.0	0.0002108	19.5940001011
970.0	0.0002108	19.6410000324
970.0	0.0002113	19.6720001698
970.0	0.0002113	19.7190001011
970.0	0.0002113	19.7660000324
970.0	0.0002113	19.7970001698
970.0	0.0002108	19.8440001011
970.0	0.0002113	19.8910000324
970.0	0.0002115	19.9220001698
970.0	0.0002115	19.9690001011
970.0	0.0002115	20.0
970.0	0.0002115	20.0470001698
970.0	0.0002115	20.0940001011
970.0	0.0002113	20.125
980.0	0.0002163	20.4060001373
980.0	0.0002183	20.4530000687
980.0	0.0002203	20.4850001335
980.0	0.0002218	20.5310001373
980.0	0.0002228	20.5780000687
980.0	0.0002238	20.6100001335
980.0	0.0002243	20.6560001373
980.0	0.000225	20.7030000687
980.0	0.0002253	20.7350001335
980.0	0.0002255	20.7810001373
980.0	0.0002258	20.8130002022
980.0	0.0002263	20.8600001335
980.0	0.0002268	20.9060001373
980.0	0.0002268	20.9380002022
980.0	0.0002275	20.9850001335
980.0	0.0002278	21.0310001373
980.0	0.0002278	21.0630002022
980.0	0.0002278	21.1100001335
980.0	0.0002275	21.1410000324
980.0	0.0002275	21.1880002022
980.0	0.0002275	21.2350001335
980.0	0.000227	21.2660000324
980.0	0.000227	21.3130002022
980.0	0.000227	21.3600001335
980.0	0.000227	21.3910000324
980.0	0.0002268	21.4380002022
980.0	0.0002268	21.4690001011
980.0	0.0002268	21.5160000324
980.0	0.0002268	21.5630002022
980.0	0.000227	21.5940001011
980.0	0.0002268	21.6410000324
980.0	0.0002268	21.6880002022
980.0	0.0002268	21.7190001011
980.0	0.0002268	21.7660000324
980.0	0.0002268	21.8130002022
980.0	0.0002265	21.8440001011
980.0	0.0002265	21.8910000324
990.0	0.0002338	22.1720001698
990.0	0.0002358	22.2030000687
990.0	0.000238	22.25
990.0	0.0002393	22.2970001698
990.0	0.0002403	22.3280000687
990.0	0.0002413	22.375
990.0	0.0002415	22.4060001373
990.0	0.000242	22.4530000687
990.0	0.0002425	22.5
990.0	0.0002428	22.5310001373
990.0	0.000243	22.5780000687
990.0	0.000243	22.625
990.0	0.0002438	22.6560001373
990.0	0.0002438	22.7030000687
990.0	0.000244	22.7350001335
990.0	0.0002443	22.7810001373
990.0	0.0002443	22.8280000687
990.0	0.0002443	22.8600001335
990.0	0.0002443	22.9060001373
990.0	0.0002438	22.9530000687
990.0	0.0002438	22.9850001335
990.0	0.0002438	23.0310001373
990.0	0.0002433	23.0630002022
990.0	0.0002438	23.1100001335
990.0	0.0002438	23.1560001373
990.0	0.0002438	23.1880002022
990.0	0.0002438	23.2350001335
990.0	0.0002438	23.2810001373
990.0	0.0002438	23.3130002022
990.0	0.0002433	23.3600001335
990.0	0.0002433	23.4060001373
990.0	0.0002438	23.4380002022
990.0	0.0002438	23.4850001335
990.0	0.0002438	23.5160000324
990.0	0.000244	23.5630002022
990.0	0.000244	23.6100001335
990.0	0.000244	23.6410000324
1000.0	0.0002493	23.9220001698
1000.0	0.0002515	23.9690001011
1000.0	0.0002538	24.0
1000.0	0.0002555	24.0470001698
1000.0	0.0002568	24.0940001011
1000.0	0.0002583	24.125
1000.0	0.0002593	24.1720001698
1000.0	0.00026	24.2190001011
1000.0	0.0002605	24.25
1000.0	0.0002603	24.2970001698
1000.0	0.0002605	24.3280000687
1000.0	0.0002605	24.375
1000.0	0.0002605	24.4220001698
1000.0	0.0002605	24.4530000687
1000.0	0.0002608	24.5
1000.0	0.0002608	24.5470001698
1000.0	0.0002613	24.5780000687
1000.0	0.0002615	24.625
1000.0	0.0002618	24.6560001373
1000.0	0.000262	24.7030000687
1000.0	0.0002618	24.75
1000.0	0.0002618	24.7810001373
1000.0	0.0002618	24.8280000687
1000.0	0.0002618	24.875
1000.0	0.0002618	24.9060001373
1000.0	0.0002615	24.9530000687
1000.0	0.0002613	24.9850001335
1000.0	0.0002608	25.0310001373
1000.0	0.0002605	25.0780000687
1000.0	0.0002605	25.1100001335
1000.0	0.0002605	25.1560001373
1000.0	0.0002605	25.2030000687
1000.0	0.0002608	25.2350001335
1000.0	0.0002608	25.2810001373
1000.0	0.0002608	25.3280000687
1000.0	0.0002608	25.3600001335
1000.0	0.0002608	25.4060001373
1010.0	0.0002675	25.6880002022
1010.0	0.00027	25.7190001011
1010.0	0.0002718	25.7660000324
1010.0	0.0002733	25.8130002022
1010.0	0.0002745	25.8440001011
1010.0	0.0002755	25.8910000324
1010.0	0.0002763	25.9220001698
1010.0	0.0002768	25.9690001011
1010.0	0.0002775	26.0160000324
1010.0	0.0002783	26.0470001698
1010.0	0.0002788	26.0940001011
1010.0	0.000279	26.1410000324
1010.0	0.0002788	26.1720001698
1010.0	0.0002788	26.2190001011
1010.0	0.0002788	26.25
1010.0	0.000279	26.2970001698
1010.0	0.000279	26.3440001011
1010.0	0.0002793	26.375
1010.0	0.0002793	26.4220001698
1010.0	0.0002793	26.4690001011
1010.0	0.0002793	26.5
1010.0	0.0002793	26.5470001698
1010.0	0.000279	26.5940001011
1010.0	0.000279	26.625
1010.0	0.0002793	26.6720001698
1010.0	0.0002793	26.7030000687
1010.0	0.0002793	26.75
1010.0	0.0002795	26.7970001698
1010.0	0.0002795	26.8280000687
1010.0	0.00028	26.875
1010.0	0.00028	26.9060001373
1010.0	0.00028	26.9530000687
1010.0	0.00028	27.0
1010.0	0.0002795	27.0310001373
1010.0	0.0002793	27.0780000687
1010.0	0.0002793	27.125
1010.0	0.0002793	27.1560001373
1020.0	0.0002858	27.4380002022
1020.0	0.0002883	27.4850001335
1020.0	0.0002905	27.5310001373
1020.0	0.0002925	27.5630002022
1020.0	0.0002943	27.6100001335
1020.0	0.0002955	27.6560001373
1020.0	0.0002968	27.6880002022
1020.0	0.0002975	27.7350001335
1020.0	0.0002978	27.7660000324
1020.0	0.0002978	27.8130002022
1020.0	0.0002978	27.8600001335
1020.0	0.0002978	27.8910000324
1020.0	0.000298	27.9380002022
1020.0	0.000298	27.9850001335
1020.0	0.000298	28.0160000324
1020.0	0.000298	28.0630002022
1020.0	0.000298	28.0940001011
1020.0	0.0002983	28.1410000324
1020.0	0.0002983	28.1880002022
1020.0	0.0002983	28.2190001011
1020.0	0.000298	28.2660000324
1020.0	0.0002975	28.3130002022
1020.0	0.000297	28.3440001011
1020.0	0.0002975	28.3910000324
1020.0	0.0002975	28.4380002022
1020.0	0.0002978	28.4690001011
1020.0	0.000298	28.5160000324
1020.0	0.000298	28.5470001698
1020.0	0.0002983	28.5940001011
1020.0	0.0002988	28.6410000324
1020.0	0.000299	28.6720001698
1020.0	0.0002993	28.7190001011
1020.0	0.0002993	28.7660000324
1020.0	0.0002993	28.7970001698
1020.0	0.0002993	28.8440001011
1020.0	0.000299	28.875
1020.0	0.0002988	28.9220001698
1030.0	0.0003055	29.2030000687
1030.0	0.000308	29.25
1030.0	0.00031	29.2810001373
1030.0	0.000312	29.3280000687
1030.0	0.0003138	29.375
1030.0	0.0003153	29.4060001373
1030.0	0.0003163	29.4530000687
1030.0	0.0003168	29.5
1030.0	0.000317	29.5310001373
1030.0	0.0003178	29.5780000687
1030.0	0.000318	29.6100001335
1030.0	0.000318	29.6560001373
1030.0	0.0003183	29.7030000687
1030.0	0.0003188	29.7350001335
1030.0	0.000319	29.7810001373
1030.0	0.0003193	29.8280000687
1030.0	0.0003195	29.8600001335
1030.0	0.0003195	29.9060001373
1030.0	0.0003195	29.9380002022
1030.0	0.0003195	29.9850001335
1030.0	0.0003193	30.0310001373
1030.0	0.000319	30.0630002022
1030.0	0.000319	30.1100001335
1030.0	0.000319	30.1560001373
1030.0	0.000319	30.1880002022
1030.0	0.0003188	30.2350001335
1030.0	0.000319	30.2810001373
1030.0	0.000319	30.3130002022
1030.0	0.000319	30.3600001335
1030.0	0.000319	30.3910000324
1030.0	0.000319	30.4380002022
1030.0	0.0003193	30.4850001335
1030.0	0.0003193	30.5310001373
1030.0	0.000319	30.5630002022
1030.0	0.000319	30.6100001335
1030.0	0.000319	30.6560001373
1040.0	0.000327	30.9380002022
1040.0	0.00033	30.9690001011
1040.0	0.000332	31.0160000324
1040.0	0.0003338	31.0630002022
1040.0	0.0003355	31.0940001011
1040.0	0.0003365	31.1410000324
1040.0	0.0003375	31.1880002022
1040.0	0.0003383	31.2190001011
1040.0	0.000339	31.2660000324
1040.0	0.0003393	31.3130002022
1040.0	0.0003393	31.3440001011
1040.0	0.0003393	31.3910000324
1040.0	0.0003395	31.4220001698
1040.0	0.00034	31.4690001011
1040.0	0.0003403	31.5160000324
1040.0	0.0003405	31.5470001698
1040.0	0.0003403	31.5940001011
1040.0	0.00034	31.6410000324
1040.0	0.00034	31.6720001698
1040.0	0.0003395	31.7190001011
1040.0	0.0003395	31.75
1040.0	0.0003395	31.7970001698
1040.0	0.0003403	31.8440001011
1040.0	0.0003405	31.8910000324
1040.0	0.0003405	31.9220001698
1040.0	0.0003405	31.9690001011
1040.0	0.0003405	32.0
1040.0	0.0003405	32.0470001698
1040.0	0.0003403	32.0940001011
1040.0	0.0003405	32.125
1040.0	0.0003405	32.1720001698
1040.0	0.0003405	32.2190001011
1040.0	0.0003403	32.25
1040.0	0.0003405	32.2970001698
1040.0	0.0003403	32.3440001011
1040.0	0.0003403	32.375
1040.0	0.0003403	32.4220001698
1050.0	0.0003488	32.7030000687
1050.0	0.000352	32.7350001335
1050.0	0.0003543	32.7810001373
1050.0	0.0003563	32.8280000687
1050.0	0.0003575	32.8600001335
1050.0	0.0003588	32.9060001373
1050.0	0.0003595	32.9530000687
1050.0	0.0003603	32.9850001335
1050.0	0.0003608	33.0310001373
1050.0	0.0003613	33.0780000687
1050.0	0.0003615	33.1100001335
1050.0	0.0003618	33.1560001373
1050.0	0.000362	33.1880002022
1050.0	0.000362	33.2350001335
1050.0	0.0003625	33.2810001373
1050.0	0.0003625	33.3130002022
1050.0	0.0003625	33.3600001335
1050.0	0.0003625	33.4060001373
1050.0	0.0003625	33.4380002022
1050.0	0.0003625	33.4850001335
1050.0	0.0003625	33.5160000324
1050.0	0.0003625	33.5630002022
1050.0	0.0003625	33.6100001335
1050.0	0.0003628	33.6410000324
1050.0	0.0003628	33.6880002022
1050.0	0.0003628	33.7350001335
1050.0	0.0003628	33.7660000324
1050.0	0.0003628	33.8130002022
1050.0	0.0003625	33.8600001335
1050.0	0.000362	33.8910000324
1050.0	0.000362	33.9380002022
1050.0	0.000362	33.9690001011
1050.0	0.000362	34.0160000324
1050.0	0.000362	34.0630002022
1050.0	0.0003625	34.0940001011
1050.0	0.0003625	34.1410000324
1050.0	0.000362	34.1880002022
1060.0	0.0003708	34.4690001011
1060.0	0.000374	34.5160000324
1060.0	0.0003765	34.5470001698
1060.0	0.0003783	34.5940001011
1060.0	0.00038	34.625
1060.0	0.0003808	34.6720001698
1060.0	0.0003818	34.7190001011
1060.0	0.0003828	34.75
1060.0	0.0003833	34.7970001698
1060.0	0.000384	34.8440001011
1060.0	0.0003843	34.875
1060.0	0.0003843	34.9220001698
1060.0	0.0003845	34.9530000687
1060.0	0.0003845	35.0
1060.0	0.0003845	35.0470001698
1060.0	0.0003845	35.0780000687
1060.0	0.0003845	35.125
1060.0	0.0003843	35.1720001698
1060.0	0.0003843	35.2030000687
1060.0	0.000384	35.25
1060.0	0.0003843	35.2810001373
1060.0	0.0003845	35.3280000687
1060.0	0.0003845	35.375
1060.0	0.0003843	35.4060001373
1060.0	0.0003843	35.4530000687
1060.0	0.0003843	35.5
1060.0	0.0003843	35.5470001698
1060.0	0.0003843	35.5780000687
1060.0	0.0003845	35.625
1060.0	0.0003845	35.6560001373
1060.0	0.0003845	35.7030000687
1060.0	0.000385	35.75
1060.0	0.000385	35.7810001373
1060.0	0.0003845	35.8280000687
1060.0	0.000385	35.875
1060.0	0.000385	35.9060001373
1060.0	0.0003853	35.9530000687
1070.0	0.0003933	36.2350001335
1070.0	0.0003955	36.2810001373
1070.0	0.0003978	36.3130002022
1070.0	0.0003995	36.3600001335
1070.0	0.0004015	36.3910000324
1070.0	0.0004028	36.4380002022
1070.0	0.0004038	36.4850001335
1070.0	0.000404	36.5310001373
1070.0	0.0004043	36.5630002022
1070.0	0.000405	36.6100001335
1070.0	0.0004053	36.6410000324
1070.0	0.0004055	36.6880002022
1070.0	0.0004055	36.7350001335
1070.0	0.0004055	36.7660000324
1070.0	0.0004055	36.8130002022
1070.0	0.0004055	36.8600001335
1070.0	0.0004053	36.8910000324
1070.0	0.000405	36.9380002022
1070.0	0.000405	36.9850001335
1070.0	0.000405	37.0160000324
1070.0	0.000405	37.0630002022
1070.0	0.0004055	37.0940001011
1070.0	0.0004055	37.1410000324
1070.0	0.0004055	37.1880002022
1070.0	0.0004055	37.2190001011
1070.0	0.0004055	37.2660000324
1070.0	0.0004053	37.3130002022
1070.0	0.0004053	37.3440001011
1070.0	0.0004053	37.3910000324
1070.0	0.000405	37.4220001698
1070.0	0.000405	37.4690001011
1070.0	0.000405	37.5160000324
1070.0	0.0004053	37.5470001698
1070.0	0.0004053	37.5940001011
1070.0	0.0004053	37.6410000324
1070.0	0.000405	37.6720001698
1070.0	0.0004045	37.7190001011
1080.0	0.0004118	38.0
1080.0	0.0004143	38.0470001698
1080.0	0.0004168	38.0780000687
1080.0	0.0004188	38.125
1080.0	0.0004203	38.1560001373
1080.0	0.0004213	38.2030000687
1080.0	0.0004215	38.25
1080.0	0.0004218	38.2810001373
1080.0	0.0004225	38.3280000687
1080.0	0.0004228	38.375
1080.0	0.0004225	38.4060001373
1080.0	0.0004225	38.4530000687
1080.0	0.0004228	38.5
1080.0	0.000423	38.5310001373
1080.0	0.000423	38.5780000687
1080.0	0.0004233	38.625
1080.0	0.0004233	38.6560001373
1080.0	0.0004233	38.7030000687
1080.0	0.0004238	38.75
1080.0	0.0004238	38.7810001373
1080.0	0.0004233	38.8280000687
1080.0	0.0004233	38.8600001335
1080.0	0.000423	38.9060001373
1080.0	0.000423	38.9530000687
1080.0	0.000423	38.9850001335
1080.0	0.000423	39.0310001373
1080.0	0.0004228	39.0780000687
1080.0	0.0004228	39.1100001335
1080.0	0.000423	39.1560001373
1080.0	0.000423	39.1880002022
1080.0	0.000423	39.2350001335
1080.0	0.000423	39.2810001373
1080.0	0.0004233	39.3130002022
1080.0	0.0004238	39.3600001335
1080.0	0.0004238	39.4060001373
1080.0	0.0004238	39.4380002022
1080.0	0.0004238	39.4850001335
1090.0	0.0004305	39.7660000324
1090.0	0.0004328	39.8130002022
1090.0	0.0004345	39.8600001335
1090.0	0.0004363	39.8910000324
1090.0	0.000437	39.9380002022
1090.0	0.000438	39.9690001011
1090.0	0.0004388	40.0160000324
1090.0	0.000439	40.0630002022
1090.0	0.0004395	40.0940001011
1090.0	0.0004403	40.1410000324
1090.0	0.0004403	40.1880002022
1090.0	0.0004403	40.2190001011
1090.0	0.00044	40.2660000324
1090.0	0.00044	40.2970001698
1090.0	0.00044	40.3440001011
1090.0	0.00044	40.3910000324
1090.0	0.0004403	40.4220001698
1090.0	0.0004403	40.4690001011
1090.0	0.0004405	40.5160000324
1090.0	0.0004408	40.5470001698
1090.0	0.0004413	40.5940001011
1090.0	0.0004415	40.6410000324
1090.0	0.0004413	40.6720001698
1090.0	0.0004413	40.7190001011
1090.0	0.0004413	40.75
1090.0	0.0004413	40.7970001698
1090.0	0.0004408	40.8440001011
1090.0	0.0004405	40.875
1090.0	0.0004405	40.9220001698
1090.0	0.0004403	40.9690001011
1090.0	0.0004403	41.0
1090.0	0.0004403	41.0470001698
1090.0	0.0004403	41.0780000687
1090.0	0.0004405	41.125
1090.0	0.0004405	41.1720001698
1090.0	0.0004408	41.2030000687
1090.0	0.0004413	41.25
1100.0	0.000447	41.5310001373
1100.0	0.0004493	41.5780000687
1100.0	0.0004508	41.6100001335
1100.0	0.000452	41.6560001373
1100.0	0.000453	41.7030000687
1100.0	0.0004538	41.7350001335
1100.0	0.0004543	41.7810001373
1100.0	0.000455	41.8130002022
1100.0	0.0004553	41.8600001335
1100.0	0.0004555	41.9060001373
1100.0	0.0004558	41.9380002022
1100.0	0.0004558	41.9850001335
1100.0	0.0004555	42.0310001373
1100.0	0.0004555	42.0630002022
1100.0	0.0004555	42.1100001335
1100.0	0.0004558	42.1560001373
1100.0	0.0004563	42.1880002022
1100.0	0.0004565	42.2350001335
1100.0	0.0004568	42.2660000324
1100.0	0.0004568	42.3130002022
1100.0	0.0004568	42.3600001335
1100.0	0.0004563	42.3910000324
1100.0	0.0004563	42.4380002022
1100.0	0.0004558	42.4850001335
1100.0	0.0004558	42.5160000324
1100.0	0.0004555	42.5630002022
1100.0	0.0004558	42.5940001011
1100.0	0.0004563	42.6410000324
1100.0	0.0004563	42.6880002022
1100.0	0.0004563	42.7190001011
1100.0	0.0004563	42.7660000324
1100.0	0.0004563	42.8130002022
1100.0	0.0004565	42.8440001011
1100.0	0.0004565	42.8910000324
1100.0	0.0004563	42.9220001698
1100.0	0.0004563	42.9690001011
1100.0	0.0004558	43.0160000324
1110.0	0.00046	43.2970001698
1110.0	0.0004613	43.3280000687
1110.0	0.0004625	43.375
1110.0	0.0004638	43.4060001373
1110.0	0.0004645	43.4530000687
1110.0	0.0004653	43.5
1110.0	0.0004655	43.5310001373
1110.0	0.0004655	43.5780000687
1110.0	0.0004658	43.625
1110.0	0.0004663	43.6560001373
1110.0	0.0004665	43.7030000687
1110.0	0.0004663	43.7350001335
1110.0	0.0004663	43.7810001373
1110.0	0.0004658	43.8280000687
1110.0	0.0004655	43.8600001335
1110.0	0.0004653	43.9060001373
1110.0	0.0004653	43.9530000687
1110.0	0.0004655	43.9850001335
1110.0	0.0004655	44.0310001373
1110.0	0.0004658	44.0630002022
1110.0	0.0004655	44.1100001335
1110.0	0.0004655	44.1560001373
1110.0	0.0004655	44.1880002022
1110.0	0.0004658	44.2350001335
1110.0	0.0004653	44.2810001373
1110.0	0.0004655	44.3280000687
1110.0	0.0004653	44.3600001335
1110.0	0.0004653	44.4060001373
1110.0	0.0004653	44.4380002022
1110.0	0.000465	44.4850001335
1110.0	0.000465	44.5310001373
1110.0	0.000465	44.5630002022
1110.0	0.0004645	44.6100001335
1110.0	0.000465	44.6560001373
1110.0	0.0004653	44.6880002022
1110.0	0.0004653	44.7350001335
1110.0	0.000465	44.7660000324
1120.0	0.0004675	45.0470001698
1120.0	0.0004688	45.0940001011
1120.0	0.00047	45.125
1120.0	0.0004708	45.1720001698
1120.0	0.0004715	45.2190001011
1120.0	0.000472	45.25
1120.0	0.0004728	45.2970001698
1120.0	0.0004728	45.3440001011
1120.0	0.0004728	45.375
1120.0	0.0004725	45.4220001698
1120.0	0.0004725	45.4690001011
1120.0	0.0004725	45.5
1120.0	0.0004725	45.5470001698
1120.0	0.000473	45.5780000687
1120.0	0.000473	45.625
1120.0	0.000473	45.6720001698
1120.0	0.000473	45.7030000687
1120.0	0.000473	45.75
1120.0	0.0004728	45.7970001698
1120.0	0.0004725	45.8280000687
1120.0	0.0004725	45.875
1120.0	0.0004725	45.9060001373
1120.0	0.0004725	45.9530000687
1120.0	0.0004725	46.0
1120.0	0.000473	46.0310001373
1120.0	0.000473	46.0780000687
1120.0	0.0004733	46.125
1120.0	0.0004733	46.1560001373
1120.0	0.0004733	46.2030000687
1120.0	0.0004733	46.25
1120.0	0.0004738	46.2810001373
1120.0	0.0004738	46.3280000687
1120.0	0.000474	46.3600001335
1120.0	0.0004738	46.4060001373
1120.0	0.0004738	46.4530000687
1120.0	0.0004738	46.4850001335
1120.0	0.000474	46.5310001373
1130.0	0.000475	46.8130002022
1130.0	0.0004753	46.8440001011
1130.0	0.0004758	46.8910000324
1130.0	0.0004763	46.9220001698
1130.0	0.0004768	46.9690001011
1130.0	0.000477	47.0160000324
1130.0	0.0004775	47.0470001698
1130.0	0.000478	47.0940001011
1130.0	0.0004783	47.1410000324
1130.0	0.0004783	47.1720001698
1130.0	0.0004788	47.2190001011
1130.0	0.0004788	47.2660000324
1130.0	0.0004788	47.2970001698
1130.0	0.000479	47.3440001011
1130.0	0.0004793	47.375
1130.0	0.0004793	47.4220001698
1130.0	0.0004793	47.4690001011
1130.0	0.0004795	47.5
1130.0	0.0004795	47.5470001698
1130.0	0.0004795	47.5940001011
1130.0	0.0004793	47.625
1130.0	0.0004795	47.6720001698
1130.0	0.00048	47.7030000687
1130.0	0.00048	47.75
1130.0	0.00048	47.7970001698
1130.0	0.0004795	47.8280000687
1130.0	0.0004793	47.875
1130.0	0.0004793	47.9220001698
1130.0	0.0004793	47.9530000687
1130.0	0.000479	48.0
1130.0	0.000479	48.0470001698
1130.0	0.0004793	48.0780000687
1130.0	0.0004795	48.125
1130.0	0.0004795	48.1720001698
1130.0	0.0004795	48.2030000687
1130.0	0.00048	48.25
1130.0	0.0004795	48.2810001373
1140.0	0.0004803	48.5630002022
1140.0	0.0004805	48.5940001011
1140.0	0.0004813	48.6410000324
1140.0	0.0004813	48.6880002022
1140.0	0.0004813	48.7190001011
1140.0	0.0004813	48.7660000324
1140.0	0.0004813	48.8130002022
1140.0	0.0004813	48.8440001011
1140.0	0.0004813	48.8910000324
1140.0	0.0004813	48.9220001698
1140.0	0.0004813	48.9690001011
1140.0	0.0004808	49.0160000324
1140.0	0.0004808	49.0470001698
1140.0	0.0004808	49.0940001011
1140.0	0.0004808	49.1410000324
1140.0	0.0004808	49.1720001698
1140.0	0.0004805	49.2190001011
1140.0	0.0004808	49.2660000324
1140.0	0.0004813	49.2970001698
1140.0	0.0004815	49.3440001011
1140.0	0.0004813	49.375
1140.0	0.0004813	49.4220001698
1140.0	0.0004813	49.4690001011
1140.0	0.0004813	49.5
1140.0	0.0004813	49.5470001698
1140.0	0.0004813	49.5940001011
1140.0	0.0004813	49.625
1140.0	0.0004813	49.6720001698
1140.0	0.0004815	49.7030000687
1140.0	0.0004813	49.75
1140.0	0.0004813	49.7970001698
1140.0	0.0004813	49.8440001011
1140.0	0.0004813	49.875
1140.0	0.0004813	49.9220001698
1140.0	0.0004813	49.9530000687
1140.0	0.0004813	50.0
1140.0	0.0004815	50.0470001698
1150.0	0.0004813	50.3130002022
1150.0	0.0004813	50.3440001011
1150.0	0.0004813	50.3910000324
1150.0	0.0004813	50.4380002022
1150.0	0.0004813	50.4690001011
1150.0	0.0004815	50.5160000324
1150.0	0.0004815	50.5630002022
1150.0	0.0004815	50.5940001011
1150.0	0.0004815	50.6410000324
1150.0	0.0004813	50.6880002022
1150.0	0.0004815	50.7190001011
1150.0	0.0004813	50.7660000324
1150.0	0.0004813	50.8130002022
1150.0	0.0004813	50.8440001011
1150.0	0.0004813	50.8910000324
1150.0	0.0004813	50.9380002022
1150.0	0.0004813	50.9690001011
1150.0	0.0004813	51.0160000324
1150.0	0.0004813	51.0470001698
1150.0	0.0004813	51.0940001011
1150.0	0.0004813	51.1410000324
1150.0	0.0004813	51.1720001698
1150.0	0.0004813	51.2190001011
1150.0	0.0004813	51.2660000324
1150.0	0.0004813	51.2970001698
1150.0	0.0004805	51.3440001011
1150.0	0.0004808	51.375
1150.0	0.0004808	51.4220001698
1150.0	0.0004813	51.4690001011
1150.0	0.0004815	51.5160000324
1150.0	0.0004813	51.5470001698
1150.0	0.0004815	51.5940001011
1150.0	0.0004815	51.625
1150.0	0.0004813	51.6720001698
1150.0	0.0004813	51.7190001011
1150.0	0.0004815	51.75
1150.0	0.0004813	51.7970001698
1160.0	0.0004825	52.0630002022
1160.0	0.0004828	52.0940001011
1160.0	0.0004828	52.1410000324
1160.0	0.0004828	52.1880002022
1160.0	0.000483	52.2190001011
1160.0	0.000483	52.2660000324
1160.0	0.000483	52.3130002022
1160.0	0.0004828	52.3440001011
1160.0	0.0004828	52.3910000324
1160.0	0.000483	52.4220001698
1160.0	0.0004833	52.4690001011
1160.0	0.0004833	52.5160000324
1160.0	0.0004833	52.5470001698
1160.0	0.0004833	52.5940001011
1160.0	0.0004838	52.6410000324
1160.0	0.000484	52.6720001698
1160.0	0.000484	52.7190001011
1160.0	0.0004838	52.75
1160.0	0.0004833	52.7970001698
1160.0	0.0004833	52.8440001011
1160.0	0.0004833	52.875
1160.0	0.0004833	52.9220001698
1160.0	0.0004833	52.9690001011
1160.0	0.0004833	53.0
1160.0	0.000483	53.0470001698
1160.0	0.000483	53.0780000687
1160.0	0.000483	53.125
1160.0	0.0004833	53.1720001698
1160.0	0.0004833	53.2030000687
1160.0	0.0004833	53.25
1160.0	0.0004833	53.2970001698
1160.0	0.0004833	53.3280000687
1160.0	0.0004838	53.375
1160.0	0.0004843	53.4060001373
1160.0	0.0004845	53.4530000687
1160.0	0.0004843	53.5
1160.0	0.0004843	53.5310001373
1170.0	0.0004833	53.7970001698
1170.0	0.0004838	53.8440001011
1170.0	0.0004838	53.875
1170.0	0.0004838	53.9220001698
1170.0	0.000484	53.9690001011
1170.0	0.000484	54.0
1170.0	0.0004845	54.0470001698
1170.0	0.0004845	54.0940001011
1170.0	0.000485	54.125
1170.0	0.0004855	54.1720001698
1170.0	0.0004855	54.2190001011
1170.0	0.0004858	54.25
1170.0	0.0004858	54.2970001698
1170.0	0.0004858	54.3280000687
1170.0	0.0004858	54.375
1170.0	0.0004855	54.4220001698
1170.0	0.000485	54.4690001011
1170.0	0.000485	54.5
1170.0	0.000485	54.5470001698
1170.0	0.0004845	54.5780000687
1170.0	0.0004843	54.625
1170.0	0.000484	54.6720001698
1170.0	0.000484	54.7030000687
1170.0	0.000484	54.75
1170.0	0.000484	54.7970001698
1170.0	0.0004843	54.8280000687
1170.0	0.0004843	54.875
1170.0	0.0004845	54.9060001373
1170.0	0.0004845	54.9530000687
1170.0	0.0004843	55.0
1170.0	0.000484	55.0310001373
1170.0	0.0004843	55.0780000687
1170.0	0.0004843	55.125
1170.0	0.0004845	55.1560001373
1170.0	0.0004843	55.2030000687
1170.0	0.0004843	55.2350001335
1180.0	0.0004853	55.5
1180.0	0.000485	55.5470001698
1180.0	0.000485	55.5780000687
1180.0	0.0004853	55.625
1180.0	0.0004855	55.6720001698
1180.0	0.0004855	55.7030000687
1180.0	0.0004855	55.75
1180.0	0.0004855	55.7810001373
1180.0	0.0004855	55.8280000687
1180.0	0.0004855	55.875
1180.0	0.0004853	55.9060001373
1180.0	0.0004853	55.9530000687
1180.0	0.0004855	56.0
1180.0	0.0004855	56.0310001373
1180.0	0.0004855	56.0780000687
1180.0	0.0004853	56.1100001335
1180.0	0.000485	56.1560001373
1180.0	0.000485	56.2030000687
1180.0	0.0004845	56.2350001335
1180.0	0.0004845	56.2810001373
1180.0	0.0004843	56.3280000687
1180.0	0.0004843	56.3600001335
1180.0	0.0004845	56.4060001373
1180.0	0.0004845	56.4380002022
1180.0	0.0004843	56.4850001335
1180.0	0.0004845	56.5310001373
1180.0	0.0004845	56.5780000687
1180.0	0.0004843	56.6100001335
1180.0	0.000484	56.6560001373
1180.0	0.0004838	56.7030000687
1180.0	0.0004838	56.7350001335
1180.0	0.0004838	56.7810001373
1180.0	0.000484	56.8130002022
1180.0	0.0004843	56.8600001335
1180.0	0.0004843	56.9060001373
1180.0	0.0004845	56.9380002022
1180.0	0.0004845	56.9850001335
1190.0	0.0004845	57.25
1190.0	0.000485	57.2810001373
1190.0	0.0004855	57.3280000687
1190.0	0.0004855	57.3600001335
1190.0	0.0004855	57.4060001373
1190.0	0.0004858	57.4530000687
1190.0	0.0004863	57.4850001335
1190.0	0.0004865	57.5310001373
1190.0	0.0004863	57.5780000687
1190.0	0.0004863	57.6100001335
1190.0	0.0004863	57.6560001373
1190.0	0.0004863	57.6880002022
1190.0	0.0004863	57.7350001335
1190.0	0.0004863	57.7810001373
1190.0	0.0004863	57.8130002022
1190.0	0.0004863	57.8600001335
1190.0	0.0004865	57.9060001373
1190.0	0.0004868	57.9380002022
1190.0	0.0004868	57.9850001335
1190.0	0.0004868	58.0160000324
1190.0	0.0004865	58.0630002022
1190.0	0.0004863	58.1100001335
1190.0	0.0004858	58.1410000324
1190.0	0.0004858	58.1880002022
1190.0	0.0004855	58.2350001335
1190.0	0.0004855	58.2660000324
1190.0	0.0004855	58.3130002022
1190.0	0.0004855	58.3440001011
1190.0	0.0004855	58.3910000324
1190.0	0.0004858	58.4380002022
1190.0	0.0004855	58.4850001335
1190.0	0.0004855	58.5160000324
1190.0	0.0004855	58.5630002022
1190.0	0.0004853	58.6100001335
1190.0	0.0004855	58.6410000324
1190.0	0.0004853	58.6880002022
1190.0	0.0004855	58.7190001011
1200.0	0.0004868	58.9850001335
1200.0	0.000487	59.0310001373
1200.0	0.0004875	59.0630002022
1200.0	0.0004878	59.1100001335
1200.0	0.000488	59.1560001373
1200.0	0.0004888	59.1880002022
1200.0	0.0004888	59.2350001335
1200.0	0.000489	59.2810001373
1200.0	0.000489	59.3130002022
1200.0	0.000489	59.3600001335
1200.0	0.000489	59.3910000324
1200.0	0.0004888	59.4380002022
1200.0	0.000489	59.4850001335
1200.0	0.0004888	59.5160000324
1200.0	0.0004888	59.5630002022
1200.0	0.0004888	59.6100001335
1200.0	0.000489	59.6410000324
1200.0	0.000489	59.6880002022
1200.0	0.000489	59.7350001335
1200.0	0.0004888	59.7660000324
1200.0	0.0004888	59.8130002022
1200.0	0.000489	59.8440001011
1200.0	0.000489	59.8910000324
1200.0	0.000489	59.9380002022
1200.0	0.0004893	59.9690001011
1200.0	0.0004895	60.0160000324
1200.0	0.0004893	60.0630002022
1200.0	0.0004893	60.0940001011
1200.0	0.0004893	60.1410000324
1200.0	0.0004895	60.1720001698
1200.0	0.0004903	60.2190001011
1200.0	0.0004903	60.2660000324
1200.0	0.00049	60.2970001698
1200.0	0.0004895	60.3440001011
1200.0	0.0004893	60.3910000324
1200.0	0.0004893	60.4220001698
1200.0	0.0004893	60.4690001011
1210.0	0.0004915	60.7350001335
1210.0	0.000492	60.7660000324
1210.0	0.0004925	60.8130002022
1210.0	0.0004928	60.8600001335
1210.0	0.000493	60.8910000324
1210.0	0.0004933	60.9380002022
1210.0	0.000494	60.9690001011
1210.0	0.000494	61.0160000324
1210.0	0.000494	61.0630002022
1210.0	0.0004943	61.1100001335
1210.0	0.0004945	61.1410000324
1210.0	0.0004945	61.1880002022
1210.0	0.0004945	61.2190001011
1210.0	0.0004945	61.2660000324
1210.0	0.000495	61.3130002022
1210.0	0.0004945	61.3440001011
1210.0	0.0004945	61.3910000324
1210.0	0.0004945	61.4380002022
1210.0	0.000495	61.4690001011
1210.0	0.0004953	61.5160000324
1210.0	0.0004953	61.5630002022
1210.0	0.000495	61.5940001011
1210.0	0.0004953	61.6410000324
1210.0	0.0004953	61.6720001698
1210.0	0.0004955	61.7190001011
1210.0	0.0004955	61.7660000324
1210.0	0.0004958	61.7970001698
1210.0	0.0004955	61.8440001011
1210.0	0.0004958	61.8910000324
1210.0	0.0004955	61.9220001698
1210.0	0.0004958	61.9690001011
1210.0	0.0004963	62.0160000324
1210.0	0.0004963	62.0470001698
1210.0	0.0004965	62.0940001011
1210.0	0.0004963	62.1410000324
1210.0	0.0004958	62.1720001698
1210.0	0.0004955	62.2190001011
1220.0	0.0004968	62.4850001335
1220.0	0.0004978	62.5310001373
1220.0	0.0004983	62.5630002022
1220.0	0.000499	62.6100001335
1220.0	0.0004995	62.6410000324
1220.0	0.0005003	62.6880002022
1220.0	0.0005008	62.7350001335
1220.0	0.0005008	62.7660000324
1220.0	0.0005008	62.8130002022
1220.0	0.0005008	62.8600001335
1220.0	0.0005013	62.8910000324
1220.0	0.0005005	62.9380002022
1220.0	0.0005005	62.9690001011
1220.0	0.0005003	63.0160000324
1220.0	0.0005003	63.0630002022
1220.0	0.0005008	63.0940001011
1220.0	0.0005008	63.1410000324
1220.0	0.0005008	63.1880002022
1220.0	0.0005008	63.2190001011
1220.0	0.0005008	63.2660000324
1220.0	0.0005013	63.2970001698
1220.0	0.0005008	63.3440001011
1220.0	0.0005008	63.3910000324
1220.0	0.0005013	63.4220001698
1220.0	0.0005013	63.4690001011
1220.0	0.0005015	63.5160000324
1220.0	0.0005018	63.5470001698
1220.0	0.0005015	63.5940001011
1220.0	0.0005013	63.6410000324
1220.0	0.0005013	63.6720001698
1220.0	0.0005013	63.7190001011
1220.0	0.0005008	63.75
1220.0	0.0005013	63.7970001698
1220.0	0.0005013	63.8440001011
1220.0	0.0005013	63.875
1220.0	0.0005013	63.9220001698
1220.0	0.0005013	63.9690001011
1230.0	0.0005028	64.2350001335
1230.0	0.0005033	64.2660000324
1230.0	0.0005045	64.3130002022
1230.0	0.0005055	64.3600001335
1230.0	0.0005063	64.3910000324
1230.0	0.0005065	64.4380002022
1230.0	0.0005068	64.4850001335
1230.0	0.0005068	64.5310001373
1230.0	0.000507	64.5630002022
1230.0	0.000507	64.6100001335
1230.0	0.0005075	64.6410000324
1230.0	0.0005075	64.6880002022
1230.0	0.0005078	64.7350001335
1230.0	0.0005078	64.7660000324
1230.0	0.0005078	64.8130002022
1230.0	0.0005078	64.8600001335
1230.0	0.0005075	64.8910000324
1230.0	0.0005078	64.9380002022
1230.0	0.0005078	64.9690001011
1230.0	0.000508	65.0160000324
1230.0	0.000508	65.0630002022
1230.0	0.000508	65.0940001011
1230.0	0.0005083	65.1410000324
1230.0	0.0005083	65.1880002022
1230.0	0.0005083	65.2190001011
1230.0	0.0005088	65.2660000324
1230.0	0.0005088	65.3130002022
1230.0	0.0005083	65.3440001011
1230.0	0.0005088	65.3910000324
1230.0	0.0005088	65.4220001698
1230.0	0.0005083	65.4690001011
1230.0	0.000508	65.5160000324
1230.0	0.000508	65.5470001698
1230.0	0.000508	65.5940001011
1230.0	0.0005078	65.6410000324
1230.0	0.0005078	65.6720001698
1230.0	0.000508	65.7190001011
1240.0	0.0005108	65.9850001335
1240.0	0.000512	66.0310001373
1240.0	0.0005133	66.0630002022
1240.0	0.0005143	66.1100001335
1240.0	0.000515	66.1560001373
1240.0	0.0005153	66.1880002022
1240.0	0.0005163	66.2350001335
1240.0	0.0005165	66.2810001373
1240.0	0.0005168	66.3130002022
1240.0	0.0005168	66.3600001335
1240.0	0.000517	66.4060001373
1240.0	0.0005175	66.4380002022
1240.0	0.0005178	66.4850001335
1240.0	0.0005178	66.5310001373
1240.0	0.0005178	66.5630002022
1240.0	0.000518	66.6100001335
1240.0	0.000518	66.6410000324
1240.0	0.000518	66.6880002022
1240.0	0.000518	66.7350001335
1240.0	0.0005178	66.7660000324
1240.0	0.0005178	66.8130002022
1240.0	0.0005178	66.8600001335
1240.0	0.0005178	66.8910000324
1240.0	0.0005178	66.9380002022
1240.0	0.0005175	66.9690001011
1240.0	0.0005175	67.0160000324
1240.0	0.000517	67.0630002022
1240.0	0.000517	67.1100001335
1240.0	0.000517	67.1410000324
1240.0	0.000517	67.1880002022
1240.0	0.000517	67.2350001335
1240.0	0.000517	67.2660000324
1240.0	0.000517	67.3130002022
1240.0	0.000517	67.3440001011
1240.0	0.0005168	67.3910000324
1240.0	0.0005168	67.4380002022
1250.0	0.0005218	67.7030000687
1250.0	0.0005228	67.75
1250.0	0.0005238	67.7810001373
1250.0	0.0005243	67.8280000687
1250.0	0.000525	67.8600001335
1250.0	0.0005258	67.9060001373
1250.0	0.0005265	67.9530000687
1250.0	0.0005265	67.9850001335
1250.0	0.0005268	68.0310001373
1250.0	0.000527	68.0780000687
1250.0	0.0005275	68.1100001335
1250.0	0.0005275	68.1560001373
1250.0	0.0005275	68.2030000687
1250.0	0.0005275	68.2350001335
1250.0	0.0005275	68.2810001373
1250.0	0.0005278	68.3130002022
1250.0	0.0005275	68.3600001335
1250.0	0.0005278	68.4060001373
1250.0	0.0005275	68.4380002022
1250.0	0.000528	68.4850001335
1250.0	0.000528	68.5310001373
1250.0	0.0005278	68.5630002022
1250.0	0.0005275	68.6100001335
1250.0	0.0005268	68.6410000324
1250.0	0.0005268	68.6880002022
1250.0	0.000527	68.7350001335
1250.0	0.000527	68.7660000324
1250.0	0.0005275	68.8130002022
1250.0	0.0005275	68.8600001335
1250.0	0.0005278	68.9060001373
1250.0	0.0005283	68.9530000687
1250.0	0.000528	68.9850001335
1250.0	0.000528	69.0310001373
1250.0	0.000528	69.0780000687
1250.0	0.000528	69.1100001335
1250.0	0.000528	69.1560001373
1260.0	0.000532	69.4220001698
1260.0	0.0005338	69.4690001011
1260.0	0.0005345	69.5
1260.0	0.0005353	69.5470001698
1260.0	0.0005363	69.5940001011
1260.0	0.0005368	69.625
1260.0	0.0005375	69.6720001698
1260.0	0.0005378	69.7190001011
1260.0	0.000538	69.75
1260.0	0.0005383	69.7970001698
1260.0	0.0005383	69.8280000687
1260.0	0.0005383	69.875
1260.0	0.000538	69.9220001698
1260.0	0.0005383	69.9530000687
1260.0	0.0005383	70.0
1260.0	0.0005383	70.0470001698
1260.0	0.000538	70.0780000687
1260.0	0.000538	70.125
1260.0	0.000538	70.1560001373
1260.0	0.0005383	70.2030000687
1260.0	0.0005383	70.25
1260.0	0.0005388	70.2810001373
1260.0	0.0005388	70.3280000687
1260.0	0.000539	70.375
1260.0	0.000539	70.4060001373
1260.0	0.000539	70.4530000687
1260.0	0.000539	70.4850001335
1260.0	0.0005393	70.5310001373
1260.0	0.0005395	70.5780000687
1260.0	0.0005395	70.6100001335
1260.0	0.0005395	70.6560001373
1260.0	0.0005393	70.7030000687
1260.0	0.0005393	70.7350001335
1260.0	0.0005393	70.7810001373
1260.0	0.0005393	70.8280000687
1260.0	0.000539	70.8600001335
1260.0	0.000539	70.9060001373
1270.0	0.0005415	71.1720001698
1270.0	0.0005425	71.2190001011
1270.0	0.0005438	71.25
1270.0	0.0005443	71.2970001698
1270.0	0.000545	71.3280000687
1270.0	0.0005455	71.375
1270.0	0.0005463	71.4220001698
1270.0	0.0005463	71.4530000687
1270.0	0.0005463	71.5
1270.0	0.0005465	71.5470001698
1270.0	0.0005465	71.5780000687
1270.0	0.0005468	71.625
1270.0	0.0005468	71.6560001373
1270.0	0.000547	71.7030000687
1270.0	0.0005465	71.75
1270.0	0.0005465	71.7810001373
1270.0	0.0005465	71.8280000687
1270.0	0.0005468	71.875
1270.0	0.0005468	71.9060001373
1270.0	0.0005468	71.9530000687
1270.0	0.000547	71.9850001335
1270.0	0.0005475	72.0310001373
1270.0	0.0005475	72.0780000687
1270.0	0.0005478	72.1100001335
1270.0	0.000548	72.1560001373
1270.0	0.000548	72.2030000687
1270.0	0.000548	72.2350001335
1270.0	0.000548	72.2810001373
1270.0	0.0005478	72.3280000687
1270.0	0.0005478	72.3600001335
1270.0	0.0005478	72.4060001373
1270.0	0.0005475	72.4530000687
1270.0	0.0005478	72.4850001335
1270.0	0.0005478	72.5310001373
1270.0	0.0005478	72.5630002022
1270.0	0.0005478	72.6100001335
1270.0	0.0005475	72.6560001373
1280.0	0.0005493	72.9220001698
1280.0	0.00055	72.9690001011
1280.0	0.0005503	73.0
1280.0	0.0005508	73.0470001698
1280.0	0.0005513	73.0780000687
1280.0	0.0005518	73.125
1280.0	0.000552	73.1720001698
1280.0	0.0005525	73.2030000687
1280.0	0.0005528	73.25
1280.0	0.0005533	73.2810001373
1280.0	0.000554	73.3280000687
1280.0	0.000554	73.375
1280.0	0.0005538	73.4220001698
1280.0	0.0005538	73.4530000687
1280.0	0.000554	73.5
1280.0	0.000554	73.5470001698
1280.0	0.000554	73.5780000687
1280.0	0.0005538	73.625
1280.0	0.0005533	73.6560001373
1280.0	0.000553	73.7030000687
1280.0	0.0005528	73.75
1280.0	0.0005525	73.7810001373
1280.0	0.0005525	73.8280000687
1280.0	0.0005525	73.875
1280.0	0.0005525	73.9060001373
1280.0	0.0005525	73.9530000687
1280.0	0.0005528	73.9850001335
1280.0	0.000553	74.0310001373
1280.0	0.000553	74.0780000687
1280.0	0.0005538	74.1100001335
1280.0	0.0005538	74.1560001373
1280.0	0.0005538	74.2030000687
1280.0	0.0005538	74.2350001335
1280.0	0.0005538	74.2810001373
1280.0	0.0005538	74.3130002022
1280.0	0.0005538	74.3600001335
1280.0	0.0005538	74.4060001373
1290.0	0.0005543	74.6720001698
1290.0	0.0005543	74.7030000687
1290.0	0.0005543	74.75
1290.0	0.0005543	74.7810001373
1290.0	0.0005545	74.8280000687
1290.0	0.000555	74.875
1290.0	0.0005553	74.9060001373
1290.0	0.0005555	74.9530000687
1290.0	0.0005555	75.0
1290.0	0.0005555	75.0310001373
1290.0	0.0005555	75.0780000687
1290.0	0.0005553	75.1100001335
1290.0	0.000555	75.1560001373
1290.0	0.000555	75.2030000687
1290.0	0.0005545	75.2350001335
1290.0	0.0005545	75.2810001373
1290.0	0.0005545	75.3280000687
1290.0	0.0005545	75.3600001335
1290.0	0.0005545	75.4060001373
1290.0	0.000554	75.4380002022
1290.0	0.000554	75.4850001335
1290.0	0.0005538	75.5310001373
1290.0	0.0005538	75.5630002022
1290.0	0.0005538	75.6100001335
1290.0	0.0005538	75.6560001373
1290.0	0.0005538	75.6880002022
1290.0	0.000554	75.7350001335
1290.0	0.0005543	75.7810001373
1290.0	0.0005545	75.8130002022
1290.0	0.0005545	75.8600001335
1290.0	0.0005545	75.9060001373
1290.0	0.0005545	75.9380002022
1290.0	0.0005545	75.9850001335
1290.0	0.0005545	76.0310001373
1290.0	0.000555	76.0630002022
1290.0	0.000555	76.1100001335
1290.0	0.000555	76.1560001373
1300.0	0.000555	76.4220001698
1300.0	0.0005543	76.4530000687
1300.0	0.0005538	76.5
1300.0	0.000553	76.5310001373
1300.0	0.0005528	76.5780000687
1300.0	0.0005525	76.625
1300.0	0.0005525	76.6560001373
1300.0	0.0005525	76.7030000687
1300.0	0.0005525	76.75
1300.0	0.0005525	76.7810001373
1300.0	0.0005525	76.8280000687
1300.0	0.0005525	76.8600001335
1300.0	0.0005525	76.9060001373
1300.0	0.0005528	76.9530000687
1300.0	0.000553	76.9850001335
1300.0	0.000553	77.0310001373
1300.0	0.0005533	77.0780000687
1300.0	0.0005533	77.1100001335
1300.0	0.000553	77.1560001373
1300.0	0.000553	77.1880002022
1300.0	0.0005528	77.2350001335
1300.0	0.0005525	77.2810001373
1300.0	0.0005525	77.3130002022
1300.0	0.000552	77.3600001335
1300.0	0.000552	77.4060001373
1300.0	0.0005525	77.4380002022
1300.0	0.000552	77.4850001335
1300.0	0.0005525	77.5160000324
1300.0	0.0005525	77.5630002022
1300.0	0.000552	77.6100001335
1300.0	0.000552	77.6410000324
1300.0	0.0005518	77.6880002022
1300.0	0.0005518	77.7350001335
1300.0	0.0005518	77.7660000324
1300.0	0.000552	77.8130002022
1300.0	0.0005525	77.8600001335
1300.0	0.0005525	77.8910000324
1310.0	0.0005508	78.1560001373
1310.0	0.00055	78.2030000687
1310.0	0.0005488	78.2350001335
1310.0	0.0005478	78.2810001373
1310.0	0.0005475	78.3280000687
1310.0	0.0005468	78.3600001335
1310.0	0.0005465	78.4060001373
1310.0	0.0005463	78.4530000687
1310.0	0.0005463	78.4850001335
1310.0	0.0005458	78.5310001373
1310.0	0.0005458	78.5780000687
1310.0	0.0005455	78.6100001335
1310.0	0.0005455	78.6560001373
1310.0	0.0005455	78.6880002022
1310.0	0.0005455	78.7350001335
1310.0	0.0005455	78.7810001373
1310.0	0.0005455	78.8130002022
1310.0	0.0005458	78.8600001335
1310.0	0.0005463	78.9060001373
1310.0	0.0005463	78.9380002022
1310.0	0.0005465	78.9850001335
1310.0	0.0005463	79.0160000324
1310.0	0.0005465	79.0630002022
1310.0	0.0005465	79.1100001335
1310.0	0.0005463	79.1410000324
1310.0	0.0005463	79.1880002022
1310.0	0.0005463	79.2350001335
1310.0	0.0005465	79.2660000324
1310.0	0.0005465	79.3130002022
1310.0	0.0005463	79.3440001011
1310.0	0.0005465	79.3910000324
1310.0	0.0005465	79.4380002022
1310.0	0.0005468	79.4690001011
1310.0	0.0005468	79.5160000324
1310.0	0.0005465	79.5630002022
1310.0	0.0005463	79.5940001011
1310.0	0.0005463	79.6410000324
1320.0	0.000542	79.9060001373
1320.0	0.0005405	79.9380002022
1320.0	0.0005393	79.9850001335
1320.0	0.0005378	80.0310001373
1320.0	0.0005368	80.0630002022
1320.0	0.0005363	80.1100001335
1320.0	0.0005358	80.1560001373
1320.0	0.0005355	80.1880002022
1320.0	0.000535	80.2350001335
1320.0	0.0005343	80.2810001373
1320.0	0.0005343	80.3130002022
1320.0	0.0005343	80.3600001335
1320.0	0.0005345	80.4060001373
1320.0	0.0005345	80.4380002022
1320.0	0.0005343	80.4850001335
1320.0	0.0005343	80.5160000324
1320.0	0.0005343	80.5630002022
1320.0	0.0005343	80.6100001335
1320.0	0.0005343	80.6410000324
1320.0	0.0005345	80.6880002022
1320.0	0.0005343	80.7350001335
1320.0	0.0005345	80.7660000324
1320.0	0.0005343	80.8130002022
1320.0	0.0005345	80.8440001011
1320.0	0.0005345	80.8910000324
1320.0	0.0005343	80.9380002022
1320.0	0.0005343	80.9690001011
1320.0	0.0005343	81.0160000324
1320.0	0.000534	81.0630002022
1320.0	0.000534	81.0940001011
1320.0	0.000534	81.1410000324
1320.0	0.000534	81.1720001698
1320.0	0.000534	81.2190001011
1320.0	0.0005338	81.2660000324
1320.0	0.0005338	81.2970001698
1320.0	0.0005338	81.3440001011
1320.0	0.0005338	81.3910000324
1330.0	0.0005295	81.6410000324
1330.0	0.000527	81.6880002022
1330.0	0.0005253	81.7190001011
1330.0	0.0005238	81.7660000324
1330.0	0.000522	81.8130002022
1330.0	0.0005213	81.8440001011
1330.0	0.0005203	81.8910000324
1330.0	0.00052	81.9380002022
1330.0	0.00052	81.9690001011
1330.0	0.00052	82.0160000324
1330.0	0.0005193	82.0470001698
1330.0	0.0005188	82.0940001011
1330.0	0.0005188	82.1410000324
1330.0	0.0005188	82.1720001698
1330.0	0.000519	82.2190001011
1330.0	0.0005188	82.2660000324
1330.0	0.0005188	82.2970001698
1330.0	0.0005188	82.3440001011
1330.0	0.0005188	82.3910000324
1330.0	0.000519	82.4220001698
1330.0	0.0005188	82.4690001011
1330.0	0.0005188	82.5
1330.0	0.0005188	82.5470001698
1330.0	0.000519	82.5940001011
1330.0	0.000519	82.625
1330.0	0.000519	82.6720001698
1330.0	0.0005188	82.7190001011
1330.0	0.0005188	82.75
1330.0	0.0005188	82.7970001698
1330.0	0.0005188	82.8440001011
1330.0	0.000519	82.875
1330.0	0.0005193	82.9220001698
1330.0	0.000519	82.9690001011
1330.0	0.0005188	83.0
1330.0	0.0005188	83.0470001698
1330.0	0.0005188	83.0780000687
1330.0	0.0005183	83.125
1340.0	0.0005128	83.3910000324
1340.0	0.00051	83.4380002022
1340.0	0.0005075	83.4690001011
1340.0	0.0005053	83.5160000324
1340.0	0.0005038	83.5470001698
1340.0	0.0005025	83.5940001011
1340.0	0.0005013	83.6410000324
1340.0	0.0005005	83.6720001698
1340.0	0.0005	83.7190001011
1340.0	0.0004995	83.7660000324
1340.0	0.0004993	83.7970001698
1340.0	0.0004988	83.8440001011
1340.0	0.0004988	83.875
1340.0	0.0004983	83.9220001698
1340.0	0.0004983	83.9690001011
1340.0	0.0004988	84.0160000324
1340.0	0.0004988	84.0470001698
1340.0	0.0004988	84.0940001011
1340.0	0.0004988	84.125
1340.0	0.0004983	84.1720001698
1340.0	0.0004988	84.2190001011
1340.0	0.0004988	84.25
1340.0	0.0004988	84.2970001698
1340.0	0.0004983	84.3440001011
1340.0	0.0004983	84.375
1340.0	0.0004983	84.4220001698
1340.0	0.0004983	84.4690001011
1340.0	0.0004983	84.5
1340.0	0.0004988	84.5470001698
1340.0	0.000499	84.5780000687
1340.0	0.000499	84.625
1340.0	0.0004993	84.6720001698
1340.0	0.000499	84.7030000687
1340.0	0.0004988	84.75
1340.0	0.0004983	84.7810001373
1340.0	0.000498	84.8280000687
1340.0	0.000498	84.875
1350.0	0.0004908	85.1410000324
1350.0	0.0004878	85.1720001698
1350.0	0.0004855	85.2190001011
1350.0	0.000483	85.25
1350.0	0.0004813	85.2970001698
1350.0	0.00048	85.3440001011
1350.0	0.0004788	85.375
1350.0	0.0004778	85.4220001698
1350.0	0.0004768	85.4690001011
1350.0	0.0004768	85.5
1350.0	0.0004765	85.5470001698
1350.0	0.0004765	85.5940001011
1350.0	0.0004765	85.625
1350.0	0.0004765	85.6720001698
1350.0	0.0004765	85.7030000687
1350.0	0.0004765	85.75
1350.0	0.0004765	85.7970001698
1350.0	0.0004765	85.8280000687
1350.0	0.0004763	85.875
1350.0	0.0004763	85.9220001698
1350.0	0.0004763	85.9530000687
1350.0	0.0004765	86.0
1350.0	0.0004768	86.0310001373
1350.0	0.000477	86.0780000687
1350.0	0.0004775	86.125
1350.0	0.0004775	86.1560001373
1350.0	0.0004775	86.2030000687
1350.0	0.0004775	86.25
1350.0	0.0004775	86.2810001373
1350.0	0.0004775	86.3280000687
1350.0	0.0004775	86.3600001335
1350.0	0.000477	86.4060001373
1350.0	0.0004775	86.4530000687
1350.0	0.000477	86.4850001335
1350.0	0.0004768	86.5310001373
1350.0	0.0004768	86.5780000687
1350.0	0.0004765	86.6100001335
1360.0	0.000469	86.875
1360.0	0.0004663	86.9220001698
1360.0	0.0004633	86.9530000687
1360.0	0.0004613	87.0
1360.0	0.0004593	87.0470001698
1360.0	0.0004583	87.0780000687
1360.0	0.000457	87.125
1360.0	0.0004563	87.1560001373
1360.0	0.0004555	87.2030000687
1360.0	0.0004553	87.25
1360.0	0.0004545	87.2810001373
1360.0	0.0004543	87.3280000687
1360.0	0.000454	87.375
1360.0	0.000454	87.4060001373
1360.0	0.000454	87.4530000687
1360.0	0.000454	87.4850001335
1360.0	0.000454	87.5310001373
1360.0	0.000454	87.5780000687
1360.0	0.0004538	87.6100001335
1360.0	0.000454	87.6560001373
1360.0	0.0004543	87.7030000687
1360.0	0.0004543	87.7350001335
1360.0	0.0004543	87.7810001373
1360.0	0.000455	87.8130002022
1360.0	0.0004545	87.8600001335
1360.0	0.000455	87.9060001373
1360.0	0.0004545	87.9380002022
1360.0	0.0004545	87.9850001335
1360.0	0.0004545	88.0310001373
1360.0	0.0004545	88.0630002022
1360.0	0.0004545	88.1100001335
1360.0	0.0004543	88.1560001373
1360.0	0.000454	88.1880002022
1360.0	0.000454	88.2350001335
1360.0	0.0004538	88.2660000324
1360.0	0.0004533	88.3130002022
1360.0	0.000453	88.3600001335
1370.0	0.0004458	88.625
1370.0	0.0004425	88.6560001373
1370.0	0.00044	88.7030000687
1370.0	0.000437	88.7350001335
1370.0	0.0004353	88.7810001373
1370.0	0.0004338	88.8280000687
1370.0	0.0004328	88.8600001335
1370.0	0.000432	88.9060001373
1370.0	0.0004315	88.9530000687
1370.0	0.0004313	88.9850001335
1370.0	0.0004313	89.0310001373
1370.0	0.0004313	89.0630002022
1370.0	0.0004313	89.1100001335
1370.0	0.0004313	89.1560001373
1370.0	0.0004313	89.1880002022
1370.0	0.0004308	89.2350001335
1370.0	0.0004305	89.2810001373
1370.0	0.0004303	89.3130002022
1370.0	0.0004303	89.3600001335
1370.0	0.0004305	89.3910000324
1370.0	0.0004305	89.4380002022
1370.0	0.0004305	89.4850001335
1370.0	0.0004305	89.5160000324
1370.0	0.0004305	89.5630002022
1370.0	0.0004305	89.6100001335
1370.0	0.0004303	89.6410000324
1370.0	0.0004305	89.6880002022
1370.0	0.0004305	89.7190001011
1370.0	0.0004305	89.7660000324
1370.0	0.0004313	89.8130002022
1370.0	0.0004313	89.8440001011
1370.0	0.0004313	89.8910000324
1370.0	0.0004313	89.9380002022
1370.0	0.0004313	89.9850001335
1370.0	0.0004308	90.0160000324
1370.0	0.0004308	90.0630002022
1370.0	0.0004308	90.1100001335
1380.0	0.0004228	90.3600001335
1380.0	0.0004195	90.4060001373
1380.0	0.0004175	90.4530000687
1380.0	0.0004153	90.4850001335
1380.0	0.0004138	90.5310001373
1380.0	0.0004128	90.5780000687
1380.0	0.0004118	90.6100001335
1380.0	0.0004108	90.6560001373
1380.0	0.0004103	90.7030000687
1380.0	0.0004095	90.7350001335
1380.0	0.0004093	90.7810001373
1380.0	0.0004093	90.8130002022
1380.0	0.0004095	90.8600001335
1380.0	0.0004093	90.9060001373
1380.0	0.0004093	90.9380002022
1380.0	0.0004093	90.9850001335
1380.0	0.0004093	91.0310001373
1380.0	0.0004088	91.0630002022
1380.0	0.0004088	91.1100001335
1380.0	0.0004083	91.1410000324
1380.0	0.0004083	91.1880002022
1380.0	0.0004088	91.2350001335
1380.0	0.0004088	91.2660000324
1380.0	0.000409	91.3130002022
1380.0	0.000409	91.3600001335
1380.0	0.0004093	91.3910000324
1380.0	0.000409	91.4380002022
1380.0	0.000409	91.4690001011
1380.0	0.0004088	91.5160000324
1380.0	0.000409	91.5630002022
1380.0	0.000409	91.5940001011
1380.0	0.0004088	91.6410000324
1380.0	0.0004088	91.6880002022
1380.0	0.0004088	91.7350001335
1380.0	0.000409	91.7660000324
1380.0	0.0004095	91.8130002022
1380.0	0.0004095	91.8600001335
1390.0	0.000402	92.125
1390.0	0.0003995	92.1560001373
1390.0	0.0003975	92.2030000687
1390.0	0.0003963	92.25
1390.0	0.0003945	92.2810001373
1390.0	0.0003933	92.3280000687
1390.0	0.0003925	92.3600001335
1390.0	0.0003915	92.4060001373
1390.0	0.0003913	92.4530000687
1390.0	0.0003905	92.4850001335
1390.0	0.00039	92.5310001373
1390.0	0.0003895	92.5780000687
1390.0	0.0003895	92.6100001335
1390.0	0.0003895	92.6560001373
1390.0	0.0003895	92.7030000687
1390.0	0.00039	92.7350001335
1390.0	0.0003903	92.7810001373
1390.0	0.0003903	92.8130002022
1390.0	0.0003903	92.8600001335
1390.0	0.0003903	92.9060001373
1390.0	0.0003903	92.9380002022
1390.0	0.00039	92.9850001335
1390.0	0.00039	93.0310001373
1390.0	0.00039	93.0630002022
1390.0	0.0003895	93.1100001335
1390.0	0.0003895	93.1410000324
1390.0	0.0003893	93.1880002022
1390.0	0.0003895	93.2350001335
1390.0	0.0003895	93.2660000324
1390.0	0.0003893	93.3130002022
1390.0	0.000389	93.3600001335
1390.0	0.0003893	93.3910000324
1390.0	0.0003888	93.4380002022
1390.0	0.0003888	93.4690001011
1390.0	0.0003888	93.5160000324
1390.0	0.0003888	93.5630002022
1390.0	0.000389	93.5940001011
1400.0	0.0003833	93.8600001335
1400.0	0.0003813	93.9060001373
1400.0	0.0003793	93.9530000687
1400.0	0.0003778	93.9850001335
1400.0	0.0003765	94.0310001373
1400.0	0.0003755	94.0780000687
1400.0	0.0003755	94.1100001335
1400.0	0.000375	94.1560001373
1400.0	0.0003745	94.1880002022
1400.0	0.000374	94.2350001335
1400.0	0.0003738	94.2810001373
1400.0	0.0003738	94.3130002022
1400.0	0.0003738	94.3600001335
1400.0	0.0003738	94.4060001373
1400.0	0.0003738	94.4530000687
1400.0	0.0003738	94.4850001335
1400.0	0.0003738	94.5310001373
1400.0	0.0003738	94.5780000687
1400.0	0.000374	94.625
1400.0	0.000374	94.6560001373
1400.0	0.0003743	94.7030000687
1400.0	0.0003743	94.7350001335
1400.0	0.0003743	94.7810001373
1400.0	0.000374	94.8280000687
1400.0	0.000374	94.8600001335
1400.0	0.0003738	94.9060001373
1400.0	0.0003738	94.9530000687
1400.0	0.0003738	94.9850001335
1400.0	0.0003738	95.0310001373
1400.0	0.000374	95.0630002022
1400.0	0.000374	95.1100001335
1400.0	0.000374	95.1560001373
1400.0	0.000374	95.1880002022
1400.0	0.000374	95.2350001335
1400.0	0.0003738	95.2810001373
1400.0	0.000373	95.3130002022
1400.0	0.000373	95.3600001335
1410.0	0.000368	95.625
1410.0	0.0003663	95.6720001698
1410.0	0.0003645	95.7030000687
1410.0	0.0003633	95.75
1410.0	0.0003625	95.7810001373
1410.0	0.000362	95.8280000687
1410.0	0.0003613	95.875
1410.0	0.0003608	95.9060001373
1410.0	0.0003605	95.9530000687
1410.0	0.0003605	96.0
1410.0	0.0003605	96.0310001373
1410.0	0.0003605	96.0780000687
1410.0	0.0003605	96.1100001335
1410.0	0.0003603	96.1560001373
1410.0	0.00036	96.2030000687
1410.0	0.0003595	96.2350001335
1410.0	0.00036	96.2810001373
1410.0	0.00036	96.3280000687
1410.0	0.00036	96.3600001335
1410.0	0.00036	96.4060001373
1410.0	0.0003603	96.4530000687
1410.0	0.0003603	96.4850001335
1410.0	0.0003603	96.5310001373
1410.0	0.0003603	96.5630002022
1410.0	0.0003603	96.6100001335
1410.0	0.00036	96.6560001373
1410.0	0.00036	96.6880002022
1410.0	0.00036	96.7350001335
1410.0	0.00036	96.7810001373
1410.0	0.0003595	96.8130002022
1410.0	0.0003593	96.8600001335
1410.0	0.0003593	96.8910000324
1410.0	0.0003593	96.9380002022
1410.0	0.0003593	96.9850001335
1410.0	0.0003593	97.0160000324
1410.0	0.0003595	97.0630002022
1410.0	0.00036	97.1100001335
1420.0	0.0003558	97.375
1420.0	0.0003545	97.4060001373
1420.0	0.0003538	97.4530000687
1420.0	0.000353	97.5
1420.0	0.0003525	97.5310001373
1420.0	0.000352	97.5780000687
1420.0	0.0003518	97.6100001335
1420.0	0.0003513	97.6560001373
1420.0	0.0003508	97.7030000687
1420.0	0.0003505	97.7350001335
1420.0	0.0003505	97.7810001373
1420.0	0.0003505	97.8280000687
1420.0	0.0003505	97.8600001335
1420.0	0.0003503	97.9060001373
1420.0	0.0003505	97.9380002022
1420.0	0.0003503	97.9850001335
1420.0	0.0003503	98.0310001373
1420.0	0.00035	98.0630002022
1420.0	0.00035	98.1100001335
1420.0	0.00035	98.1560001373
1420.0	0.0003503	98.1880002022
1420.0	0.00035	98.2350001335
1420.0	0.0003503	98.2660000324
1420.0	0.00035	98.3130002022
1420.0	0.0003503	98.3600001335
1420.0	0.0003503	98.3910000324
1420.0	0.0003505	98.4380002022
1420.0	0.0003508	98.4850001335
1420.0	0.0003513	98.5160000324
1420.0	0.0003508	98.5630002022
1420.0	0.0003505	98.6100001335
1420.0	0.0003508	98.6410000324
1420.0	0.0003513	98.6880002022
1420.0	0.0003513	98.7190001011
1420.0	0.0003505	98.7660000324
1420.0	0.0003505	98.8130002022
1420.0	0.0003503	98.8440001011
1430.0	0.0003475	99.1100001335
1430.0	0.0003468	99.1560001373
1430.0	0.0003465	99.2030000687
1430.0	0.0003463	99.2350001335
1430.0	0.0003463	99.2810001373
1430.0	0.0003458	99.3280000687
1430.0	0.0003455	99.3600001335
1430.0	0.0003455	99.4060001373
1430.0	0.0003455	99.4380002022
1430.0	0.000345	99.4850001335
1430.0	0.0003445	99.5310001373
1430.0	0.000345	99.5630002022
1430.0	0.0003453	99.6100001335
1430.0	0.0003458	99.6560001373
1430.0	0.0003455	99.6880002022
1430.0	0.0003455	99.7350001335
1430.0	0.0003455	99.7660000324
1430.0	0.0003455	99.8130002022
1430.0	0.0003455	99.8600001335
1430.0	0.0003453	99.8910000324
1430.0	0.0003453	99.9380002022
1430.0	0.0003453	99.9850001335
1430.0	0.0003453	100.016000032
1430.0	0.0003453	100.063000202
1430.0	0.0003453	100.094000101
1430.0	0.0003455	100.141000032
1430.0	0.0003455	100.188000202
1430.0	0.0003455	100.219000101
1430.0	0.0003453	100.266000032
1430.0	0.000345	100.313000202
1430.0	0.000345	100.344000101
1430.0	0.0003445	100.391000032
1430.0	0.000345	100.438000202
1430.0	0.0003445	100.469000101
1430.0	0.000345	100.516000032
1430.0	0.0003445	100.54700017
1430.0	0.0003445	100.594000101
1440.0	0.0003453	100.860000134
1440.0	0.000345	100.906000137
1440.0	0.000345	100.938000202
1440.0	0.000345	100.985000134
1440.0	0.0003445	101.031000137
1440.0	0.0003445	101.063000202
1440.0	0.000345	101.110000134
1440.0	0.000345	101.156000137
1440.0	0.000345	101.188000202
1440.0	0.000345	101.235000134
1440.0	0.0003445	101.281000137
1440.0	0.0003445	101.313000202
1440.0	0.0003445	101.360000134
1440.0	0.000345	101.406000137
1440.0	0.000345	101.438000202
1440.0	0.0003445	101.485000134
1440.0	0.0003445	101.516000032
1440.0	0.000345	101.563000202
1440.0	0.0003445	101.610000134
1440.0	0.0003443	101.641000032
1440.0	0.0003445	101.688000202
1440.0	0.0003445	101.735000134
1440.0	0.0003443	101.766000032
1440.0	0.0003443	101.813000202
1440.0	0.0003443	101.844000101
1440.0	0.0003443	101.891000032
1440.0	0.0003445	101.938000202
1440.0	0.0003445	101.969000101
1440.0	0.0003445	102.016000032
1440.0	0.0003443	102.063000202
1440.0	0.0003443	102.094000101
1440.0	0.0003445	102.141000032
1440.0	0.0003445	102.17200017
1440.0	0.0003445	102.219000101
1440.0	0.0003445	102.266000032
1440.0	0.000345	102.29700017
1440.0	0.000345	102.344000101
1450.0	0.0003455	102.610000134
1450.0	0.0003458	102.656000137
1450.0	0.0003458	102.688000202
1450.0	0.0003465	102.735000134
1450.0	0.0003465	102.781000137
1450.0	0.0003468	102.813000202
1450.0	0.0003468	102.860000134
1450.0	0.0003468	102.891000032
1450.0	0.000347	102.938000202
1450.0	0.000347	102.985000134
1450.0	0.000347	103.016000032
1450.0	0.0003475	103.063000202
1450.0	0.0003475	103.110000134
1450.0	0.0003468	103.141000032
1450.0	0.0003468	103.188000202
1450.0	0.0003468	103.235000134
1450.0	0.0003465	103.266000032
1450.0	0.0003465	103.313000202
1450.0	0.0003465	103.344000101
1450.0	0.0003468	103.391000032
1450.0	0.0003468	103.438000202
1450.0	0.0003468	103.469000101
1450.0	0.0003468	103.516000032
1450.0	0.0003468	103.563000202
1450.0	0.0003465	103.610000134
1450.0	0.0003465	103.641000032
1450.0	0.0003463	103.688000202
1450.0	0.0003465	103.735000134
1450.0	0.0003465	103.766000032
1450.0	0.0003465	103.813000202
1450.0	0.0003465	103.844000101
1450.0	0.0003465	103.891000032
1450.0	0.0003468	103.938000202
1450.0	0.0003468	103.969000101
1450.0	0.0003465	104.016000032
1450.0	0.0003463	104.063000202
1460.0	0.0003478	104.328000069
1460.0	0.000348	104.360000134
1460.0	0.0003488	104.406000137
1460.0	0.0003493	104.453000069
1460.0	0.0003493	104.485000134
1460.0	0.00035	104.531000137
1460.0	0.0003503	104.563000202
1460.0	0.0003508	104.610000134
1460.0	0.0003513	104.656000137
1460.0	0.0003513	104.688000202
1460.0	0.0003513	104.735000134
1460.0	0.0003515	104.781000137
1460.0	0.0003515	104.813000202
1460.0	0.0003515	104.860000134
1460.0	0.0003518	104.891000032
1460.0	0.0003515	104.938000202
1460.0	0.0003513	104.985000134
1460.0	0.0003513	105.016000032
1460.0	0.0003513	105.063000202
1460.0	0.0003513	105.110000134
1460.0	0.0003513	105.141000032
1460.0	0.0003513	105.188000202
1460.0	0.0003513	105.235000134
1460.0	0.0003508	105.266000032
1460.0	0.0003508	105.313000202
1460.0	0.0003513	105.344000101
1460.0	0.0003513	105.391000032
1460.0	0.0003513	105.438000202
1460.0	0.0003515	105.485000134
1460.0	0.0003515	105.516000032
1460.0	0.0003518	105.563000202
1460.0	0.0003515	105.594000101
1460.0	0.0003515	105.641000032
1460.0	0.0003515	105.688000202
1460.0	0.0003515	105.719000101
1460.0	0.0003515	105.766000032
1460.0	0.0003515	105.813000202
1470.0	0.0003533	106.078000069
1470.0	0.0003543	106.125
1470.0	0.000355	106.156000137
1470.0	0.000355	106.203000069
1470.0	0.0003555	106.235000134
1470.0	0.0003558	106.281000137
1470.0	0.0003563	106.328000069
1470.0	0.0003568	106.360000134
1470.0	0.000357	106.406000137
1470.0	0.000357	106.453000069
1470.0	0.0003578	106.485000134
1470.0	0.000358	106.531000137
1470.0	0.000358	106.578000069
1470.0	0.0003578	106.610000134
1470.0	0.000358	106.656000137
1470.0	0.000358	106.703000069
1470.0	0.000358	106.735000134
1470.0	0.0003583	106.781000137
1470.0	0.000358	106.828000069
1470.0	0.0003583	106.860000134
1470.0	0.000358	106.906000137
1470.0	0.000358	106.938000202
1470.0	0.000358	106.985000134
1470.0	0.0003578	107.031000137
1470.0	0.0003578	107.063000202
1470.0	0.0003575	107.110000134
1470.0	0.0003575	107.156000137
1470.0	0.0003575	107.188000202
1470.0	0.0003575	107.235000134
1470.0	0.0003575	107.266000032
1470.0	0.0003575	107.313000202
1470.0	0.0003575	107.360000134
1470.0	0.0003575	107.391000032
1470.0	0.000357	107.438000202
1470.0	0.000357	107.485000134
1470.0	0.0003568	107.516000032
1470.0	0.0003568	107.563000202
1480.0	0.000359	107.828000069
1480.0	0.00036	107.875
1480.0	0.0003605	107.906000137
1480.0	0.0003613	107.953000069
1480.0	0.0003618	107.985000134
1480.0	0.000362	108.031000137
1480.0	0.0003628	108.078000069
1480.0	0.000363	108.110000134
1480.0	0.0003633	108.156000137
1480.0	0.000364	108.203000069
1480.0	0.0003643	108.235000134
1480.0	0.0003643	108.281000137
1480.0	0.000364	108.313000202
1480.0	0.0003638	108.360000134
1480.0	0.0003633	108.406000137
1480.0	0.0003633	108.438000202
1480.0	0.0003638	108.485000134
1480.0	0.000364	108.531000137
1480.0	0.0003643	108.563000202
1480.0	0.0003645	108.610000134
1480.0	0.000365	108.641000032
1480.0	0.0003645	108.688000202
1480.0	0.0003643	108.735000134
1480.0	0.000364	108.766000032
1480.0	0.000364	108.813000202
1480.0	0.000364	108.860000134
1480.0	0.0003643	108.891000032
1480.0	0.0003643	108.938000202
1480.0	0.000364	108.985000134
1480.0	0.0003638	109.016000032
1480.0	0.0003633	109.063000202
1480.0	0.0003633	109.094000101
1480.0	0.0003633	109.141000032
1480.0	0.0003633	109.188000202
1480.0	0.0003638	109.219000101
1480.0	0.0003638	109.266000032
1480.0	0.0003638	109.313000202
1490.0	0.0003665	109.578000069
1490.0	0.000367	109.625
1490.0	0.0003675	109.656000137
1490.0	0.000368	109.703000069
1490.0	0.0003688	109.735000134
1490.0	0.0003693	109.781000137
1490.0	0.0003695	109.828000069
1490.0	0.0003693	109.860000134
1490.0	0.0003693	109.906000137
1490.0	0.0003693	109.953000069
1490.0	0.0003693	109.985000134
1490.0	0.0003695	110.031000137
1490.0	0.0003693	110.063000202
1490.0	0.0003693	110.110000134
1490.0	0.0003693	110.156000137
1490.0	0.0003693	110.188000202
1490.0	0.0003693	110.235000134
1490.0	0.000369	110.281000137
1490.0	0.0003688	110.313000202
1490.0	0.0003688	110.360000134
1490.0	0.0003688	110.391000032
1490.0	0.000369	110.438000202
1490.0	0.0003693	110.485000134
1490.0	0.0003695	110.516000032
1490.0	0.00037	110.563000202
1490.0	0.00037	110.610000134
1490.0	0.00037	110.641000032
1490.0	0.00037	110.688000202
1490.0	0.00037	110.719000101
1490.0	0.00037	110.766000032
1490.0	0.0003703	110.813000202
1490.0	0.0003703	110.844000101
1490.0	0.0003703	110.891000032
1490.0	0.0003703	110.938000202
1490.0	0.00037	110.969000101
1490.0	0.00037	111.016000032
1490.0	0.0003703	111.063000202
1500.0	0.0003718	111.328000069
1500.0	0.0003725	111.375
1500.0	0.0003725	111.406000137
1500.0	0.0003728	111.453000069
1500.0	0.0003733	111.485000134
1500.0	0.0003738	111.531000137
1500.0	0.0003738	111.578000069
1500.0	0.0003738	111.610000134
1500.0	0.000374	111.656000137
1500.0	0.000374	111.703000069
1500.0	0.0003738	111.735000134
1500.0	0.0003733	111.781000137
1500.0	0.0003738	111.813000202
1500.0	0.0003733	111.860000134
1500.0	0.000373	111.906000137
1500.0	0.0003733	111.938000202
1500.0	0.0003738	111.985000134
1500.0	0.000374	112.031000137
1500.0	0.000374	112.063000202
1500.0	0.000374	112.110000134
1500.0	0.000374	112.141000032
1500.0	0.000374	112.188000202
1500.0	0.0003738	112.235000134
1500.0	0.000374	112.266000032
1500.0	0.0003738	112.313000202
1500.0	0.000374	112.360000134
1500.0	0.000374	112.391000032
1500.0	0.0003738	112.438000202
1500.0	0.0003738	112.469000101
1500.0	0.000374	112.516000032
1500.0	0.0003743	112.563000202
1500.0	0.0003743	112.594000101
1500.0	0.000374	112.641000032
1500.0	0.000374	112.688000202
1500.0	0.000374	112.719000101
1500.0	0.000374	112.766000032
1500.0	0.0003743	112.813000202
1510.0	0.0003753	113.078000069
1510.0	0.0003755	113.110000134
1510.0	0.0003755	113.156000137
1510.0	0.0003758	113.203000069
1510.0	0.0003763	113.235000134
1510.0	0.0003765	113.281000137
1510.0	0.0003768	113.328000069
1510.0	0.000377	113.360000134
1510.0	0.0003778	113.406000137
1510.0	0.0003775	113.453000069
1510.0	0.0003775	113.485000134
1510.0	0.0003768	113.531000137
1510.0	0.0003768	113.563000202
1510.0	0.000377	113.610000134
1510.0	0.000377	113.656000137
1510.0	0.000377	113.688000202
1510.0	0.000377	113.735000134
1510.0	0.000377	113.781000137
1510.0	0.0003775	113.813000202
1510.0	0.0003775	113.860000134
1510.0	0.0003775	113.891000032
1510.0	0.0003775	113.938000202
1510.0	0.0003775	113.985000134
1510.0	0.0003775	114.016000032
1510.0	0.0003778	114.063000202
1510.0	0.0003778	114.110000134
1510.0	0.000378	114.141000032
1510.0	0.0003778	114.188000202
1510.0	0.0003778	114.219000101
1510.0	0.000378	114.266000032
1510.0	0.0003778	114.313000202
1510.0	0.0003778	114.344000101
1510.0	0.000378	114.391000032
1510.0	0.0003778	114.438000202
1510.0	0.0003775	114.469000101
1510.0	0.000378	114.516000032
1510.0	0.000378	114.54700017
1520.0	0.0003783	114.828000069
1520.0	0.0003783	114.860000134
1520.0	0.0003783	114.906000137
1520.0	0.0003788	114.953000069
1520.0	0.000379	114.985000134
1520.0	0.0003793	115.031000137
1520.0	0.0003793	115.078000069
1520.0	0.0003795	115.110000134
1520.0	0.0003793	115.156000137
1520.0	0.0003793	115.188000202
1520.0	0.000379	115.235000134
1520.0	0.0003793	115.281000137
1520.0	0.0003795	115.313000202
1520.0	0.00038	115.360000134
1520.0	0.00038	115.406000137
1520.0	0.00038	115.438000202
1520.0	0.0003803	115.485000134
1520.0	0.0003803	115.531000137
1520.0	0.0003803	115.563000202
1520.0	0.0003803	115.610000134
1520.0	0.0003803	115.641000032
1520.0	0.0003803	115.688000202
1520.0	0.0003803	115.735000134
1520.0	0.00038	115.781000137
1520.0	0.0003795	115.813000202
1520.0	0.0003795	115.860000134
1520.0	0.00038	115.891000032
1520.0	0.00038	115.938000202
1520.0	0.00038	115.985000134
1520.0	0.00038	116.016000032
1520.0	0.00038	116.063000202
1520.0	0.00038	116.110000134
1520.0	0.00038	116.141000032
1520.0	0.00038	116.188000202
1520.0	0.0003795	116.219000101
1520.0	0.00038	116.266000032
1520.0	0.00038	116.313000202
1530.0	0.0003793	116.578000069
1530.0	0.0003795	116.625
1530.0	0.0003795	116.67200017
1530.0	0.00038	116.703000069
1530.0	0.00038	116.75
1530.0	0.0003803	116.781000137
1530.0	0.0003805	116.828000069
1530.0	0.0003808	116.875
1530.0	0.0003808	116.906000137
1530.0	0.0003808	116.953000069
1530.0	0.0003805	117.0
1530.0	0.0003803	117.031000137
1530.0	0.0003805	117.078000069
1530.0	0.0003803	117.110000134
1530.0	0.0003805	117.156000137
1530.0	0.00038	117.203000069
1530.0	0.00038	117.235000134
1530.0	0.00038	117.281000137
1530.0	0.00038	117.328000069
1530.0	0.00038	117.360000134
1530.0	0.0003803	117.406000137
1530.0	0.0003803	117.453000069
1530.0	0.0003803	117.485000134
1530.0	0.0003805	117.531000137
1530.0	0.0003805	117.578000069
1530.0	0.0003803	117.610000134
1530.0	0.0003803	117.656000137
1530.0	0.00038	117.703000069
1530.0	0.0003803	117.735000134
1530.0	0.00038	117.781000137
1530.0	0.00038	117.813000202
1530.0	0.00038	117.860000134
1530.0	0.00038	117.906000137
1530.0	0.0003803	117.938000202
1530.0	0.0003803	117.985000134
1530.0	0.0003803	118.031000137
1530.0	0.0003803	118.063000202
1540.0	0.0003793	118.344000101
1540.0	0.0003795	118.391000032
1540.0	0.00038	118.42200017
1540.0	0.00038	118.469000101
1540.0	0.00038	118.5
1540.0	0.00038	118.54700017
1540.0	0.00038	118.594000101
1540.0	0.0003793	118.625
1540.0	0.000379	118.67200017
1540.0	0.0003788	118.719000101
1540.0	0.0003788	118.75
1540.0	0.0003783	118.79700017
1540.0	0.0003783	118.828000069
1540.0	0.0003783	118.875
1540.0	0.0003783	118.92200017
1540.0	0.0003788	118.953000069
1540.0	0.0003783	119.0
1540.0	0.000378	119.04700017
1540.0	0.000378	119.078000069
1540.0	0.000378	119.125
1540.0	0.000378	119.156000137
1540.0	0.0003778	119.203000069
1540.0	0.0003775	119.25
1540.0	0.0003775	119.281000137
1540.0	0.0003775	119.328000069
1540.0	0.0003775	119.375
1540.0	0.0003775	119.406000137
1540.0	0.0003775	119.453000069
1540.0	0.0003775	119.485000134
1540.0	0.0003775	119.531000137
1540.0	0.0003778	119.578000069
1540.0	0.000378	119.610000134
1540.0	0.0003778	119.656000137
1540.0	0.000378	119.703000069
1540.0	0.0003783	119.735000134
1540.0	0.0003783	119.781000137
1540.0	0.0003783	119.813000202
1550.0	0.0003763	120.094000101
1550.0	0.0003755	120.141000032
1550.0	0.0003753	120.17200017
1550.0	0.0003753	120.219000101
1550.0	0.000375	120.266000032
1550.0	0.0003743	120.29700017
1550.0	0.000374	120.344000101
1550.0	0.000374	120.375
1550.0	0.0003738	120.42200017
1550.0	0.0003733	120.469000101
1550.0	0.000373	120.5
1550.0	0.000373	120.54700017
1550.0	0.000373	120.594000101
1550.0	0.000373	120.625
1550.0	0.000373	120.67200017
1550.0	0.000373	120.719000101
1550.0	0.000373	120.75
1550.0	0.000373	120.79700017
1550.0	0.0003728	120.828000069
1550.0	0.0003728	120.875
1550.0	0.0003728	120.92200017
1550.0	0.000373	120.953000069
1550.0	0.000373	121.0
1550.0	0.0003728	121.031000137
1550.0	0.000373	121.078000069
1550.0	0.0003728	121.125
1550.0	0.0003725	121.156000137
1550.0	0.000372	121.203000069
1550.0	0.0003718	121.25
1550.0	0.0003718	121.281000137
1550.0	0.000372	121.328000069
1550.0	0.000372	121.375
1550.0	0.0003725	121.406000137
1550.0	0.0003728	121.453000069
1550.0	0.000373	121.485000134
1550.0	0.000373	121.531000137
1550.0	0.000373	121.578000069
1560.0	0.0003703	121.844000101
1560.0	0.000369	121.891000032
1560.0	0.000368	121.938000202
1560.0	0.0003675	121.969000101
1560.0	0.000367	122.016000032
1560.0	0.0003665	122.063000202
1560.0	0.0003663	122.094000101
1560.0	0.0003655	122.141000032
1560.0	0.0003653	122.17200017
1560.0	0.0003653	122.219000101
1560.0	0.000365	122.266000032
1560.0	0.0003645	122.29700017
1560.0	0.0003645	122.344000101
1560.0	0.0003643	122.391000032
1560.0	0.0003643	122.42200017
1560.0	0.0003643	122.469000101
1560.0	0.0003643	122.5
1560.0	0.0003645	122.54700017
1560.0	0.000365	122.594000101
1560.0	0.0003653	122.625
1560.0	0.0003655	122.67200017
1560.0	0.0003655	122.719000101
1560.0	0.0003655	122.75
1560.0	0.0003653	122.79700017
1560.0	0.0003653	122.828000069
1560.0	0.0003653	122.875
1560.0	0.000365	122.92200017
1560.0	0.0003653	122.953000069
1560.0	0.000365	123.0
1560.0	0.000365	123.04700017
1560.0	0.0003653	123.078000069
1560.0	0.000365	123.125
1560.0	0.000365	123.156000137
1560.0	0.000365	123.203000069
1560.0	0.0003645	123.25
1560.0	0.0003643	123.281000137
1560.0	0.000364	123.328000069
1570.0	0.0003613	123.594000101
1570.0	0.0003595	123.641000032
1570.0	0.0003588	123.688000202
1570.0	0.0003578	123.719000101
1570.0	0.000357	123.766000032
1570.0	0.0003565	123.79700017
1570.0	0.0003555	123.844000101
1570.0	0.0003555	123.891000032
1570.0	0.0003553	123.92200017
1570.0	0.000355	123.969000101
1570.0	0.000355	124.016000032
1570.0	0.0003545	124.04700017
1570.0	0.0003545	124.094000101
1570.0	0.0003543	124.141000032
1570.0	0.0003545	124.17200017
1570.0	0.000355	124.219000101
1570.0	0.000355	124.266000032
1570.0	0.0003545	124.29700017
1570.0	0.0003545	124.344000101
1570.0	0.0003543	124.391000032
1570.0	0.0003543	124.42200017
1570.0	0.0003543	124.469000101
1570.0	0.0003543	124.5
1570.0	0.000354	124.54700017
1570.0	0.000354	124.594000101
1570.0	0.000354	124.625
1570.0	0.0003538	124.67200017
1570.0	0.0003533	124.719000101
1570.0	0.0003533	124.75
1570.0	0.0003533	124.79700017
1570.0	0.0003533	124.828000069
1570.0	0.000353	124.875
1570.0	0.000353	124.92200017
1570.0	0.000353	124.953000069
1570.0	0.0003533	125.0
1570.0	0.0003533	125.04700017
1570.0	0.0003538	125.078000069
1580.0	0.000348	125.360000134
1580.0	0.0003465	125.391000032
1580.0	0.0003445	125.438000202
1580.0	0.0003438	125.485000134
1580.0	0.000343	125.516000032
1580.0	0.0003428	125.563000202
1580.0	0.0003425	125.610000134
1580.0	0.0003418	125.641000032
1580.0	0.0003418	125.688000202
1580.0	0.0003415	125.719000101
1580.0	0.0003415	125.766000032
1580.0	0.0003413	125.813000202
1580.0	0.0003408	125.844000101
1580.0	0.0003408	125.891000032
1580.0	0.0003405	125.938000202
1580.0	0.0003408	125.969000101
1580.0	0.0003405	126.016000032
1580.0	0.0003403	126.063000202
1580.0	0.0003403	126.094000101
1580.0	0.0003403	126.141000032
1580.0	0.0003403	126.17200017
1580.0	0.0003403	126.219000101
1580.0	0.0003403	126.266000032
1580.0	0.0003403	126.29700017
1580.0	0.0003405	126.344000101
1580.0	0.0003403	126.391000032
1580.0	0.00034	126.42200017
1580.0	0.00034	126.469000101
1580.0	0.00034	126.5
1580.0	0.00034	126.54700017
1580.0	0.0003403	126.594000101
1580.0	0.0003395	126.625
1580.0	0.0003395	126.67200017
1580.0	0.0003393	126.719000101
1580.0	0.0003393	126.75
1580.0	0.0003393	126.79700017
1580.0	0.0003393	126.828000069
1590.0	0.0003338	127.110000134
1590.0	0.0003315	127.156000137
1590.0	0.0003295	127.188000202
1590.0	0.0003283	127.235000134
1590.0	0.000327	127.281000137
1590.0	0.0003263	127.313000202
1590.0	0.0003253	127.360000134
1590.0	0.0003245	127.391000032
1590.0	0.0003245	127.438000202
1590.0	0.0003243	127.485000134
1590.0	0.0003243	127.516000032
1590.0	0.000324	127.563000202
1590.0	0.0003238	127.610000134
1590.0	0.0003238	127.641000032
1590.0	0.0003238	127.688000202
1590.0	0.0003233	127.719000101
1590.0	0.0003233	127.766000032
1590.0	0.0003238	127.813000202
1590.0	0.0003233	127.844000101
1590.0	0.0003238	127.891000032
1590.0	0.0003238	127.938000202
1590.0	0.0003238	127.969000101
1590.0	0.0003238	128.016000032
1590.0	0.000324	128.063000202
1590.0	0.000324	128.094000101
1590.0	0.0003243	128.141000032
1590.0	0.000324	128.17200017
1590.0	0.0003243	128.219000101
1590.0	0.0003245	128.266000032
1590.0	0.0003245	128.29700017
1590.0	0.0003243	128.344000101
1590.0	0.0003243	128.391000032
1590.0	0.0003243	128.42200017
1590.0	0.0003243	128.469000101
1590.0	0.0003243	128.5
1590.0	0.0003243	128.54700017
1590.0	0.0003245	128.594000101
1600.0	0.000317	128.860000134
1600.0	0.000315	128.906000137
1600.0	0.0003128	128.953000069
1600.0	0.0003113	128.985000134
1600.0	0.0003095	129.031000137
1600.0	0.0003088	129.063000202
1600.0	0.0003078	129.110000134
1600.0	0.0003075	129.156000137
1600.0	0.000307	129.188000202
1600.0	0.0003068	129.235000134
1600.0	0.0003068	129.281000137
1600.0	0.0003068	129.313000202
1600.0	0.0003065	129.360000134
1600.0	0.0003065	129.391000032
1600.0	0.0003068	129.438000202
1600.0	0.0003068	129.485000134
1600.0	0.0003068	129.516000032
1600.0	0.0003068	129.563000202
1600.0	0.0003065	129.610000134
1600.0	0.0003063	129.641000032
1600.0	0.0003063	129.688000202
1600.0	0.0003063	129.735000134
1600.0	0.0003058	129.766000032
1600.0	0.0003055	129.813000202
1600.0	0.0003055	129.844000101
1600.0	0.0003053	129.891000032
1600.0	0.0003053	129.938000202
1600.0	0.0003053	129.969000101
1600.0	0.0003053	130.016000032
1600.0	0.0003053	130.063000202
1600.0	0.0003053	130.094000101
1600.0	0.0003053	130.141000032
1600.0	0.000305	130.17200017
1600.0	0.0003053	130.219000101
1600.0	0.0003053	130.266000032
1600.0	0.0003053	130.29700017
1600.0	0.0003055	130.344000101
1610.0	0.000297	130.625
1610.0	0.000294	130.656000137
1610.0	0.0002915	130.703000069
1610.0	0.0002895	130.75
1610.0	0.0002888	130.781000137
1610.0	0.000288	130.828000069
1610.0	0.0002875	130.875
1610.0	0.0002868	130.906000137
1610.0	0.0002865	130.953000069
1610.0	0.0002863	130.985000134
1610.0	0.0002863	131.031000137
1610.0	0.0002858	131.078000069
1610.0	0.0002858	131.110000134
1610.0	0.0002858	131.156000137
1610.0	0.0002858	131.203000069
1610.0	0.0002858	131.235000134
1610.0	0.0002855	131.281000137
1610.0	0.0002853	131.328000069
1610.0	0.0002853	131.360000134
1610.0	0.0002853	131.406000137
1610.0	0.0002853	131.453000069
1610.0	0.0002855	131.485000134
1610.0	0.0002853	131.531000137
1610.0	0.0002845	131.563000202
1610.0	0.0002845	131.610000134
1610.0	0.0002845	131.656000137
1610.0	0.000285	131.688000202
1610.0	0.000285	131.735000134
1610.0	0.000285	131.781000137
1610.0	0.000285	131.813000202
1610.0	0.000285	131.860000134
1610.0	0.0002853	131.906000137
1610.0	0.0002853	131.938000202
1610.0	0.0002853	131.985000134
1610.0	0.0002855	132.016000032
1610.0	0.0002853	132.063000202
1610.0	0.0002853	132.110000134
1620.0	0.0002763	132.391000032
1620.0	0.000273	132.42200017
1620.0	0.0002705	132.469000101
1620.0	0.0002683	132.516000032
1620.0	0.0002665	132.54700017
1620.0	0.0002653	132.594000101
1620.0	0.0002643	132.625
1620.0	0.0002633	132.67200017
1620.0	0.0002625	132.719000101
1620.0	0.0002618	132.75
1620.0	0.0002615	132.79700017
1620.0	0.0002615	132.844000101
1620.0	0.0002613	132.875
1620.0	0.0002615	132.92200017
1620.0	0.0002615	132.953000069
1620.0	0.0002618	133.0
1620.0	0.000262	133.04700017
1620.0	0.0002625	133.078000069
1620.0	0.0002625	133.125
1620.0	0.0002625	133.156000137
1620.0	0.0002625	133.203000069
1620.0	0.000262	133.25
1620.0	0.000262	133.281000137
1620.0	0.000262	133.328000069
1620.0	0.0002625	133.375
1620.0	0.0002625	133.406000137
1620.0	0.0002628	133.453000069
1620.0	0.0002625	133.5
1620.0	0.0002625	133.531000137
1620.0	0.000262	133.578000069
1620.0	0.0002618	133.610000134
1620.0	0.0002618	133.656000137
1620.0	0.0002618	133.703000069
1620.0	0.0002615	133.735000134
1620.0	0.0002615	133.781000137
1620.0	0.0002613	133.828000069
1620.0	0.0002613	133.860000134
1630.0	0.0002518	134.141000032
1630.0	0.0002488	134.188000202
1630.0	0.0002463	134.219000101
1630.0	0.0002438	134.266000032
1630.0	0.000242	134.313000202
1630.0	0.0002405	134.344000101
1630.0	0.00024	134.391000032
1630.0	0.000239	134.438000202
1630.0	0.0002383	134.469000101
1630.0	0.000238	134.516000032
1630.0	0.0002375	134.54700017
1630.0	0.0002368	134.594000101
1630.0	0.0002365	134.641000032
1630.0	0.0002368	134.67200017
1630.0	0.000237	134.719000101
1630.0	0.0002375	134.766000032
1630.0	0.0002375	134.79700017
1630.0	0.0002375	134.844000101
1630.0	0.000237	134.891000032
1630.0	0.000237	134.92200017
1630.0	0.0002375	134.969000101
1630.0	0.000237	135.016000032
1630.0	0.000237	135.04700017
1630.0	0.000237	135.094000101
1630.0	0.000237	135.125
1630.0	0.000237	135.17200017
1630.0	0.0002368	135.219000101
1630.0	0.0002368	135.25
1630.0	0.0002368	135.29700017
1630.0	0.0002368	135.344000101
1630.0	0.0002368	135.375
1630.0	0.0002368	135.42200017
1630.0	0.0002368	135.469000101
1630.0	0.000237	135.5
1630.0	0.000237	135.54700017
1630.0	0.000237	135.578000069
1630.0	0.0002368	135.625
1640.0	0.000228	135.906000137
1640.0	0.000225	135.953000069
1640.0	0.000222	135.985000134
1640.0	0.00022	136.031000137
1640.0	0.000218	136.078000069
1640.0	0.0002165	136.110000134
1640.0	0.0002155	136.156000137
1640.0	0.0002145	136.203000069
1640.0	0.000214	136.235000134
1640.0	0.000214	136.281000137
1640.0	0.0002138	136.328000069
1640.0	0.0002138	136.360000134
1640.0	0.0002133	136.406000137
1640.0	0.0002133	136.453000069
1640.0	0.0002133	136.485000134
1640.0	0.0002133	136.531000137
1640.0	0.0002133	136.563000202
1640.0	0.0002133	136.610000134
1640.0	0.0002138	136.656000137
1640.0	0.0002138	136.688000202
1640.0	0.0002138	136.735000134
1640.0	0.0002138	136.781000137
1640.0	0.0002143	136.813000202
1640.0	0.0002143	136.860000134
1640.0	0.0002143	136.891000032
1640.0	0.0002143	136.938000202
1640.0	0.000214	136.985000134
1640.0	0.0002138	137.016000032
1640.0	0.0002138	137.063000202
1640.0	0.0002133	137.110000134
1640.0	0.0002133	137.141000032
1640.0	0.0002133	137.188000202
1640.0	0.0002133	137.235000134
1640.0	0.0002133	137.266000032
1640.0	0.0002133	137.313000202
1640.0	0.000213	137.344000101
1640.0	0.000213	137.391000032
1650.0	0.0002043	137.67200017
1650.0	0.0002015	137.719000101
1650.0	0.0001988	137.75
1650.0	0.0001965	137.79700017
1650.0	0.0001945	137.844000101
1650.0	0.0001938	137.875
1650.0	0.0001925	137.92200017
1650.0	0.0001918	137.969000101
1650.0	0.0001915	138.0
1650.0	0.0001913	138.04700017
1650.0	0.0001913	138.078000069
1650.0	0.0001913	138.125
1650.0	0.0001913	138.17200017
1650.0	0.0001915	138.203000069
1650.0	0.0001913	138.25
1650.0	0.0001913	138.29700017
1650.0	0.0001908	138.328000069
1650.0	0.0001908	138.375
1650.0	0.0001908	138.406000137
1650.0	0.0001913	138.453000069
1650.0	0.0001908	138.5
1650.0	0.0001908	138.531000137
1650.0	0.0001908	138.578000069
1650.0	0.0001913	138.625
1650.0	0.0001913	138.656000137
1650.0	0.0001915	138.703000069
1650.0	0.0001918	138.735000134
1650.0	0.000192	138.781000137
1650.0	0.0001918	138.828000069
1650.0	0.0001915	138.860000134
1650.0	0.0001913	138.906000137
1650.0	0.0001913	138.953000069
1650.0	0.0001913	138.985000134
1650.0	0.0001913	139.031000137
1650.0	0.0001913	139.063000202
1650.0	0.0001913	139.110000134
1650.0	0.0001913	139.156000137
1660.0	0.0001825	139.438000202
1660.0	0.0001795	139.485000134
1660.0	0.000177	139.516000032
1660.0	0.0001755	139.563000202
1660.0	0.000174	139.610000134
1660.0	0.000173	139.641000032
1660.0	0.0001718	139.688000202
1660.0	0.0001713	139.735000134
1660.0	0.0001705	139.766000032
1660.0	0.0001703	139.813000202
1660.0	0.0001703	139.844000101
1660.0	0.0001703	139.891000032
1660.0	0.0001703	139.938000202
1660.0	0.0001703	139.969000101
1660.0	0.0001703	140.016000032
1660.0	0.00017	140.063000202
1660.0	0.00017	140.094000101
1660.0	0.00017	140.141000032
1660.0	0.0001705	140.188000202
1660.0	0.0001708	140.219000101
1660.0	0.0001708	140.266000032
1660.0	0.0001708	140.29700017
1660.0	0.0001705	140.344000101
1660.0	0.00017	140.391000032
1660.0	0.0001695	140.42200017
1660.0	0.0001693	140.469000101
1660.0	0.000169	140.516000032
1660.0	0.000169	140.54700017
1660.0	0.0001688	140.594000101
1660.0	0.0001688	140.625
1660.0	0.000169	140.67200017
1660.0	0.000169	140.719000101
1660.0	0.0001693	140.75
1660.0	0.0001693	140.79700017
1660.0	0.000169	140.844000101
1660.0	0.000169	140.875
1660.0	0.000169	140.92200017
1670.0	0.0001608	141.203000069
1670.0	0.0001583	141.25
1670.0	0.0001565	141.281000137
1670.0	0.000155	141.328000069
1670.0	0.0001538	141.375
1670.0	0.000153	141.406000137
1670.0	0.0001525	141.453000069
1670.0	0.0001515	141.5
1670.0	0.0001513	141.531000137
1670.0	0.0001508	141.578000069
1670.0	0.0001503	141.610000134
1670.0	0.00015	141.656000137
1670.0	0.00015	141.703000069
1670.0	0.0001495	141.735000134
1670.0	0.00015	141.781000137
1670.0	0.00015	141.828000069
1670.0	0.00015	141.860000134
1670.0	0.00015	141.906000137
1670.0	0.0001495	141.953000069
1670.0	0.0001493	141.985000134
1670.0	0.000149	142.031000137
1670.0	0.000149	142.063000202
1670.0	0.000149	142.110000134
1670.0	0.000149	142.156000137
1670.0	0.0001493	142.188000202
1670.0	0.0001493	142.235000134
1670.0	0.0001493	142.281000137
1670.0	0.000149	142.313000202
1670.0	0.000149	142.360000134
1670.0	0.000149	142.406000137
1670.0	0.000149	142.438000202
1670.0	0.0001488	142.485000134
1670.0	0.0001488	142.531000137
1670.0	0.0001488	142.563000202
1670.0	0.0001483	142.610000134
1670.0	0.0001488	142.641000032
1670.0	0.000149	142.688000202
1680.0	0.0001413	142.969000101
1680.0	0.000139	143.016000032
1680.0	0.000137	143.063000202
1680.0	0.0001355	143.094000101
1680.0	0.0001345	143.141000032
1680.0	0.0001338	143.17200017
1680.0	0.0001328	143.219000101
1680.0	0.0001325	143.266000032
1680.0	0.000132	143.29700017
1680.0	0.000132	143.344000101
1680.0	0.000132	143.391000032
1680.0	0.0001318	143.42200017
1680.0	0.0001315	143.469000101
1680.0	0.0001313	143.5
1680.0	0.0001308	143.54700017
1680.0	0.0001305	143.594000101
1680.0	0.0001308	143.625
1680.0	0.0001313	143.67200017
1680.0	0.0001313	143.719000101
1680.0	0.0001308	143.75
1680.0	0.0001308	143.79700017
1680.0	0.0001313	143.828000069
1680.0	0.0001313	143.875
1680.0	0.0001313	143.92200017
1680.0	0.0001308	143.953000069
1680.0	0.0001305	144.0
1680.0	0.0001305	144.04700017
1680.0	0.0001308	144.078000069
1680.0	0.0001308	144.125
1680.0	0.0001305	144.156000137
1680.0	0.0001303	144.203000069
1680.0	0.0001303	144.25
1680.0	0.0001303	144.29700017
1680.0	0.0001305	144.328000069
1680.0	0.0001303	144.375
1680.0	0.0001303	144.406000137
1690.0	0.0001243	144.703000069
1690.0	0.000122	144.75
1690.0	0.0001205	144.781000137
1690.0	0.0001188	144.828000069
1690.0	0.0001178	144.860000134
1690.0	0.0001168	144.906000137
1690.0	0.0001163	144.953000069
1690.0	0.0001155	144.985000134
1690.0	0.0001155	145.031000137
1690.0	0.000115	145.078000069
1690.0	0.0001145	145.110000134
1690.0	0.0001143	145.156000137
1690.0	0.0001143	145.188000202
1690.0	0.0001143	145.235000134
1690.0	0.0001143	145.281000137
1690.0	0.0001143	145.313000202
1690.0	0.0001143	145.360000134
1690.0	0.000114	145.406000137
1690.0	0.0001143	145.438000202
1690.0	0.0001145	145.485000134
1690.0	0.0001143	145.516000032
1690.0	0.0001145	145.563000202
1690.0	0.0001143	145.610000134
1690.0	0.0001143	145.641000032
1690.0	0.0001143	145.688000202
1690.0	0.0001145	145.735000134
1690.0	0.000115	145.766000032
1690.0	0.000115	145.813000202
1690.0	0.0001145	145.860000134
1690.0	0.0001145	145.891000032
1690.0	0.0001143	145.938000202
1690.0	0.000114	145.969000101
1690.0	0.0001143	146.016000032
1690.0	0.0001143	146.063000202
1690.0	0.0001145	146.094000101
1690.0	0.0001145	146.141000032
1690.0	0.0001145	146.188000202
1700.0	0.0001083	146.469000101
1700.0	0.0001065	146.516000032
1700.0	0.000105	146.54700017
1700.0	0.0001038	146.594000101
1700.0	0.000103	146.625
1700.0	0.000102	146.67200017
1700.0	0.0001015	146.719000101
1700.0	0.0001008	146.75
1700.0	0.0001005	146.79700017
1700.0	0.0001005	146.844000101
1700.0	0.0001005	146.875
1700.0	0.0001008	146.92200017
1700.0	0.0001008	146.969000101
1700.0	0.0001008	147.0
1700.0	0.0001005	147.04700017
1700.0	0.0001005	147.078000069
1700.0	0.0001003	147.125
1700.0	0.0001	147.17200017
1700.0	0.0001	147.203000069
1700.0	0.0001	147.25
1700.0	0.0001003	147.281000137
1700.0	0.0001	147.328000069
1700.0	9.95e-05	147.375
1700.0	9.95e-05	147.406000137
1700.0	0.0001	147.453000069
1700.0	0.0001	147.5
1700.0	9.95e-05	147.531000137
1700.0	9.95e-05	147.578000069
1700.0	9.93e-05	147.625
1700.0	0.0001	147.656000137
1700.0	0.0001	147.703000069
1700.0	0.0001	147.735000134
1700.0	0.0001003	147.781000137
1700.0	0.0001003	147.828000069
1700.0	0.0001005	147.860000134
1700.0	0.0001008	147.906000137
1700.0	0.0001008	147.953000069
1710.0	9.55e-05	148.235000134
1710.0	9.38e-05	148.281000137
1710.0	9.25e-05	148.313000202
1710.0	9.18e-05	148.360000134
1710.0	9.08e-05	148.391000032
1710.0	9e-05	148.438000202
1710.0	8.95e-05	148.485000134
1710.0	8.93e-05	148.516000032
1710.0	8.93e-05	148.563000202
1710.0	8.93e-05	148.610000134
1710.0	8.93e-05	148.641000032
1710.0	8.93e-05	148.688000202
1710.0	8.93e-05	148.735000134
1710.0	8.9e-05	148.766000032
1710.0	8.9e-05	148.813000202
1710.0	8.83e-05	148.860000134
1710.0	8.83e-05	148.891000032
1710.0	8.8e-05	148.938000202
1710.0	8.8e-05	148.985000134
1710.0	8.8e-05	149.016000032
1710.0	8.88e-05	149.063000202
1710.0	8.83e-05	149.094000101
1710.0	8.83e-05	149.141000032
1710.0	8.8e-05	149.188000202
1710.0	8.8e-05	149.219000101
1710.0	8.8e-05	149.266000032
1710.0	8.8e-05	149.313000202
1710.0	8.8e-05	149.344000101
1710.0	8.83e-05	149.391000032
1710.0	8.83e-05	149.42200017
1710.0	8.88e-05	149.469000101
1710.0	8.88e-05	149.516000032
1710.0	8.88e-05	149.54700017
1710.0	8.83e-05	149.594000101
1710.0	8.83e-05	149.641000032
1710.0	8.8e-05	149.67200017
1710.0	8.83e-05	149.719000101
1720.0	8.53e-05	150.0
1720.0	8.33e-05	150.04700017
1720.0	8.18e-05	150.094000101
1720.0	8.08e-05	150.125
1720.0	8.03e-05	150.17200017
1720.0	7.95e-05	150.219000101
1720.0	7.95e-05	150.25
1720.0	7.93e-05	150.29700017
1720.0	7.9e-05	150.344000101
1720.0	7.88e-05	150.375
1720.0	7.83e-05	150.42200017
1720.0	7.83e-05	150.453000069
1720.0	7.83e-05	150.5
1720.0	7.83e-05	150.54700017
1720.0	7.8e-05	150.578000069
1720.0	7.8e-05	150.625
1720.0	7.78e-05	150.67200017
1720.0	7.8e-05	150.703000069
1720.0	7.78e-05	150.75
1720.0	7.78e-05	150.781000137
1720.0	7.8e-05	150.828000069
1720.0	7.8e-05	150.875
1720.0	7.8e-05	150.906000137
1720.0	7.78e-05	150.953000069
1720.0	7.78e-05	151.0
1720.0	7.8e-05	151.031000137
1720.0	7.8e-05	151.078000069
1720.0	7.8e-05	151.125
1720.0	7.83e-05	151.156000137
1720.0	7.83e-05	151.203000069
1720.0	7.83e-05	151.25
1720.0	7.83e-05	151.281000137
1720.0	7.8e-05	151.328000069
1720.0	7.8e-05	151.375
1720.0	7.83e-05	151.406000137
1720.0	7.88e-05	151.453000069
1720.0	7.88e-05	151.485000134
1730.0	7.4e-05	151.781000137
1730.0	7.28e-05	151.813000202
1730.0	7.18e-05	151.860000134
1730.0	7.13e-05	151.906000137
1730.0	7.05e-05	151.938000202
1730.0	7.03e-05	151.985000134
1730.0	6.95e-05	152.031000137
1730.0	6.93e-05	152.063000202
1730.0	6.93e-05	152.110000134
1730.0	7e-05	152.141000032
1730.0	7e-05	152.188000202
1730.0	7e-05	152.235000134
1730.0	7e-05	152.266000032
1730.0	7e-05	152.313000202
1730.0	6.95e-05	152.360000134
1730.0	6.93e-05	152.391000032
1730.0	6.93e-05	152.438000202
1730.0	6.93e-05	152.469000101
1730.0	6.95e-05	152.516000032
1730.0	7e-05	152.563000202
1730.0	7e-05	152.594000101
1730.0	7e-05	152.641000032
1730.0	7e-05	152.688000202
1730.0	7e-05	152.719000101
1730.0	7e-05	152.766000032
1730.0	6.93e-05	152.813000202
1730.0	6.93e-05	152.844000101
1730.0	6.9e-05	152.891000032
1730.0	6.9e-05	152.938000202
1730.0	6.9e-05	152.969000101
1730.0	6.9e-05	153.016000032
1730.0	6.93e-05	153.063000202
1730.0	6.93e-05	153.094000101
1730.0	6.95e-05	153.141000032
1730.0	7e-05	153.17200017
1730.0	6.95e-05	153.219000101
1730.0	7e-05	153.266000032
1740.0	6.63e-05	153.54700017
1740.0	6.5e-05	153.594000101
1740.0	6.43e-05	153.641000032
1740.0	6.38e-05	153.67200017
1740.0	6.3e-05	153.719000101
1740.0	6.25e-05	153.766000032
1740.0	6.25e-05	153.79700017
1740.0	6.2e-05	153.844000101
1740.0	6.2e-05	153.875
1740.0	6.2e-05	153.92200017
1740.0	6.18e-05	153.969000101
1740.0	6.15e-05	154.0
1740.0	6.15e-05	154.04700017
1740.0	6.15e-05	154.094000101
1740.0	6.15e-05	154.125
1740.0	6.15e-05	154.17200017
1740.0	6.15e-05	154.203000069
1740.0	6.18e-05	154.25
1740.0	6.18e-05	154.29700017
1740.0	6.15e-05	154.328000069
1740.0	6.13e-05	154.375
1740.0	6.13e-05	154.42200017
1740.0	6.15e-05	154.453000069
1740.0	6.15e-05	154.5
1740.0	6.18e-05	154.531000137
1740.0	6.18e-05	154.578000069
1740.0	6.18e-05	154.625
1740.0	6.15e-05	154.656000137
1740.0	6.18e-05	154.703000069
1740.0	6.15e-05	154.75
1740.0	6.15e-05	154.781000137
1740.0	6.15e-05	154.828000069
1740.0	6.18e-05	154.860000134
1740.0	6.2e-05	154.906000137
1740.0	6.25e-05	154.953000069
1740.0	6.2e-05	154.985000134
1740.0	6.18e-05	155.031000137
1750.0	5.93e-05	155.328000069
1750.0	5.9e-05	155.375
1750.0	5.83e-05	155.42200017
1750.0	5.78e-05	155.453000069
1750.0	5.75e-05	155.5
1750.0	5.68e-05	155.54700017
1750.0	5.63e-05	155.578000069
1750.0	5.63e-05	155.625
1750.0	5.58e-05	155.656000137
1750.0	5.58e-05	155.703000069
1750.0	5.55e-05	155.75
1750.0	5.55e-05	155.781000137
1750.0	5.55e-05	155.828000069
1750.0	5.58e-05	155.875
1750.0	5.58e-05	155.906000137
1750.0	5.55e-05	155.953000069
1750.0	5.53e-05	155.985000134
1750.0	5.5e-05	156.031000137
1750.0	5.5e-05	156.078000069
1750.0	5.5e-05	156.110000134
1750.0	5.5e-05	156.156000137
1750.0	5.55e-05	156.203000069
1750.0	5.55e-05	156.235000134
1750.0	5.55e-05	156.281000137
1750.0	5.53e-05	156.328000069
1750.0	5.5e-05	156.360000134
1750.0	5.5e-05	156.406000137
1750.0	5.5e-05	156.438000202
1750.0	5.45e-05	156.485000134
1750.0	5.45e-05	156.531000137
1750.0	5.45e-05	156.563000202
1750.0	5.5e-05	156.610000134
1750.0	5.5e-05	156.656000137
1750.0	5.5e-05	156.688000202
1750.0	5.5e-05	156.735000134
1750.0	5.5e-05	156.766000032
1760.0	5.25e-05	157.078000069
1760.0	5.2e-05	157.110000134
1760.0	5.15e-05	157.156000137
1760.0	5.13e-05	157.203000069
1760.0	5.13e-05	157.235000134
1760.0	5.08e-05	157.281000137
1760.0	5.08e-05	157.313000202
1760.0	5.08e-05	157.360000134
1760.0	5.05e-05	157.406000137
1760.0	5.05e-05	157.438000202
1760.0	5.03e-05	157.485000134
1760.0	5e-05	157.531000137
1760.0	5e-05	157.563000202
1760.0	5e-05	157.610000134
1760.0	5.03e-05	157.641000032
1760.0	5.03e-05	157.688000202
1760.0	5.03e-05	157.735000134
1760.0	5e-05	157.766000032
1760.0	4.95e-05	157.813000202
1760.0	4.95e-05	157.860000134
1760.0	4.95e-05	157.891000032
1760.0	5e-05	157.938000202
1760.0	4.95e-05	157.969000101
1760.0	4.95e-05	158.016000032
1760.0	4.93e-05	158.063000202
1760.0	4.95e-05	158.094000101
1760.0	4.93e-05	158.141000032
1760.0	4.95e-05	158.188000202
1760.0	4.95e-05	158.219000101
1760.0	4.95e-05	158.266000032
1760.0	4.95e-05	158.313000202
1760.0	4.95e-05	158.344000101
1760.0	4.95e-05	158.391000032
1760.0	4.95e-05	158.42200017
1760.0	4.95e-05	158.469000101
1760.0	4.93e-05	158.516000032
1760.0	4.95e-05	158.54700017
1770.0	4.83e-05	158.860000134
1770.0	4.78e-05	158.891000032
1770.0	4.7e-05	158.938000202
1770.0	4.65e-05	158.985000134
1770.0	4.63e-05	159.016000032
1770.0	4.55e-05	159.063000202
1770.0	4.55e-05	159.110000134
1770.0	4.53e-05	159.141000032
1770.0	4.5e-05	159.188000202
1770.0	4.5e-05	159.235000134
1770.0	4.5e-05	159.266000032
1770.0	4.5e-05	159.313000202
1770.0	4.5e-05	159.360000134
1770.0	4.53e-05	159.391000032
1770.0	4.53e-05	159.438000202
1770.0	4.53e-05	159.469000101
1770.0	4.53e-05	159.516000032
1770.0	4.55e-05	159.563000202
1770.0	4.55e-05	159.594000101
1770.0	4.53e-05	159.641000032
1770.0	4.53e-05	159.688000202
1770.0	4.5e-05	159.719000101
1770.0	4.5e-05	159.766000032
1770.0	4.5e-05	159.79700017
1770.0	4.45e-05	159.844000101
1770.0	4.45e-05	159.891000032
1770.0	4.45e-05	159.92200017
1770.0	4.5e-05	159.969000101
1770.0	4.5e-05	160.016000032
1770.0	4.5e-05	160.04700017
1770.0	4.45e-05	160.094000101
1770.0	4.45e-05	160.141000032
1770.0	4.43e-05	160.17200017
1770.0	4.45e-05	160.219000101
1770.0	4.5e-05	160.25
1770.0	4.53e-05	160.29700017
1770.0	4.53e-05	160.344000101
1780.0	4.33e-05	160.641000032
1780.0	4.28e-05	160.688000202
1780.0	4.2e-05	160.719000101
1780.0	4.15e-05	160.766000032
1780.0	4.13e-05	160.813000202
1780.0	4.05e-05	160.844000101
1780.0	4.05e-05	160.891000032
1780.0	4.03e-05	160.938000202
1780.0	4.05e-05	160.969000101
1780.0	4.08e-05	161.016000032
1780.0	4.08e-05	161.04700017
1780.0	4.05e-05	161.094000101
1780.0	4.03e-05	161.141000032
1780.0	4.03e-05	161.17200017
1780.0	4.03e-05	161.219000101
1780.0	4.03e-05	161.266000032
1780.0	4.03e-05	161.29700017
1780.0	4.05e-05	161.344000101
1780.0	4.08e-05	161.375
1780.0	4.05e-05	161.42200017
1780.0	4.05e-05	161.469000101
1780.0	4.03e-05	161.5
1780.0	4.03e-05	161.54700017
1780.0	4.03e-05	161.594000101
1780.0	4.05e-05	161.625
1780.0	4.08e-05	161.67200017
1780.0	4.08e-05	161.703000069
1780.0	4.08e-05	161.75
1780.0	4.13e-05	161.79700017
1780.0	4.13e-05	161.828000069
1780.0	4.13e-05	161.875
1780.0	4.08e-05	161.92200017
1780.0	4.05e-05	161.953000069
1780.0	4.05e-05	162.0
1780.0	4.08e-05	162.04700017
1780.0	4.08e-05	162.078000069
1780.0	4.05e-05	162.125
1790.0	3.88e-05	162.42200017
1790.0	3.83e-05	162.469000101
1790.0	3.8e-05	162.516000032
1790.0	3.78e-05	162.54700017
1790.0	3.78e-05	162.594000101
1790.0	3.78e-05	162.641000032
1790.0	3.78e-05	162.67200017
1790.0	3.75e-05	162.719000101
1790.0	3.7e-05	162.75
1790.0	3.7e-05	162.79700017
1790.0	3.7e-05	162.844000101
1790.0	3.68e-05	162.875
1790.0	3.65e-05	162.92200017
1790.0	3.65e-05	162.969000101
1790.0	3.65e-05	163.0
1790.0	3.63e-05	163.04700017
1790.0	3.55e-05	163.078000069
1790.0	3.55e-05	163.125
1790.0	3.55e-05	163.17200017
1790.0	3.58e-05	163.203000069
1790.0	3.63e-05	163.25
1790.0	3.65e-05	163.29700017
1790.0	3.65e-05	163.328000069
1790.0	3.68e-05	163.375
1790.0	3.68e-05	163.406000137
1790.0	3.65e-05	163.453000069
1790.0	3.65e-05	163.5
1790.0	3.63e-05	163.531000137
1790.0	3.63e-05	163.578000069
1790.0	3.63e-05	163.625
1790.0	3.58e-05	163.656000137
1790.0	3.58e-05	163.703000069
1790.0	3.58e-05	163.75
1790.0	3.55e-05	163.781000137
1790.0	3.58e-05	163.828000069
1790.0	3.55e-05	163.875
1790.0	3.58e-05	163.906000137
1800.0	3.38e-05	164.219000101
1800.0	3.3e-05	164.25
1800.0	3.3e-05	164.29700017
1800.0	3.3e-05	164.328000069
1800.0	3.28e-05	164.375
1800.0	3.28e-05	164.42200017
1800.0	3.28e-05	164.453000069
1800.0	3.3e-05	164.5
1800.0	3.3e-05	164.54700017
1800.0	3.3e-05	164.578000069
1800.0	3.3e-05	164.625
1800.0	3.28e-05	164.67200017
1800.0	3.25e-05	164.703000069
1800.0	3.25e-05	164.75
1800.0	3.25e-05	164.79700017
1800.0	3.28e-05	164.828000069
1800.0	3.25e-05	164.875
1800.0	3.28e-05	164.906000137
1800.0	3.28e-05	164.953000069
1800.0	3.25e-05	165.0
1800.0	3.25e-05	165.031000137
1800.0	3.25e-05	165.078000069
1800.0	3.25e-05	165.125
1800.0	3.25e-05	165.156000137
1800.0	3.2e-05	165.203000069
1800.0	3.2e-05	165.25
1800.0	3.2e-05	165.281000137
1800.0	3.2e-05	165.328000069
1800.0	3.2e-05	165.375
1800.0	3.25e-05	165.406000137
1800.0	3.25e-05	165.453000069
1800.0	3.28e-05	165.5
1800.0	3.25e-05	165.531000137
1800.0	3.25e-05	165.578000069
1800.0	3.28e-05	165.610000134
1800.0	3.28e-05	165.656000137
1800.0	3.28e-05	165.703000069
