Your edit line - do NOT delete this line
Wavelength [nm], Voltage [V], Elapsed time [s]
900.0	0.0001213	14.0940001011
900.0	0.0001188	14.1410000324
900.0	0.0001165	14.1879999638
900.0	0.000115	14.2190001011
900.0	0.000114	14.2660000324
900.0	0.0001133	14.2969999313
900.0	0.0001125	14.3440001011
900.0	0.0001118	14.3910000324
900.0	0.0001115	14.4219999313
900.0	0.0001115	14.4690001011
900.0	0.0001113	14.5160000324
900.0	0.0001103	14.6410000324
900.0	0.0001103	14.6719999313
900.0	0.0001105	14.7190001011
900.0	0.0001105	14.7660000324
900.0	0.0001108	14.7969999313
900.0	0.0001108	14.8440001011
900.0	0.0001108	14.875
900.0	0.0001105	14.9219999313
900.0	0.0001105	14.9690001011
900.0	0.0001105	15.0
900.0	0.0001105	15.0469999313
900.0	0.00011	15.0940001011
900.0	0.00011	15.125
900.0	0.0001103	15.1719999313
900.0	0.00011	15.2190001011
900.0	0.00011	15.25
900.0	0.00011	15.2969999313
900.0	0.0001095	15.3280000687
900.0	0.00011	15.375
900.0	0.0001095	15.4219999313
900.0	0.0001095	15.4530000687
900.0	0.0001095	15.5
900.0	0.00011	15.5469999313
900.0	0.00011	15.5780000687
910.0	0.0001155	15.8910000324
910.0	0.000117	15.9379999638
910.0	0.0001183	15.9690001011
910.0	0.0001193	16.0160000324
910.0	0.0001203	16.0469999313
910.0	0.0001213	16.0940001011
910.0	0.000122	16.1410000324
910.0	0.0001228	16.1719999313
910.0	0.000123	16.2190001011
910.0	0.0001233	16.2660000324
910.0	0.0001238	16.2969999313
910.0	0.0001238	16.3440001011
910.0	0.000124	16.375
910.0	0.000124	16.4219999313
910.0	0.0001233	16.4690001011
910.0	0.0001233	16.5
910.0	0.0001233	16.5469999313
910.0	0.0001233	16.5940001011
910.0	0.0001238	16.625
910.0	0.0001238	16.6719999313
910.0	0.0001238	16.7030000687
910.0	0.0001238	16.75
910.0	0.000124	16.7969999313
910.0	0.000124	16.8280000687
910.0	0.0001243	16.875
910.0	0.0001245	16.9219999313
910.0	0.0001245	16.9530000687
910.0	0.0001245	17.0
910.0	0.0001245	17.0320000648
910.0	0.000124	17.0780000687
910.0	0.000124	17.125
910.0	0.0001238	17.1570000648
910.0	0.0001238	17.2030000687
910.0	0.0001238	17.25
910.0	0.000124	17.2820000648
910.0	0.0001243	17.3280000687
910.0	0.0001243	17.375
920.0	0.0001308	17.6719999313
920.0	0.0001328	17.7190001011
920.0	0.0001343	17.75
920.0	0.0001353	17.7969999313
920.0	0.0001363	17.8280000687
920.0	0.0001368	17.875
920.0	0.0001375	17.9219999313
920.0	0.0001378	17.9530000687
920.0	0.0001383	18.0
920.0	0.0001388	18.0469999313
920.0	0.0001388	18.0780000687
920.0	0.0001388	18.125
920.0	0.0001383	18.1719999313
920.0	0.0001383	18.2030000687
920.0	0.000138	18.25
920.0	0.0001383	18.2820000648
920.0	0.000138	18.3280000687
920.0	0.000138	18.375
920.0	0.0001383	18.4070000648
920.0	0.0001388	18.4530000687
920.0	0.0001388	18.5
920.0	0.0001388	18.5320000648
920.0	0.000139	18.5780000687
920.0	0.000139	18.6099998951
920.0	0.000139	18.6570000648
920.0	0.0001388	18.7030000687
920.0	0.0001383	18.7349998951
920.0	0.0001383	18.7820000648
920.0	0.000138	18.8280000687
920.0	0.0001378	18.8599998951
920.0	0.0001375	18.9070000648
920.0	0.0001375	18.9530000687
920.0	0.0001375	18.9849998951
920.0	0.000137	19.0320000648
920.0	0.000137	19.0629999638
920.0	0.000137	19.1099998951
920.0	0.000137	19.1570000648
930.0	0.000143	19.4530000687
930.0	0.0001445	19.5
930.0	0.0001463	19.5320000648
930.0	0.0001475	19.5780000687
930.0	0.0001483	19.625
930.0	0.0001493	19.6570000648
930.0	0.0001495	19.7030000687
930.0	0.00015	19.75
930.0	0.0001505	19.7820000648
930.0	0.0001505	19.8280000687
930.0	0.0001505	19.8599998951
930.0	0.0001505	19.9070000648
930.0	0.0001505	19.9530000687
930.0	0.0001505	19.9849998951
930.0	0.0001505	20.0320000648
930.0	0.0001508	20.0780000687
930.0	0.0001513	20.1099998951
930.0	0.0001513	20.1570000648
930.0	0.0001508	20.1879999638
930.0	0.0001503	20.2349998951
930.0	0.00015	20.2820000648
930.0	0.00015	20.3129999638
930.0	0.0001495	20.3599998951
930.0	0.0001493	20.4070000648
930.0	0.0001495	20.4379999638
930.0	0.0001495	20.4849998951
930.0	0.0001495	20.5160000324
930.0	0.00015	20.5629999638
930.0	0.00015	20.6099998951
930.0	0.00015	20.6410000324
930.0	0.00015	20.6879999638
930.0	0.0001503	20.7349998951
930.0	0.0001505	20.7660000324
930.0	0.0001508	20.8129999638
930.0	0.0001513	20.8440001011
930.0	0.0001515	20.8910000324
930.0	0.0001513	20.9379999638
940.0	0.0001575	21.2349998951
940.0	0.0001593	21.2820000648
940.0	0.0001608	21.3129999638
940.0	0.0001625	21.3599998951
940.0	0.0001633	21.3910000324
940.0	0.0001643	21.4379999638
940.0	0.0001645	21.4849998951
940.0	0.000165	21.5160000324
940.0	0.0001653	21.5629999638
940.0	0.0001653	21.6099998951
940.0	0.0001655	21.6410000324
940.0	0.0001655	21.6879999638
940.0	0.0001663	21.7190001011
940.0	0.0001665	21.7660000324
940.0	0.0001665	21.8129999638
940.0	0.0001665	21.8440001011
940.0	0.0001668	21.8910000324
940.0	0.0001668	21.9379999638
940.0	0.0001668	21.9690001011
940.0	0.0001668	22.0160000324
940.0	0.0001668	22.0469999313
940.0	0.0001668	22.0940001011
940.0	0.0001665	22.1410000324
940.0	0.0001663	22.1719999313
940.0	0.0001663	22.2190001011
940.0	0.0001663	22.2660000324
940.0	0.0001663	22.2969999313
940.0	0.0001663	22.3440001011
940.0	0.0001663	22.375
940.0	0.0001665	22.4219999313
940.0	0.0001665	22.4690001011
940.0	0.0001665	22.5160000324
940.0	0.0001665	22.5469999313
940.0	0.0001668	22.5940001011
940.0	0.0001665	22.6410000324
940.0	0.0001668	22.6719999313
940.0	0.0001668	22.7190001011
950.0	0.000173	23.0160000324
950.0	0.0001753	23.0469999313
950.0	0.000177	23.0940001011
950.0	0.000179	23.1410000324
950.0	0.00018	23.1719999313
950.0	0.0001808	23.2190001011
950.0	0.0001813	23.25
950.0	0.0001813	23.2969999313
950.0	0.0001815	23.3440001011
950.0	0.000182	23.375
950.0	0.0001825	23.4219999313
950.0	0.0001825	23.4690001011
950.0	0.0001825	23.5
950.0	0.0001828	23.5469999313
950.0	0.000183	23.5780000687
950.0	0.000183	23.625
950.0	0.000183	23.6719999313
950.0	0.0001833	23.7030000687
950.0	0.0001833	23.75
950.0	0.0001833	23.7969999313
950.0	0.0001838	23.8280000687
950.0	0.0001838	23.875
950.0	0.000184	23.9219999313
950.0	0.0001838	23.9530000687
950.0	0.0001838	24.0
950.0	0.0001838	24.0320000648
950.0	0.0001838	24.0780000687
950.0	0.0001833	24.125
950.0	0.0001833	24.1570000648
950.0	0.0001833	24.2030000687
950.0	0.0001833	24.25
950.0	0.0001833	24.2820000648
950.0	0.0001833	24.3280000687
950.0	0.0001833	24.3599998951
950.0	0.0001833	24.4070000648
950.0	0.0001833	24.4530000687
950.0	0.0001833	24.4849998951
960.0	0.00019	24.7660000324
960.0	0.000192	24.8129999638
960.0	0.000194	24.8599998951
960.0	0.0001955	24.8910000324
960.0	0.0001968	24.9379999638
960.0	0.0001975	24.9849998951
960.0	0.0001983	25.0160000324
960.0	0.0001993	25.0629999638
960.0	0.0001995	25.1099998951
960.0	0.0002	25.1410000324
960.0	0.0002003	25.1879999638
960.0	0.0002003	25.2349998951
960.0	0.0002	25.2660000324
960.0	0.0002	25.3129999638
960.0	0.0002	25.3599998951
960.0	0.0002	25.3910000324
960.0	0.0002	25.4379999638
960.0	0.0002	25.4690001011
960.0	0.0002005	25.5160000324
960.0	0.0002005	25.5629999638
960.0	0.0002005	25.5940001011
960.0	0.0002003	25.6410000324
960.0	0.0002003	25.6879999638
960.0	0.0002003	25.7190001011
960.0	0.0002	25.7660000324
960.0	0.0001995	25.7969999313
960.0	0.0002	25.8440001011
960.0	0.0001995	25.8910000324
960.0	0.0002	25.9219999313
960.0	0.0002005	25.9690001011
960.0	0.0002008	26.0160000324
960.0	0.0002005	26.0469999313
960.0	0.0002005	26.0940001011
960.0	0.0002005	26.125
960.0	0.0002008	26.1719999313
960.0	0.0002008	26.2190001011
960.0	0.0002008	26.25
970.0	0.0002075	26.5469999313
970.0	0.0002095	26.5780000687
970.0	0.0002115	26.625
970.0	0.000213	26.6570000648
970.0	0.000214	26.7030000687
970.0	0.000215	26.75
970.0	0.0002155	26.7820000648
970.0	0.0002163	26.8280000687
970.0	0.0002163	26.875
970.0	0.0002163	26.9070000648
970.0	0.0002165	26.9530000687
970.0	0.0002165	26.9849998951
970.0	0.0002165	27.0320000648
970.0	0.0002168	27.0780000687
970.0	0.000217	27.1099998951
970.0	0.000217	27.1570000648
970.0	0.000217	27.2030000687
970.0	0.0002168	27.2349998951
970.0	0.0002168	27.2820000648
970.0	0.0002168	27.3129999638
970.0	0.0002168	27.3599998951
970.0	0.0002168	27.4070000648
970.0	0.0002168	27.4379999638
970.0	0.000217	27.4849998951
970.0	0.0002175	27.5320000648
970.0	0.0002175	27.5629999638
970.0	0.0002175	27.6099998951
970.0	0.0002175	27.6570000648
970.0	0.000217	27.6879999638
970.0	0.0002175	27.7349998951
970.0	0.0002175	27.7660000324
970.0	0.000217	27.8129999638
970.0	0.000217	27.8599998951
970.0	0.000217	27.8910000324
970.0	0.000217	27.9379999638
970.0	0.0002175	27.9690001011
970.0	0.0002175	28.0160000324
980.0	0.000223	28.2969999313
980.0	0.000225	28.3440001011
980.0	0.0002268	28.375
980.0	0.000228	28.4219999313
980.0	0.0002293	28.4690001011
980.0	0.00023	28.5
980.0	0.0002305	28.5469999313
980.0	0.0002308	28.5780000687
980.0	0.0002313	28.625
980.0	0.0002318	28.6719999313
980.0	0.000232	28.7190001011
980.0	0.000232	28.75
980.0	0.0002325	28.7969999313
980.0	0.0002325	28.8280000687
980.0	0.0002328	28.875
980.0	0.0002325	28.9219999313
980.0	0.0002328	28.9530000687
980.0	0.000233	29.0
980.0	0.0002328	29.0469999313
980.0	0.000233	29.0780000687
980.0	0.000233	29.125
980.0	0.000233	29.1570000648
980.0	0.000233	29.2030000687
980.0	0.0002325	29.25
980.0	0.000232	29.2820000648
980.0	0.0002325	29.3280000687
980.0	0.0002325	29.375
980.0	0.0002325	29.4070000648
980.0	0.0002325	29.4530000687
980.0	0.000232	29.5
980.0	0.000232	29.5320000648
980.0	0.000232	29.5780000687
980.0	0.000232	29.6099998951
980.0	0.0002325	29.6570000648
980.0	0.0002325	29.7030000687
980.0	0.000232	29.7349998951
980.0	0.0002325	29.7820000648
990.0	0.000239	30.0629999638
990.0	0.0002415	30.0940001011
990.0	0.0002433	30.1410000324
990.0	0.0002445	30.1879999638
990.0	0.0002458	30.2190001011
990.0	0.0002465	30.2660000324
990.0	0.0002475	30.3129999638
990.0	0.000248	30.3440001011
990.0	0.0002483	30.3910000324
990.0	0.0002488	30.4219999313
990.0	0.0002488	30.4690001011
990.0	0.0002488	30.5160000324
990.0	0.000249	30.5469999313
990.0	0.000249	30.5940001011
990.0	0.0002493	30.6410000324
990.0	0.0002495	30.6719999313
990.0	0.0002495	30.7190001011
990.0	0.0002495	30.75
990.0	0.0002493	30.7969999313
990.0	0.0002493	30.8440001011
990.0	0.000249	30.875
990.0	0.000249	30.9219999313
990.0	0.0002488	30.9690001011
990.0	0.000249	31.0
990.0	0.000249	31.0469999313
990.0	0.000249	31.0940001011
990.0	0.0002495	31.125
990.0	0.00025	31.1719999313
990.0	0.0002503	31.2030000687
990.0	0.0002503	31.25
990.0	0.0002503	31.2969999313
990.0	0.0002503	31.3280000687
990.0	0.0002503	31.375
990.0	0.00025	31.4219999313
990.0	0.0002503	31.4530000687
990.0	0.0002503	31.5
990.0	0.00025	31.5320000648
1000.0	0.000257	31.8129999638
1000.0	0.00026	31.8599998951
1000.0	0.000262	31.9070000648
1000.0	0.000264	31.9379999638
1000.0	0.0002653	31.9849998951
1000.0	0.0002663	32.0160000324
1000.0	0.0002668	32.0629999638
1000.0	0.0002675	32.1099998951
1000.0	0.000268	32.1410000324
1000.0	0.000268	32.1879999638
1000.0	0.000268	32.2349998951
1000.0	0.000268	32.2660000324
1000.0	0.0002683	32.3129999638
1000.0	0.0002688	32.3440001011
1000.0	0.0002688	32.3910000324
1000.0	0.0002688	32.4379999638
1000.0	0.0002688	32.4690001011
1000.0	0.000269	32.5160000324
1000.0	0.000269	32.5629999638
1000.0	0.000269	32.5940001011
1000.0	0.000269	32.6410000324
1000.0	0.0002695	32.6719999313
1000.0	0.00027	32.7190001011
1000.0	0.0002703	32.7660000324
1000.0	0.00027	32.7969999313
1000.0	0.00027	32.8440001011
1000.0	0.00027	32.8910000324
1000.0	0.00027	32.9219999313
1000.0	0.00027	32.9690001011
1000.0	0.00027	33.0
1000.0	0.00027	33.0469999313
1000.0	0.00027	33.0940001011
1000.0	0.00027	33.125
1000.0	0.00027	33.1719999313
1000.0	0.0002695	33.2190001011
1000.0	0.00027	33.25
1000.0	0.0002703	33.2969999313
1010.0	0.000277	33.5780000687
1010.0	0.00028	33.6099998951
1010.0	0.0002818	33.6570000648
1010.0	0.0002838	33.7030000687
1010.0	0.0002853	33.7349998951
1010.0	0.0002863	33.7820000648
1010.0	0.000287	33.8280000687
1010.0	0.0002875	33.8599998951
1010.0	0.000288	33.9070000648
1010.0	0.0002883	33.9379999638
1010.0	0.0002888	33.9849998951
1010.0	0.000289	34.0320000648
1010.0	0.0002895	34.0780000687
1010.0	0.00029	34.1099998951
1010.0	0.00029	34.1570000648
1010.0	0.00029	34.1879999638
1010.0	0.0002895	34.2349998951
1010.0	0.00029	34.2820000648
1010.0	0.0002905	34.3280000687
1010.0	0.0002905	34.3599998951
1010.0	0.0002905	34.4070000648
1010.0	0.0002903	34.4530000687
1010.0	0.0002903	34.4849998951
1010.0	0.00029	34.5320000648
1010.0	0.00029	34.5629999638
1010.0	0.00029	34.6099998951
1010.0	0.00029	34.6570000648
1010.0	0.00029	34.6879999638
1010.0	0.00029	34.7349998951
1010.0	0.0002895	34.7820000648
1010.0	0.0002895	34.8129999638
1010.0	0.00029	34.8599998951
1010.0	0.0002895	34.8910000324
1010.0	0.0002895	34.9379999638
1010.0	0.0002893	34.9849998951
1010.0	0.0002895	35.0160000324
1010.0	0.0002895	35.0629999638
1020.0	0.0002978	35.3440001011
1020.0	0.0003005	35.3910000324
1020.0	0.0003028	35.4219999313
1020.0	0.0003045	35.4690001011
1020.0	0.0003063	35.5160000324
1020.0	0.0003075	35.5469999313
1020.0	0.0003083	35.5940001011
1020.0	0.0003088	35.625
1020.0	0.000309	35.6719999313
1020.0	0.0003093	35.7190001011
1020.0	0.0003093	35.75
1020.0	0.00031	35.7969999313
1020.0	0.0003103	35.8440001011
1020.0	0.00031	35.875
1020.0	0.0003103	35.9219999313
1020.0	0.00031	35.9530000687
1020.0	0.00031	36.0
1020.0	0.00031	36.0469999313
1020.0	0.00031	36.0780000687
1020.0	0.0003095	36.125
1020.0	0.0003095	36.1719999313
1020.0	0.0003093	36.2030000687
1020.0	0.0003095	36.25
1020.0	0.00031	36.2969999313
1020.0	0.0003095	36.3280000687
1020.0	0.00031	36.375
1020.0	0.00031	36.4070000648
1020.0	0.00031	36.4530000687
1020.0	0.0003103	36.5
1020.0	0.00031	36.5320000648
1020.0	0.0003095	36.5780000687
1020.0	0.00031	36.625
1020.0	0.00031	36.6570000648
1020.0	0.00031	36.7030000687
1020.0	0.00031	36.7349998951
1020.0	0.0003095	36.7820000648
1020.0	0.0003093	36.8280000687
1030.0	0.0003178	37.1099998951
1030.0	0.0003203	37.1570000648
1030.0	0.0003225	37.1879999638
1030.0	0.0003243	37.2349998951
1030.0	0.0003258	37.2660000324
1030.0	0.000327	37.3129999638
1030.0	0.0003278	37.3599998951
1030.0	0.0003288	37.3910000324
1030.0	0.000329	37.4379999638
1030.0	0.0003293	37.4849998951
1030.0	0.00033	37.5160000324
1030.0	0.00033	37.5629999638
1030.0	0.00033	37.5940001011
1030.0	0.00033	37.6410000324
1030.0	0.0003295	37.6879999638
1030.0	0.0003295	37.7190001011
1030.0	0.0003295	37.7660000324
1030.0	0.0003295	37.8129999638
1030.0	0.0003295	37.8440001011
1030.0	0.00033	37.8910000324
1030.0	0.00033	37.9219999313
1030.0	0.00033	37.9690001011
1030.0	0.00033	38.0160000324
1030.0	0.00033	38.0469999313
1030.0	0.0003295	38.0940001011
1030.0	0.0003295	38.1410000324
1030.0	0.0003293	38.1719999313
1030.0	0.0003295	38.2190001011
1030.0	0.0003293	38.25
1030.0	0.00033	38.2969999313
1030.0	0.00033	38.3440001011
1030.0	0.0003295	38.375
1030.0	0.0003295	38.4219999313
1030.0	0.0003295	38.4690001011
1030.0	0.0003295	38.5
1030.0	0.00033	38.5469999313
1030.0	0.00033	38.5780000687
1040.0	0.0003388	38.875
1040.0	0.000342	38.9070000648
1040.0	0.0003445	38.9530000687
1040.0	0.0003468	39.0
1040.0	0.0003483	39.0320000648
1040.0	0.0003495	39.0780000687
1040.0	0.0003503	39.1099998951
1040.0	0.0003508	39.1570000648
1040.0	0.0003518	39.2030000687
1040.0	0.0003518	39.2349998951
1040.0	0.000352	39.2820000648
1040.0	0.000352	39.3280000687
1040.0	0.000352	39.3599998951
1040.0	0.000352	39.4070000648
1040.0	0.000352	39.4379999638
1040.0	0.000352	39.4849998951
1040.0	0.0003525	39.5320000648
1040.0	0.0003525	39.5629999638
1040.0	0.000352	39.6099998951
1040.0	0.0003525	39.6570000648
1040.0	0.000352	39.6879999638
1040.0	0.000352	39.7349998951
1040.0	0.0003518	39.7660000324
1040.0	0.0003525	39.8129999638
1040.0	0.0003528	39.8599998951
1040.0	0.000353	39.8910000324
1040.0	0.0003528	39.9379999638
1040.0	0.0003528	39.9849998951
1040.0	0.0003528	40.0160000324
1040.0	0.0003525	40.0629999638
1040.0	0.0003528	40.1099998951
1040.0	0.0003528	40.1410000324
1040.0	0.0003528	40.1879999638
1040.0	0.0003528	40.2349998951
1040.0	0.000353	40.2660000324
1040.0	0.000353	40.3129999638
1040.0	0.0003528	40.3440001011
1050.0	0.0003628	40.6410000324
1050.0	0.0003658	40.6719999313
1050.0	0.0003683	40.7190001011
1050.0	0.0003703	40.7660000324
1050.0	0.0003718	40.7969999313
1050.0	0.000373	40.8440001011
1050.0	0.000374	40.8910000324
1050.0	0.0003745	40.9219999313
1050.0	0.000375	40.9690001011
1050.0	0.0003753	41.0160000324
1050.0	0.0003753	41.0469999313
1050.0	0.0003753	41.0940001011
1050.0	0.0003755	41.125
1050.0	0.0003758	41.1719999313
1050.0	0.0003758	41.2190001011
1050.0	0.0003758	41.25
1050.0	0.0003758	41.2969999313
1050.0	0.0003763	41.3440001011
1050.0	0.0003763	41.375
1050.0	0.0003763	41.4219999313
1050.0	0.0003768	41.4530000687
1050.0	0.0003768	41.5
1050.0	0.0003768	41.5469999313
1050.0	0.0003775	41.5780000687
1050.0	0.0003778	41.625
1050.0	0.000378	41.6719999313
1050.0	0.000378	41.7030000687
1050.0	0.0003778	41.75
1050.0	0.000378	41.7820000648
1050.0	0.000378	41.8280000687
1050.0	0.0003778	41.875
1050.0	0.000378	41.9070000648
1050.0	0.000378	41.9530000687
1050.0	0.000378	42.0
1050.0	0.0003778	42.0320000648
1050.0	0.0003775	42.0780000687
1050.0	0.0003775	42.125
1060.0	0.000387	42.4070000648
1060.0	0.0003903	42.4379999638
1060.0	0.0003928	42.4849998951
1060.0	0.000395	42.5320000648
1060.0	0.0003965	42.5629999638
1060.0	0.000398	42.6099998951
1060.0	0.0003988	42.6410000324
1060.0	0.0003993	42.6879999638
1060.0	0.0003995	42.7349998951
1060.0	0.0004	42.7660000324
1060.0	0.0004003	42.8129999638
1060.0	0.0004003	42.8599998951
1060.0	0.0004003	42.8910000324
1060.0	0.0004003	42.9379999638
1060.0	0.0004005	42.9690001011
1060.0	0.0004005	43.0160000324
1060.0	0.0004005	43.0629999638
1060.0	0.0004005	43.0940001011
1060.0	0.0004008	43.1410000324
1060.0	0.0004013	43.1879999638
1060.0	0.0004013	43.2190001011
1060.0	0.0004013	43.2660000324
1060.0	0.0004013	43.2969999313
1060.0	0.0004013	43.3440001011
1060.0	0.0004015	43.3910000324
1060.0	0.0004013	43.4219999313
1060.0	0.0004013	43.4690001011
1060.0	0.0004015	43.5160000324
1060.0	0.0004015	43.5469999313
1060.0	0.0004015	43.5940001011
1060.0	0.0004015	43.6410000324
1060.0	0.0004015	43.6719999313
1060.0	0.0004015	43.7190001011
1060.0	0.0004015	43.75
1060.0	0.0004015	43.7969999313
1060.0	0.0004015	43.8440001011
1060.0	0.0004018	43.875
1070.0	0.0004108	44.1570000648
1070.0	0.0004138	44.2030000687
1070.0	0.0004163	44.25
1070.0	0.0004183	44.2820000648
1070.0	0.0004195	44.3280000687
1070.0	0.0004205	44.375
1070.0	0.0004215	44.4070000648
1070.0	0.000422	44.4530000687
1070.0	0.0004228	44.5
1070.0	0.000423	44.5320000648
1070.0	0.0004233	44.5780000687
1070.0	0.0004238	44.6099998951
1070.0	0.0004238	44.6570000648
1070.0	0.0004238	44.7030000687
1070.0	0.000424	44.7349998951
1070.0	0.000424	44.7820000648
1070.0	0.0004238	44.8280000687
1070.0	0.0004238	44.8599998951
1070.0	0.0004238	44.9070000648
1070.0	0.0004238	44.9379999638
1070.0	0.0004238	44.9849998951
1070.0	0.0004238	45.0320000648
1070.0	0.0004238	45.0629999638
1070.0	0.0004238	45.1099998951
1070.0	0.0004238	45.1570000648
1070.0	0.0004233	45.1879999638
1070.0	0.000423	45.2349998951
1070.0	0.000423	45.2660000324
1070.0	0.0004228	45.3129999638
1070.0	0.0004228	45.3599998951
1070.0	0.0004228	45.3910000324
1070.0	0.0004228	45.4379999638
1070.0	0.0004228	45.4849998951
1070.0	0.000423	45.5160000324
1070.0	0.000423	45.5629999638
1070.0	0.0004233	45.5940001011
1070.0	0.000423	45.6410000324
1080.0	0.0004313	45.9219999313
1080.0	0.0004338	45.9690001011
1080.0	0.0004363	46.0
1080.0	0.000438	46.0469999313
1080.0	0.0004393	46.0940001011
1080.0	0.0004405	46.125
1080.0	0.0004413	46.1719999313
1080.0	0.0004413	46.2190001011
1080.0	0.0004415	46.25
1080.0	0.000442	46.2969999313
1080.0	0.000442	46.3440001011
1080.0	0.0004425	46.375
1080.0	0.0004425	46.4219999313
1080.0	0.0004428	46.4530000687
1080.0	0.0004428	46.5
1080.0	0.0004428	46.5469999313
1080.0	0.000443	46.5780000687
1080.0	0.000443	46.625
1080.0	0.000443	46.6719999313
1080.0	0.000443	46.7030000687
1080.0	0.000443	46.75
1080.0	0.0004428	46.7820000648
1080.0	0.0004425	46.8280000687
1080.0	0.0004425	46.875
1080.0	0.000442	46.9070000648
1080.0	0.000442	46.9530000687
1080.0	0.000442	47.0
1080.0	0.0004418	47.0320000648
1080.0	0.000442	47.0780000687
1080.0	0.000442	47.1099998951
1080.0	0.0004425	47.1570000648
1080.0	0.0004425	47.2030000687
1080.0	0.000442	47.25
1080.0	0.000442	47.2820000648
1080.0	0.000442	47.3280000687
1080.0	0.0004425	47.3599998951
1080.0	0.0004425	47.4070000648
1090.0	0.00045	47.6879999638
1090.0	0.0004525	47.7349998951
1090.0	0.0004545	47.7820000648
1090.0	0.0004563	47.8129999638
1090.0	0.0004578	47.8599998951
1090.0	0.0004588	47.8910000324
1090.0	0.0004595	47.9379999638
1090.0	0.00046	47.9849998951
1090.0	0.0004603	48.0160000324
1090.0	0.0004605	48.0629999638
1090.0	0.0004605	48.0940001011
1090.0	0.0004605	48.1410000324
1090.0	0.0004605	48.1879999638
1090.0	0.0004608	48.2190001011
1090.0	0.0004613	48.2660000324
1090.0	0.0004615	48.3129999638
1090.0	0.0004615	48.3440001011
1090.0	0.0004615	48.3910000324
1090.0	0.0004615	48.4379999638
1090.0	0.0004618	48.4690001011
1090.0	0.0004618	48.5160000324
1090.0	0.000462	48.5629999638
1090.0	0.000462	48.5940001011
1090.0	0.0004625	48.6410000324
1090.0	0.0004625	48.6879999638
1090.0	0.000462	48.7190001011
1090.0	0.0004625	48.7660000324
1090.0	0.0004625	48.7969999313
1090.0	0.0004628	48.8440001011
1090.0	0.000463	48.8910000324
1090.0	0.000463	48.9219999313
1090.0	0.000463	48.9690001011
1090.0	0.000463	49.0160000324
1090.0	0.0004633	49.0469999313
1090.0	0.0004638	49.0940001011
1090.0	0.0004638	49.125
1090.0	0.0004638	49.1719999313
1100.0	0.0004695	49.4530000687
1100.0	0.0004718	49.5
1100.0	0.0004738	49.5469999313
1100.0	0.0004753	49.5780000687
1100.0	0.0004763	49.625
1100.0	0.0004768	49.6570000648
1100.0	0.0004775	49.7030000687
1100.0	0.0004778	49.75
1100.0	0.000478	49.7969999313
1100.0	0.000478	49.8280000687
1100.0	0.0004783	49.875
1100.0	0.0004783	49.9070000648
1100.0	0.000478	49.9530000687
1100.0	0.000478	50.0
1100.0	0.000478	50.0320000648
1100.0	0.000478	50.0780000687
1100.0	0.000478	50.125
1100.0	0.000478	50.1570000648
1100.0	0.0004783	50.2030000687
1100.0	0.000478	50.2349998951
1100.0	0.000478	50.2820000648
1100.0	0.0004783	50.3280000687
1100.0	0.0004788	50.3599998951
1100.0	0.0004788	50.4070000648
1100.0	0.0004783	50.4530000687
1100.0	0.000478	50.4849998951
1100.0	0.0004783	50.5320000648
1100.0	0.0004788	50.5780000687
1100.0	0.000479	50.6099998951
1100.0	0.0004788	50.6570000648
1100.0	0.0004788	50.6879999638
1100.0	0.0004783	50.7349998951
1100.0	0.000478	50.7820000648
1100.0	0.0004778	50.8129999638
1100.0	0.0004778	50.8599998951
1100.0	0.0004775	50.9070000648
1100.0	0.000477	50.9379999638
1110.0	0.0004813	51.2190001011
1110.0	0.000483	51.2660000324
1110.0	0.0004838	51.3129999638
1110.0	0.000485	51.3440001011
1110.0	0.0004855	51.3910000324
1110.0	0.0004863	51.4219999313
1110.0	0.000487	51.4690001011
1110.0	0.0004875	51.5160000324
1110.0	0.0004878	51.5469999313
1110.0	0.0004875	51.5940001011
1110.0	0.0004875	51.6410000324
1110.0	0.0004875	51.6719999313
1110.0	0.0004875	51.7190001011
1110.0	0.0004875	51.75
1110.0	0.0004878	51.7969999313
1110.0	0.0004878	51.8440001011
1110.0	0.0004878	51.875
1110.0	0.000488	51.9219999313
1110.0	0.000488	51.9690001011
1110.0	0.000488	52.0
1110.0	0.000488	52.0469999313
1110.0	0.0004878	52.0780000687
1110.0	0.000488	52.125
1110.0	0.0004878	52.1719999313
1110.0	0.0004878	52.2030000687
1110.0	0.000488	52.25
1110.0	0.000488	52.2969999313
1110.0	0.000488	52.3280000687
1110.0	0.000488	52.375
1110.0	0.000488	52.4219999313
1110.0	0.000488	52.4530000687
1110.0	0.0004878	52.5
1110.0	0.0004878	52.5469999313
1110.0	0.000488	52.5780000687
1110.0	0.000488	52.625
1110.0	0.0004883	52.6719999313
1120.0	0.000492	52.9379999638
1120.0	0.000493	52.9849998951
1120.0	0.0004943	53.0320000648
1120.0	0.0004953	53.0629999638
1120.0	0.0004963	53.1099998951
1120.0	0.0004965	53.1570000648
1120.0	0.0004968	53.1879999638
1120.0	0.000497	53.2349998951
1120.0	0.0004978	53.2820000648
1120.0	0.0004978	53.3129999638
1120.0	0.000498	53.3599998951
1120.0	0.000498	53.3910000324
1120.0	0.0004975	53.4379999638
1120.0	0.0004975	53.4849998951
1120.0	0.0004975	53.5160000324
1120.0	0.0004978	53.5629999638
1120.0	0.000498	53.5940001011
1120.0	0.000498	53.6410000324
1120.0	0.0004983	53.6879999638
1120.0	0.0004983	53.7190001011
1120.0	0.0004988	53.7660000324
1120.0	0.000499	53.8129999638
1120.0	0.0004988	53.8440001011
1120.0	0.000499	53.8910000324
1120.0	0.000499	53.9379999638
1120.0	0.0004988	53.9690001011
1120.0	0.000499	54.0160000324
1120.0	0.000499	54.0469999313
1120.0	0.000499	54.0940001011
1120.0	0.0004993	54.1410000324
1120.0	0.0004993	54.1719999313
1120.0	0.0004993	54.2190001011
1120.0	0.0004993	54.2660000324
1120.0	0.0004993	54.2969999313
1120.0	0.0004993	54.3440001011
1120.0	0.0004993	54.375
1120.0	0.0004993	54.4219999313
1130.0	0.0005013	54.7030000687
1130.0	0.0005018	54.7349998951
1130.0	0.0005028	54.7820000648
1130.0	0.000503	54.8280000687
1130.0	0.000503	54.8599998951
1130.0	0.000503	54.9070000648
1130.0	0.0005033	54.9379999638
1130.0	0.0005033	54.9849998951
1130.0	0.0005033	55.0320000648
1130.0	0.0005033	55.0629999638
1130.0	0.000503	55.1099998951
1130.0	0.0005028	55.1570000648
1130.0	0.0005028	55.1879999638
1130.0	0.0005025	55.2349998951
1130.0	0.0005028	55.2820000648
1130.0	0.0005028	55.3129999638
1130.0	0.0005028	55.3599998951
1130.0	0.0005028	55.3910000324
1130.0	0.0005025	55.4379999638
1130.0	0.0005018	55.4849998951
1130.0	0.0005018	55.5160000324
1130.0	0.0005018	55.5629999638
1130.0	0.0005018	55.6099998951
1130.0	0.0005018	55.6410000324
1130.0	0.0005018	55.6879999638
1130.0	0.0005018	55.7190001011
1130.0	0.0005018	55.7660000324
1130.0	0.0005018	55.8129999638
1130.0	0.0005018	55.8440001011
1130.0	0.0005015	55.8910000324
1130.0	0.0005015	55.9379999638
1130.0	0.0005018	55.9690001011
1130.0	0.0005018	56.0160000324
1130.0	0.000502	56.0469999313
1130.0	0.000502	56.0940001011
1130.0	0.0005018	56.1410000324
1130.0	0.0005018	56.1879999638
1140.0	0.0005033	56.4530000687
1140.0	0.0005038	56.5
1140.0	0.000504	56.5320000648
1140.0	0.000504	56.5780000687
1140.0	0.0005045	56.6099998951
1140.0	0.0005053	56.6570000648
1140.0	0.0005055	56.7030000687
1140.0	0.0005055	56.7349998951
1140.0	0.0005055	56.7820000648
1140.0	0.0005063	56.8280000687
1140.0	0.0005063	56.8599998951
1140.0	0.0005063	56.9070000648
1140.0	0.0005065	56.9530000687
1140.0	0.0005065	56.9849998951
1140.0	0.0005063	57.0320000648
1140.0	0.0005063	57.0629999638
1140.0	0.0005063	57.1099998951
1140.0	0.0005063	57.1570000648
1140.0	0.0005065	57.2030000687
1140.0	0.0005065	57.2349998951
1140.0	0.0005068	57.2820000648
1140.0	0.000507	57.3129999638
1140.0	0.000507	57.3599998951
1140.0	0.000507	57.4070000648
1140.0	0.000507	57.4379999638
1140.0	0.000507	57.4849998951
1140.0	0.0005075	57.5320000648
1140.0	0.0005075	57.5629999638
1140.0	0.0005078	57.6099998951
1140.0	0.0005078	57.6410000324
1140.0	0.0005075	57.6879999638
1140.0	0.0005078	57.7349998951
1140.0	0.000508	57.7660000324
1140.0	0.0005083	57.8129999638
1140.0	0.0005088	57.8599998951
1140.0	0.000509	57.8910000324
1140.0	0.000509	57.9379999638
1150.0	0.0005095	58.2030000687
1150.0	0.00051	58.25
1150.0	0.0005103	58.2820000648
1150.0	0.0005105	58.3280000687
1150.0	0.0005105	58.3599998951
1150.0	0.0005103	58.4070000648
1150.0	0.0005103	58.4530000687
1150.0	0.0005103	58.4849998951
1150.0	0.0005105	58.5320000648
1150.0	0.0005105	58.5780000687
1150.0	0.0005103	58.6099998951
1150.0	0.0005103	58.6570000648
1150.0	0.0005103	58.6879999638
1150.0	0.0005103	58.7349998951
1150.0	0.00051	58.7820000648
1150.0	0.0005093	58.8129999638
1150.0	0.000509	58.8599998951
1150.0	0.000509	58.9070000648
1150.0	0.000509	58.9379999638
1150.0	0.0005093	58.9849998951
1150.0	0.000509	59.0160000324
1150.0	0.000509	59.0629999638
1150.0	0.000509	59.1099998951
1150.0	0.0005088	59.1410000324
1150.0	0.0005083	59.1879999638
1150.0	0.000508	59.2349998951
1150.0	0.0005078	59.2660000324
1150.0	0.0005078	59.3129999638
1150.0	0.000508	59.3440001011
1150.0	0.0005083	59.3910000324
1150.0	0.0005083	59.4379999638
1150.0	0.0005083	59.4690001011
1150.0	0.000508	59.5160000324
1150.0	0.0005083	59.5629999638
1150.0	0.0005083	59.5940001011
1150.0	0.0005083	59.6410000324
1150.0	0.0005083	59.6879999638
1160.0	0.000508	59.9379999638
1160.0	0.000508	59.9849998951
1160.0	0.000508	60.0320000648
1160.0	0.0005078	60.0629999638
1160.0	0.0005078	60.1099998951
1160.0	0.0005075	60.1570000648
1160.0	0.000507	60.1879999638
1160.0	0.000507	60.2349998951
1160.0	0.000507	60.2660000324
1160.0	0.000507	60.3129999638
1160.0	0.0005075	60.3599998951
1160.0	0.0005075	60.3910000324
1160.0	0.0005075	60.4379999638
1160.0	0.0005078	60.4849998951
1160.0	0.0005075	60.5160000324
1160.0	0.0005078	60.5629999638
1160.0	0.0005078	60.5940001011
1160.0	0.000508	60.6410000324
1160.0	0.0005083	60.6879999638
1160.0	0.0005083	60.7190001011
1160.0	0.0005088	60.7660000324
1160.0	0.000509	60.8129999638
1160.0	0.000509	60.8440001011
1160.0	0.0005088	60.8910000324
1160.0	0.0005083	60.9219999313
1160.0	0.000508	60.9690001011
1160.0	0.0005078	61.0160000324
1160.0	0.0005075	61.0469999313
1160.0	0.0005075	61.0940001011
1160.0	0.0005075	61.1410000324
1160.0	0.0005078	61.1719999313
1160.0	0.000508	61.2190001011
1160.0	0.000508	61.25
1160.0	0.0005078	61.2969999313
1160.0	0.000508	61.3440001011
1160.0	0.000508	61.375
1160.0	0.000508	61.4219999313
1170.0	0.0005093	61.6879999638
1170.0	0.0005095	61.7190001011
1170.0	0.0005095	61.7660000324
1170.0	0.00051	61.7969999313
1170.0	0.0005103	61.8440001011
1170.0	0.0005108	61.8910000324
1170.0	0.0005113	61.9219999313
1170.0	0.0005105	61.9690001011
1170.0	0.0005103	62.0160000324
1170.0	0.0005103	62.0469999313
1170.0	0.0005103	62.0940001011
1170.0	0.0005103	62.125
1170.0	0.0005103	62.1719999313
1170.0	0.0005105	62.2190001011
1170.0	0.0005105	62.25
1170.0	0.0005108	62.2969999313
1170.0	0.0005105	62.3440001011
1170.0	0.0005105	62.375
1170.0	0.0005108	62.4219999313
1170.0	0.0005108	62.4690001011
1170.0	0.0005113	62.5
1170.0	0.0005113	62.5469999313
1170.0	0.0005118	62.5780000687
1170.0	0.0005118	62.625
1170.0	0.0005118	62.6719999313
1170.0	0.0005115	62.7190001011
1170.0	0.0005115	62.75
1170.0	0.0005115	62.7969999313
1170.0	0.0005115	62.8280000687
1170.0	0.0005115	62.875
1170.0	0.0005115	62.9219999313
1170.0	0.0005113	62.9530000687
1170.0	0.0005113	63.0
1170.0	0.0005113	63.0469999313
1170.0	0.0005113	63.0780000687
1170.0	0.0005113	63.125
1170.0	0.0005113	63.1570000648
1180.0	0.0005118	63.4219999313
1180.0	0.0005118	63.4690001011
1180.0	0.000512	63.5
1180.0	0.000512	63.5469999313
1180.0	0.000512	63.5940001011
1180.0	0.000512	63.625
1180.0	0.0005118	63.6719999313
1180.0	0.0005115	63.7030000687
1180.0	0.0005115	63.75
1180.0	0.0005115	63.7969999313
1180.0	0.0005115	63.8280000687
1180.0	0.0005118	63.875
1180.0	0.0005115	63.9219999313
1180.0	0.0005113	63.9530000687
1180.0	0.0005113	64.0
1180.0	0.0005108	64.0320000648
1180.0	0.0005105	64.0780000687
1180.0	0.0005105	64.125
1180.0	0.0005105	64.1570000648
1180.0	0.0005103	64.2030000687
1180.0	0.0005103	64.25
1180.0	0.00051	64.2969999313
1180.0	0.00051	64.3280000687
1180.0	0.0005103	64.375
1180.0	0.0005103	64.4219999313
1180.0	0.0005105	64.4530000687
1180.0	0.0005105	64.5
1180.0	0.0005103	64.5469999313
1180.0	0.00051	64.5780000687
1180.0	0.00051	64.625
1180.0	0.0005095	64.6570000648
1180.0	0.00051	64.7030000687
1180.0	0.00051	64.75
1180.0	0.00051	64.7969999313
1180.0	0.00051	64.8280000687
1180.0	0.0005103	64.875
1190.0	0.0005103	65.125
1190.0	0.0005105	65.1719999313
1190.0	0.0005108	65.2190001011
1190.0	0.0005113	65.25
1190.0	0.0005115	65.2969999313
1190.0	0.0005118	65.3440001011
1190.0	0.0005118	65.375
1190.0	0.0005118	65.4219999313
1190.0	0.0005118	65.4690001011
1190.0	0.0005118	65.5
1190.0	0.0005118	65.5469999313
1190.0	0.0005118	65.5940001011
1190.0	0.000512	65.625
1190.0	0.0005125	65.6719999313
1190.0	0.0005128	65.7030000687
1190.0	0.0005128	65.75
1190.0	0.000513	65.7969999313
1190.0	0.000513	65.8280000687
1190.0	0.000513	65.875
1190.0	0.000513	65.9219999313
1190.0	0.000513	65.9530000687
1190.0	0.000513	66.0
1190.0	0.0005133	66.0320000648
1190.0	0.0005138	66.0780000687
1190.0	0.0005133	66.125
1190.0	0.0005138	66.1570000648
1190.0	0.0005138	66.2030000687
1190.0	0.0005138	66.25
1190.0	0.0005138	66.2820000648
1190.0	0.0005138	66.3280000687
1190.0	0.0005138	66.3599998951
1190.0	0.0005138	66.4070000648
1190.0	0.0005138	66.4530000687
1190.0	0.0005138	66.4849998951
1190.0	0.0005138	66.5320000648
1190.0	0.0005138	66.5780000687
1190.0	0.0005138	66.625
1200.0	0.0005158	66.875
1200.0	0.0005165	66.9219999313
1200.0	0.0005168	66.9530000687
1200.0	0.000517	67.0
1200.0	0.0005178	67.0469999313
1200.0	0.000518	67.0780000687
1200.0	0.000518	67.125
1200.0	0.0005183	67.1570000648
1200.0	0.000519	67.2030000687
1200.0	0.0005193	67.25
1200.0	0.0005195	67.2820000648
1200.0	0.0005195	67.3280000687
1200.0	0.0005193	67.375
1200.0	0.0005193	67.4070000648
1200.0	0.0005193	67.4530000687
1200.0	0.0005193	67.5
1200.0	0.000519	67.5320000648
1200.0	0.000519	67.5780000687
1200.0	0.0005193	67.6099998951
1200.0	0.000519	67.6570000648
1200.0	0.0005188	67.7030000687
1200.0	0.0005188	67.7349998951
1200.0	0.0005183	67.7820000648
1200.0	0.000518	67.8280000687
1200.0	0.0005178	67.8599998951
1200.0	0.0005175	67.9070000648
1200.0	0.0005175	67.9379999638
1200.0	0.0005175	67.9849998951
1200.0	0.000517	68.0320000648
1200.0	0.000517	68.0629999638
1200.0	0.0005175	68.1099998951
1200.0	0.0005175	68.1570000648
1200.0	0.0005175	68.1879999638
1200.0	0.0005175	68.2349998951
1200.0	0.000517	68.2820000648
1200.0	0.000517	68.3129999638
1200.0	0.000517	68.3599998951
1210.0	0.0005188	68.625
1210.0	0.000519	68.6570000648
1210.0	0.0005193	68.7030000687
1210.0	0.00052	68.7349998951
1210.0	0.0005203	68.7820000648
1210.0	0.0005203	68.8280000687
1210.0	0.00052	68.8599998951
1210.0	0.00052	68.9070000648
1210.0	0.00052	68.9530000687
1210.0	0.0005203	68.9849998951
1210.0	0.0005205	69.0320000648
1210.0	0.0005205	69.0780000687
1210.0	0.0005208	69.1099998951
1210.0	0.0005208	69.1570000648
1210.0	0.0005213	69.1879999638
1210.0	0.0005213	69.2349998951
1210.0	0.0005213	69.2820000648
1210.0	0.0005213	69.3129999638
1210.0	0.0005208	69.3599998951
1210.0	0.0005203	69.3910000324
1210.0	0.00052	69.4379999638
1210.0	0.00052	69.4849998951
1210.0	0.0005205	69.5160000324
1210.0	0.0005205	69.5629999638
1210.0	0.0005208	69.6099998951
1210.0	0.0005213	69.6410000324
1210.0	0.0005213	69.6879999638
1210.0	0.0005213	69.7349998951
1210.0	0.0005215	69.7660000324
1210.0	0.0005215	69.8129999638
1210.0	0.0005213	69.8440001011
1210.0	0.0005213	69.8910000324
1210.0	0.0005208	69.9379999638
1210.0	0.0005208	69.9690001011
1210.0	0.0005215	70.0160000324
1210.0	0.0005215	70.0629999638
1210.0	0.0005218	70.0940001011
1220.0	0.0005258	70.3599998951
1220.0	0.0005268	70.4070000648
1220.0	0.000528	70.4530000687
1220.0	0.0005288	70.4849998951
1220.0	0.0005293	70.5320000648
1220.0	0.0005295	70.5629999638
1220.0	0.0005295	70.6099998951
1220.0	0.00053	70.6570000648
1220.0	0.0005303	70.6879999638
1220.0	0.0005305	70.7349998951
1220.0	0.0005308	70.7660000324
1220.0	0.0005313	70.8129999638
1220.0	0.0005313	70.8599998951
1220.0	0.0005313	70.8910000324
1220.0	0.0005313	70.9379999638
1220.0	0.0005313	70.9849998951
1220.0	0.0005305	71.0160000324
1220.0	0.0005305	71.0629999638
1220.0	0.0005303	71.1099998951
1220.0	0.0005303	71.1410000324
1220.0	0.0005305	71.1879999638
1220.0	0.0005305	71.2190001011
1220.0	0.0005305	71.2660000324
1220.0	0.0005305	71.3129999638
1220.0	0.0005308	71.3440001011
1220.0	0.0005313	71.3910000324
1220.0	0.0005315	71.4379999638
1220.0	0.0005318	71.4690001011
1220.0	0.0005315	71.5160000324
1220.0	0.0005318	71.5469999313
1220.0	0.000532	71.5940001011
1220.0	0.000532	71.6410000324
1220.0	0.0005318	71.6719999313
1220.0	0.0005318	71.7190001011
1220.0	0.0005318	71.7660000324
1220.0	0.0005318	71.7969999313
1220.0	0.0005315	71.8440001011
1230.0	0.0005338	72.1099998951
1230.0	0.0005345	72.1570000648
1230.0	0.0005353	72.2030000687
1230.0	0.0005365	72.2349998951
1230.0	0.0005368	72.2820000648
1230.0	0.0005375	72.3129999638
1230.0	0.0005375	72.3599998951
1230.0	0.0005378	72.4070000648
1230.0	0.000538	72.4530000687
1230.0	0.000538	72.4849998951
1230.0	0.0005383	72.5320000648
1230.0	0.000538	72.5629999638
1230.0	0.000538	72.6099998951
1230.0	0.0005378	72.6570000648
1230.0	0.0005378	72.6879999638
1230.0	0.0005375	72.7349998951
1230.0	0.0005375	72.7820000648
1230.0	0.0005375	72.8129999638
1230.0	0.0005375	72.8599998951
1230.0	0.000537	72.8910000324
1230.0	0.000537	72.9379999638
1230.0	0.000537	72.9849998951
1230.0	0.0005375	73.0160000324
1230.0	0.000537	73.0629999638
1230.0	0.000537	73.1099998951
1230.0	0.0005375	73.1410000324
1230.0	0.0005375	73.1879999638
1230.0	0.0005375	73.2190001011
1230.0	0.0005375	73.2660000324
1230.0	0.000537	73.3129999638
1230.0	0.0005375	73.3440001011
1230.0	0.0005375	73.3910000324
1230.0	0.000537	73.4379999638
1230.0	0.0005375	73.4690001011
1230.0	0.0005375	73.5160000324
1230.0	0.0005375	73.5469999313
1230.0	0.0005375	73.5940001011
1240.0	0.0005405	73.8599998951
1240.0	0.0005425	73.9070000648
1240.0	0.0005438	73.9530000687
1240.0	0.0005445	73.9849998951
1240.0	0.0005455	74.0320000648
1240.0	0.0005458	74.0780000687
1240.0	0.0005463	74.1099998951
1240.0	0.0005465	74.1570000648
1240.0	0.0005468	74.1879999638
1240.0	0.000547	74.2349998951
1240.0	0.0005475	74.2820000648
1240.0	0.0005475	74.3129999638
1240.0	0.0005478	74.3599998951
1240.0	0.0005478	74.4070000648
1240.0	0.000548	74.4379999638
1240.0	0.000548	74.4849998951
1240.0	0.0005483	74.5320000648
1240.0	0.0005488	74.5629999638
1240.0	0.000549	74.6099998951
1240.0	0.0005488	74.6410000324
1240.0	0.0005488	74.6879999638
1240.0	0.000549	74.7349998951
1240.0	0.0005493	74.7660000324
1240.0	0.0005495	74.8129999638
1240.0	0.0005495	74.8599998951
1240.0	0.00055	74.9070000648
1240.0	0.0005505	74.9379999638
1240.0	0.0005505	74.9849998951
1240.0	0.0005505	75.0320000648
1240.0	0.0005505	75.0780000687
1240.0	0.0005505	75.1099998951
1240.0	0.0005505	75.1570000648
1240.0	0.0005505	75.1879999638
1240.0	0.0005505	75.2349998951
1240.0	0.0005508	75.2820000648
1240.0	0.0005505	75.3129999638
1240.0	0.0005505	75.3599998951
1250.0	0.000555	75.625
1250.0	0.0005558	75.6719999313
1250.0	0.0005568	75.7030000687
1250.0	0.0005578	75.75
1250.0	0.0005588	75.7969999313
1250.0	0.0005593	75.8280000687
1250.0	0.00056	75.875
1250.0	0.0005605	75.9219999313
1250.0	0.0005605	75.9530000687
1250.0	0.0005608	76.0
1250.0	0.0005605	76.0469999313
1250.0	0.0005603	76.0780000687
1250.0	0.00056	76.125
1250.0	0.0005603	76.1570000648
1250.0	0.00056	76.2030000687
1250.0	0.0005595	76.25
1250.0	0.0005593	76.2820000648
1250.0	0.000559	76.3280000687
1250.0	0.000559	76.375
1250.0	0.0005588	76.4070000648
1250.0	0.0005588	76.4530000687
1250.0	0.0005588	76.4849998951
1250.0	0.0005588	76.5320000648
1250.0	0.000559	76.5780000687
1250.0	0.0005593	76.6099998951
1250.0	0.0005595	76.6570000648
1250.0	0.0005595	76.7030000687
1250.0	0.0005595	76.7349998951
1250.0	0.0005593	76.7820000648
1250.0	0.000559	76.8129999638
1250.0	0.0005593	76.8599998951
1250.0	0.0005593	76.9070000648
1250.0	0.0005593	76.9379999638
1250.0	0.0005593	76.9849998951
1250.0	0.000559	77.0320000648
1250.0	0.0005588	77.0629999638
1250.0	0.0005583	77.1099998951
1260.0	0.0005618	77.375
1260.0	0.0005633	77.4219999313
1260.0	0.0005643	77.4530000687
1260.0	0.0005655	77.5
1260.0	0.0005665	77.5469999313
1260.0	0.0005665	77.5780000687
1260.0	0.000567	77.625
1260.0	0.000567	77.6719999313
1260.0	0.000567	77.7030000687
1260.0	0.0005675	77.75
1260.0	0.0005675	77.7969999313
1260.0	0.0005678	77.8280000687
1260.0	0.0005678	77.875
1260.0	0.0005678	77.9219999313
1260.0	0.0005678	77.9530000687
1260.0	0.0005675	78.0
1260.0	0.000567	78.0469999313
1260.0	0.000567	78.0780000687
1260.0	0.000567	78.125
1260.0	0.000567	78.1570000648
1260.0	0.0005675	78.2030000687
1260.0	0.0005675	78.25
1260.0	0.0005678	78.2820000648
1260.0	0.000568	78.3280000687
1260.0	0.000568	78.375
1260.0	0.0005683	78.4070000648
1260.0	0.0005688	78.4530000687
1260.0	0.0005688	78.4849998951
1260.0	0.000569	78.5320000648
1260.0	0.000569	78.5780000687
1260.0	0.000569	78.6099998951
1260.0	0.000569	78.6570000648
1260.0	0.0005688	78.7030000687
1260.0	0.0005688	78.7349998951
1260.0	0.0005683	78.7820000648
1260.0	0.0005688	78.8129999638
1260.0	0.000569	78.8599998951
1270.0	0.000573	79.125
1270.0	0.0005743	79.1719999313
1270.0	0.0005755	79.2030000687
1270.0	0.0005758	79.25
1270.0	0.0005765	79.2969999313
1270.0	0.0005768	79.3280000687
1270.0	0.000577	79.375
1270.0	0.0005775	79.4219999313
1270.0	0.0005775	79.4530000687
1270.0	0.0005775	79.5
1270.0	0.0005775	79.5320000648
1270.0	0.0005778	79.5780000687
1270.0	0.000578	79.625
1270.0	0.0005783	79.6570000648
1270.0	0.0005788	79.7030000687
1270.0	0.0005788	79.75
1270.0	0.000579	79.7820000648
1270.0	0.0005788	79.8280000687
1270.0	0.0005788	79.875
1270.0	0.000579	79.9070000648
1270.0	0.0005793	79.9530000687
1270.0	0.0005793	79.9849998951
1270.0	0.0005793	80.0320000648
1270.0	0.0005795	80.0780000687
1270.0	0.0005795	80.1099998951
1270.0	0.0005795	80.1570000648
1270.0	0.0005793	80.2030000687
1270.0	0.0005793	80.2349998951
1270.0	0.000579	80.2820000648
1270.0	0.000579	80.3129999638
1270.0	0.0005793	80.3599998951
1270.0	0.000579	80.4070000648
1270.0	0.000579	80.4379999638
1270.0	0.0005788	80.4849998951
1270.0	0.0005788	80.5320000648
1270.0	0.000579	80.5629999638
1270.0	0.0005788	80.6099998951
1280.0	0.0005815	80.875
1280.0	0.000582	80.9219999313
1280.0	0.0005825	80.9530000687
1280.0	0.0005828	81.0
1280.0	0.0005828	81.0469999313
1280.0	0.000583	81.0940001011
1280.0	0.000583	81.125
1280.0	0.0005828	81.1719999313
1280.0	0.000583	81.2030000687
1280.0	0.000583	81.25
1280.0	0.000583	81.2969999313
1280.0	0.0005828	81.3280000687
1280.0	0.0005828	81.375
1280.0	0.000583	81.4219999313
1280.0	0.000583	81.4690001011
1280.0	0.0005828	81.5
1280.0	0.0005828	81.5469999313
1280.0	0.0005828	81.5780000687
1280.0	0.000583	81.625
1280.0	0.0005833	81.6719999313
1280.0	0.0005833	81.7030000687
1280.0	0.0005833	81.75
1280.0	0.000583	81.7969999313
1280.0	0.0005828	81.8280000687
1280.0	0.0005828	81.875
1280.0	0.0005828	81.9070000648
1280.0	0.0005825	81.9530000687
1280.0	0.0005828	82.0
1280.0	0.000583	82.0320000648
1280.0	0.000583	82.0780000687
1280.0	0.0005828	82.125
1280.0	0.000582	82.1570000648
1280.0	0.000582	82.2030000687
1280.0	0.000582	82.2349998951
1280.0	0.0005818	82.2820000648
1280.0	0.0005818	82.3280000687
1290.0	0.000583	82.5940001011
1290.0	0.0005833	82.625
1290.0	0.0005838	82.6719999313
1290.0	0.000584	82.7190001011
1290.0	0.000584	82.75
1290.0	0.0005843	82.7969999313
1290.0	0.0005843	82.8440001011
1290.0	0.0005843	82.875
1290.0	0.0005845	82.9219999313
1290.0	0.0005845	82.9530000687
1290.0	0.000585	83.0
1290.0	0.000585	83.0469999313
1290.0	0.0005853	83.0780000687
1290.0	0.0005855	83.125
1290.0	0.0005855	83.1719999313
1290.0	0.0005853	83.2030000687
1290.0	0.0005853	83.25
1290.0	0.0005853	83.2820000648
1290.0	0.0005855	83.3280000687
1290.0	0.0005855	83.375
1290.0	0.0005855	83.4070000648
1290.0	0.0005855	83.4530000687
1290.0	0.0005855	83.5
1290.0	0.0005855	83.5320000648
1290.0	0.0005863	83.5780000687
1290.0	0.0005863	83.6099998951
1290.0	0.0005858	83.6570000648
1290.0	0.0005863	83.7030000687
1290.0	0.0005858	83.7349998951
1290.0	0.0005863	83.7820000648
1290.0	0.0005863	83.8280000687
1290.0	0.0005865	83.8599998951
1290.0	0.0005865	83.9070000648
1290.0	0.0005865	83.9530000687
1290.0	0.0005865	83.9849998951
1290.0	0.0005868	84.0320000648
1290.0	0.0005868	84.0629999638
1300.0	0.0005863	84.3280000687
1300.0	0.0005858	84.375
1300.0	0.0005855	84.4219999313
1300.0	0.0005855	84.4530000687
1300.0	0.0005855	84.5
1300.0	0.000585	84.5320000648
1300.0	0.0005845	84.5780000687
1300.0	0.0005845	84.625
1300.0	0.0005845	84.6570000648
1300.0	0.0005845	84.7030000687
1300.0	0.000584	84.75
1300.0	0.0005838	84.7820000648
1300.0	0.0005838	84.8280000687
1300.0	0.0005833	84.8599998951
1300.0	0.0005833	84.9070000648
1300.0	0.000583	84.9530000687
1300.0	0.000583	84.9849998951
1300.0	0.000583	85.0320000648
1300.0	0.000583	85.0780000687
1300.0	0.000583	85.1099998951
1300.0	0.000583	85.1570000648
1300.0	0.000583	85.1879999638
1300.0	0.0005833	85.2349998951
1300.0	0.0005833	85.2820000648
1300.0	0.000583	85.3280000687
1300.0	0.0005833	85.3599998951
1300.0	0.0005833	85.4070000648
1300.0	0.0005833	85.4530000687
1300.0	0.0005838	85.4849998951
1300.0	0.0005838	85.5320000648
1300.0	0.0005838	85.5629999638
1300.0	0.0005833	85.6099998951
1300.0	0.0005833	85.6570000648
1300.0	0.0005833	85.6879999638
1300.0	0.000583	85.7349998951
1300.0	0.0005825	85.7820000648
1310.0	0.0005793	86.0320000648
1310.0	0.000578	86.0780000687
1310.0	0.000577	86.125
1310.0	0.0005765	86.1570000648
1310.0	0.0005758	86.2030000687
1310.0	0.0005753	86.25
1310.0	0.000575	86.2820000648
1310.0	0.0005745	86.3280000687
1310.0	0.0005743	86.3599998951
1310.0	0.0005743	86.4070000648
1310.0	0.0005743	86.4530000687
1310.0	0.0005743	86.4849998951
1310.0	0.0005743	86.5320000648
1310.0	0.0005745	86.5780000687
1310.0	0.000575	86.6099998951
1310.0	0.0005753	86.6570000648
1310.0	0.000575	86.6879999638
1310.0	0.0005745	86.7349998951
1310.0	0.0005745	86.7820000648
1310.0	0.0005743	86.8129999638
1310.0	0.0005745	86.8599998951
1310.0	0.0005743	86.9070000648
1310.0	0.0005745	86.9379999638
1310.0	0.000575	86.9849998951
1310.0	0.0005753	87.0160000324
1310.0	0.0005753	87.0629999638
1310.0	0.0005755	87.1099998951
1310.0	0.0005755	87.1410000324
1310.0	0.0005758	87.1879999638
1310.0	0.0005755	87.2349998951
1310.0	0.0005753	87.2660000324
1310.0	0.0005755	87.3129999638
1310.0	0.0005763	87.3440001011
1310.0	0.0005763	87.3910000324
1310.0	0.0005763	87.4379999638
1310.0	0.0005765	87.4690001011
1310.0	0.0005765	87.5160000324
1320.0	0.0005725	87.7820000648
1320.0	0.0005708	87.8129999638
1320.0	0.0005695	87.8599998951
1320.0	0.0005688	87.9070000648
1320.0	0.0005675	87.9379999638
1320.0	0.000567	87.9849998951
1320.0	0.0005668	88.0320000648
1320.0	0.0005665	88.0629999638
1320.0	0.0005663	88.1099998951
1320.0	0.0005658	88.1410000324
1320.0	0.0005655	88.1879999638
1320.0	0.0005653	88.2349998951
1320.0	0.0005653	88.2660000324
1320.0	0.0005653	88.3129999638
1320.0	0.000565	88.3599998951
1320.0	0.0005645	88.3910000324
1320.0	0.0005645	88.4379999638
1320.0	0.0005645	88.4690001011
1320.0	0.0005645	88.5160000324
1320.0	0.0005645	88.5629999638
1320.0	0.0005643	88.5940001011
1320.0	0.0005645	88.6410000324
1320.0	0.0005643	88.6879999638
1320.0	0.0005643	88.7190001011
1320.0	0.000564	88.7660000324
1320.0	0.000564	88.8129999638
1320.0	0.0005633	88.8440001011
1320.0	0.000563	88.8910000324
1320.0	0.000563	88.9379999638
1320.0	0.000563	88.9690001011
1320.0	0.000563	89.0160000324
1320.0	0.0005628	89.0629999638
1320.0	0.0005625	89.0940001011
1320.0	0.0005618	89.1410000324
1320.0	0.0005618	89.1719999313
1320.0	0.0005618	89.2190001011
1320.0	0.0005615	89.2660000324
1330.0	0.0005558	89.5320000648
1330.0	0.000553	89.5629999638
1330.0	0.0005513	89.6099998951
1330.0	0.00055	89.6410000324
1330.0	0.0005488	89.6879999638
1330.0	0.0005478	89.7349998951
1330.0	0.0005468	89.7660000324
1330.0	0.0005463	89.8129999638
1330.0	0.0005455	89.8440001011
1330.0	0.0005455	89.8910000324
1330.0	0.000545	89.9379999638
1330.0	0.0005445	89.9690001011
1330.0	0.000545	90.0160000324
1330.0	0.0005445	90.0629999638
1330.0	0.000545	90.0940001011
1330.0	0.000545	90.1410000324
1330.0	0.0005453	90.1879999638
1330.0	0.0005453	90.2190001011
1330.0	0.000545	90.2660000324
1330.0	0.000545	90.2969999313
1330.0	0.000545	90.3440001011
1330.0	0.0005453	90.3910000324
1330.0	0.0005453	90.4219999313
1330.0	0.0005453	90.4690001011
1330.0	0.000545	90.5160000324
1330.0	0.0005453	90.5469999313
1330.0	0.0005453	90.5940001011
1330.0	0.0005453	90.625
1330.0	0.0005455	90.6719999313
1330.0	0.0005458	90.7190001011
1330.0	0.0005463	90.75
1330.0	0.0005463	90.7969999313
1330.0	0.0005463	90.8440001011
1330.0	0.0005463	90.8910000324
1330.0	0.0005465	90.9219999313
1330.0	0.0005465	90.9690001011
1330.0	0.0005468	91.0
1340.0	0.0005403	91.2660000324
1340.0	0.0005375	91.3129999638
1340.0	0.000535	91.3440001011
1340.0	0.000533	91.3910000324
1340.0	0.0005318	91.4379999638
1340.0	0.0005305	91.4690001011
1340.0	0.0005293	91.5160000324
1340.0	0.000529	91.5629999638
1340.0	0.0005283	91.5940001011
1340.0	0.0005278	91.6410000324
1340.0	0.0005275	91.6719999313
1340.0	0.000527	91.7190001011
1340.0	0.000527	91.7660000324
1340.0	0.000527	91.7969999313
1340.0	0.000527	91.8440001011
1340.0	0.0005275	91.8910000324
1340.0	0.000527	91.9219999313
1340.0	0.000527	91.9690001011
1340.0	0.0005275	92.0160000324
1340.0	0.0005275	92.0469999313
1340.0	0.0005275	92.0940001011
1340.0	0.0005275	92.125
1340.0	0.000527	92.1719999313
1340.0	0.0005268	92.2190001011
1340.0	0.0005265	92.25
1340.0	0.0005265	92.2969999313
1340.0	0.0005268	92.3440001011
1340.0	0.0005268	92.375
1340.0	0.0005268	92.4219999313
1340.0	0.0005268	92.4530000687
1340.0	0.0005265	92.5
1340.0	0.0005263	92.5469999313
1340.0	0.0005258	92.5780000687
1340.0	0.0005255	92.625
1340.0	0.0005253	92.6719999313
1340.0	0.0005253	92.7030000687
1340.0	0.0005245	92.75
1350.0	0.0005163	93.0
1350.0	0.0005128	93.0469999313
1350.0	0.00051	93.0940001011
1350.0	0.0005078	93.125
1350.0	0.0005058	93.1719999313
1350.0	0.0005045	93.2190001011
1350.0	0.0005038	93.25
1350.0	0.000503	93.2969999313
1350.0	0.0005025	93.3280000687
1350.0	0.000502	93.375
1350.0	0.0005018	93.4219999313
1350.0	0.0005015	93.4530000687
1350.0	0.0005013	93.5
1350.0	0.0005008	93.5469999313
1350.0	0.0005013	93.5780000687
1350.0	0.0005013	93.625
1350.0	0.0005013	93.6570000648
1350.0	0.0005008	93.7030000687
1350.0	0.0005005	93.75
1350.0	0.0005008	93.7820000648
1350.0	0.0005013	93.8280000687
1350.0	0.0005013	93.875
1350.0	0.0005013	93.9219999313
1350.0	0.0005008	93.9530000687
1350.0	0.0005005	94.0
1350.0	0.0005005	94.0320000648
1350.0	0.0005005	94.0780000687
1350.0	0.0005013	94.125
1350.0	0.0005013	94.1570000648
1350.0	0.0005013	94.2030000687
1350.0	0.0005015	94.25
1350.0	0.0005018	94.2820000648
1350.0	0.0005018	94.3280000687
1350.0	0.000502	94.3599998951
1350.0	0.0005025	94.4070000648
1350.0	0.000502	94.4530000687
1350.0	0.000502	94.4849998951
1360.0	0.0004933	94.75
1360.0	0.0004903	94.7969999313
1360.0	0.0004878	94.8280000687
1360.0	0.0004858	94.875
1360.0	0.0004843	94.9219999313
1360.0	0.0004828	94.9530000687
1360.0	0.000482	95.0
1360.0	0.0004818	95.0469999313
1360.0	0.0004813	95.0780000687
1360.0	0.0004805	95.125
1360.0	0.0004805	95.1570000648
1360.0	0.0004803	95.2030000687
1360.0	0.00048	95.25
1360.0	0.00048	95.2820000648
1360.0	0.0004795	95.3280000687
1360.0	0.0004795	95.375
1360.0	0.0004795	95.4070000648
1360.0	0.0004793	95.4530000687
1360.0	0.0004793	95.4849998951
1360.0	0.0004793	95.5320000648
1360.0	0.0004793	95.5780000687
1360.0	0.00048	95.6099998951
1360.0	0.00048	95.6570000648
1360.0	0.0004803	95.7030000687
1360.0	0.0004803	95.7349998951
1360.0	0.0004803	95.7820000648
1360.0	0.00048	95.8280000687
1360.0	0.0004803	95.8599998951
1360.0	0.0004805	95.9070000648
1360.0	0.0004805	95.9379999638
1360.0	0.0004805	95.9849998951
1360.0	0.0004803	96.0320000648
1360.0	0.00048	96.0629999638
1360.0	0.0004793	96.1099998951
1360.0	0.000479	96.1410000324
1360.0	0.000479	96.1879999638
1360.0	0.0004793	96.2349998951
1370.0	0.0004713	96.5
1370.0	0.000468	96.5320000648
1370.0	0.000465	96.5780000687
1370.0	0.000463	96.6099998951
1370.0	0.0004613	96.6570000648
1370.0	0.0004595	96.7030000687
1370.0	0.0004583	96.7349998951
1370.0	0.0004575	96.7820000648
1370.0	0.0004563	96.8280000687
1370.0	0.0004555	96.8599998951
1370.0	0.0004553	96.9070000648
1370.0	0.000455	96.9530000687
1370.0	0.0004545	96.9849998951
1370.0	0.0004543	97.0320000648
1370.0	0.0004543	97.0629999638
1370.0	0.0004543	97.1099998951
1370.0	0.0004543	97.1570000648
1370.0	0.000454	97.2030000687
1370.0	0.0004533	97.2349998951
1370.0	0.0004533	97.2820000648
1370.0	0.0004533	97.3129999638
1370.0	0.0004533	97.3599998951
1370.0	0.0004533	97.4070000648
1370.0	0.0004533	97.4530000687
1370.0	0.000453	97.4849998951
1370.0	0.000453	97.5320000648
1370.0	0.000453	97.5629999638
1370.0	0.0004528	97.6099998951
1370.0	0.0004528	97.6570000648
1370.0	0.0004528	97.6879999638
1370.0	0.0004528	97.7349998951
1370.0	0.0004525	97.7820000648
1370.0	0.0004525	97.8129999638
1370.0	0.0004525	97.8599998951
1370.0	0.0004525	97.8910000324
1370.0	0.0004528	97.9379999638
1370.0	0.0004528	97.9849998951
1380.0	0.0004445	98.25
1380.0	0.0004413	98.2820000648
1380.0	0.0004388	98.3280000687
1380.0	0.0004368	98.3599998951
1380.0	0.000435	98.4070000648
1380.0	0.0004338	98.4530000687
1380.0	0.000433	98.4849998951
1380.0	0.0004325	98.5320000648
1380.0	0.000432	98.5780000687
1380.0	0.0004318	98.6099998951
1380.0	0.0004315	98.6570000648
1380.0	0.0004315	98.6879999638
1380.0	0.0004315	98.7349998951
1380.0	0.0004313	98.7820000648
1380.0	0.0004308	98.8129999638
1380.0	0.0004305	98.8599998951
1380.0	0.00043	98.9070000648
1380.0	0.00043	98.9379999638
1380.0	0.0004295	98.9849998951
1380.0	0.0004293	99.0160000324
1380.0	0.0004295	99.0629999638
1380.0	0.0004303	99.1099998951
1380.0	0.0004303	99.1410000324
1380.0	0.00043	99.1879999638
1380.0	0.00043	99.2349998951
1380.0	0.0004303	99.2660000324
1380.0	0.0004303	99.3129999638
1380.0	0.00043	99.3599998951
1380.0	0.00043	99.3910000324
1380.0	0.0004303	99.4379999638
1380.0	0.0004305	99.4690001011
1380.0	0.0004305	99.5160000324
1380.0	0.0004305	99.5629999638
1380.0	0.0004303	99.5940001011
1380.0	0.0004303	99.6410000324
1380.0	0.0004305	99.6879999638
1380.0	0.0004305	99.7190001011
1390.0	0.000424	99.9849998951
1390.0	0.0004213	100.032000065
1390.0	0.0004188	100.078000069
1390.0	0.0004165	100.109999895
1390.0	0.000415	100.157000065
1390.0	0.0004143	100.187999964
1390.0	0.0004133	100.234999895
1390.0	0.0004128	100.282000065
1390.0	0.000412	100.312999964
1390.0	0.0004118	100.359999895
1390.0	0.0004118	100.407000065
1390.0	0.0004118	100.437999964
1390.0	0.0004118	100.484999895
1390.0	0.0004115	100.516000032
1390.0	0.0004115	100.562999964
1390.0	0.0004115	100.609999895
1390.0	0.0004118	100.641000032
1390.0	0.0004115	100.687999964
1390.0	0.0004115	100.734999895
1390.0	0.0004115	100.766000032
1390.0	0.0004118	100.812999964
1390.0	0.0004118	100.844000101
1390.0	0.0004118	100.891000032
1390.0	0.0004115	100.937999964
1390.0	0.0004118	100.969000101
1390.0	0.0004118	101.016000032
1390.0	0.0004118	101.062999964
1390.0	0.000412	101.094000101
1390.0	0.0004118	101.141000032
1390.0	0.0004118	101.171999931
1390.0	0.000412	101.219000101
1390.0	0.000412	101.266000032
1390.0	0.000412	101.296999931
1390.0	0.000412	101.344000101
1390.0	0.000412	101.391000032
1390.0	0.0004118	101.421999931
1390.0	0.0004118	101.469000101
1400.0	0.0004053	101.734999895
1400.0	0.000403	101.782000065
1400.0	0.0004013	101.812999964
1400.0	0.0003993	101.859999895
1400.0	0.000398	101.891000032
1400.0	0.0003968	101.937999964
1400.0	0.0003965	101.984999895
1400.0	0.0003963	102.016000032
1400.0	0.0003963	102.062999964
1400.0	0.0003963	102.109999895
1400.0	0.0003958	102.141000032
1400.0	0.0003955	102.187999964
1400.0	0.0003955	102.234999895
1400.0	0.0003955	102.266000032
1400.0	0.0003955	102.312999964
1400.0	0.0003955	102.344000101
1400.0	0.0003953	102.391000032
1400.0	0.0003953	102.437999964
1400.0	0.0003953	102.469000101
1400.0	0.000395	102.516000032
1400.0	0.000395	102.562999964
1400.0	0.000395	102.594000101
1400.0	0.000395	102.641000032
1400.0	0.0003953	102.671999931
1400.0	0.0003953	102.719000101
1400.0	0.0003953	102.766000032
1400.0	0.000395	102.796999931
1400.0	0.000395	102.844000101
1400.0	0.000395	102.891000032
1400.0	0.000395	102.921999931
1400.0	0.0003955	102.969000101
1400.0	0.0003955	103.016000032
1400.0	0.0003955	103.046999931
1400.0	0.000395	103.094000101
1400.0	0.0003945	103.141000032
1400.0	0.0003943	103.171999931
1400.0	0.0003943	103.219000101
1410.0	0.000388	103.484999895
1410.0	0.0003863	103.516000032
1410.0	0.0003845	103.562999964
1410.0	0.0003833	103.609999895
1410.0	0.0003825	103.641000032
1410.0	0.0003818	103.687999964
1410.0	0.0003813	103.719000101
1410.0	0.0003805	103.766000032
1410.0	0.0003803	103.812999964
1410.0	0.00038	103.844000101
1410.0	0.00038	103.891000032
1410.0	0.0003795	103.937999964
1410.0	0.0003793	103.969000101
1410.0	0.000379	104.016000032
1410.0	0.000379	104.046999931
1410.0	0.000379	104.094000101
1410.0	0.000379	104.141000032
1410.0	0.000379	104.171999931
1410.0	0.0003793	104.219000101
1410.0	0.0003793	104.266000032
1410.0	0.000379	104.296999931
1410.0	0.000379	104.344000101
1410.0	0.0003793	104.391000032
1410.0	0.0003793	104.421999931
1410.0	0.0003795	104.469000101
1410.0	0.00038	104.5
1410.0	0.0003793	104.546999931
1410.0	0.0003793	104.594000101
1410.0	0.000379	104.625
1410.0	0.0003788	104.671999931
1410.0	0.0003788	104.719000101
1410.0	0.0003783	104.75
1410.0	0.0003783	104.796999931
1410.0	0.0003783	104.828000069
1410.0	0.000378	104.875
1410.0	0.000378	104.921999931
1410.0	0.0003778	104.953000069
1420.0	0.000374	105.219000101
1420.0	0.0003728	105.266000032
1420.0	0.0003715	105.312999964
1420.0	0.0003705	105.344000101
1420.0	0.00037	105.391000032
1420.0	0.0003693	105.437999964
1420.0	0.000369	105.469000101
1420.0	0.0003683	105.516000032
1420.0	0.000368	105.562999964
1420.0	0.000368	105.594000101
1420.0	0.0003678	105.641000032
1420.0	0.000368	105.687999964
1420.0	0.000368	105.719000101
1420.0	0.000368	105.766000032
1420.0	0.000368	105.812999964
1420.0	0.000368	105.844000101
1420.0	0.000368	105.891000032
1420.0	0.0003678	105.937999964
1420.0	0.0003675	105.969000101
1420.0	0.0003675	106.016000032
1420.0	0.0003675	106.062999964
1420.0	0.0003675	106.094000101
1420.0	0.0003678	106.141000032
1420.0	0.0003678	106.171999931
1420.0	0.000368	106.219000101
1420.0	0.000368	106.266000032
1420.0	0.000368	106.296999931
1420.0	0.0003675	106.344000101
1420.0	0.0003678	106.391000032
1420.0	0.0003678	106.421999931
1420.0	0.0003678	106.469000101
1420.0	0.000368	106.5
1420.0	0.0003678	106.546999931
1420.0	0.0003678	106.594000101
1420.0	0.0003678	106.625
1420.0	0.0003675	106.671999931
1420.0	0.0003675	106.719000101
1430.0	0.0003655	106.984999895
1430.0	0.000365	107.016000032
1430.0	0.0003643	107.062999964
1430.0	0.0003643	107.109999895
1430.0	0.000364	107.141000032
1430.0	0.0003638	107.187999964
1430.0	0.0003638	107.219000101
1430.0	0.0003633	107.266000032
1430.0	0.0003633	107.312999964
1430.0	0.0003633	107.344000101
1430.0	0.0003633	107.391000032
1430.0	0.0003633	107.437999964
1430.0	0.0003633	107.469000101
1430.0	0.0003633	107.516000032
1430.0	0.0003633	107.546999931
1430.0	0.0003633	107.594000101
1430.0	0.0003638	107.641000032
1430.0	0.0003638	107.671999931
1430.0	0.0003638	107.719000101
1430.0	0.0003638	107.766000032
1430.0	0.0003633	107.796999931
1430.0	0.0003633	107.844000101
1430.0	0.0003633	107.891000032
1430.0	0.0003633	107.921999931
1430.0	0.0003638	107.969000101
1430.0	0.0003638	108.0
1430.0	0.0003633	108.046999931
1430.0	0.000363	108.094000101
1430.0	0.0003633	108.125
1430.0	0.0003633	108.171999931
1430.0	0.0003633	108.219000101
1430.0	0.0003633	108.25
1430.0	0.0003633	108.296999931
1430.0	0.0003633	108.328000069
1430.0	0.0003633	108.375
1430.0	0.000363	108.421999931
1430.0	0.0003633	108.453000069
1440.0	0.000363	108.719000101
1440.0	0.000363	108.766000032
1440.0	0.0003628	108.812999964
1440.0	0.0003628	108.844000101
1440.0	0.0003625	108.891000032
1440.0	0.0003625	108.937999964
1440.0	0.0003625	108.969000101
1440.0	0.0003628	109.016000032
1440.0	0.0003628	109.046999931
1440.0	0.000363	109.094000101
1440.0	0.000363	109.141000032
1440.0	0.0003633	109.171999931
1440.0	0.0003633	109.219000101
1440.0	0.000363	109.266000032
1440.0	0.0003628	109.296999931
1440.0	0.000363	109.344000101
1440.0	0.0003633	109.375
1440.0	0.0003633	109.421999931
1440.0	0.000363	109.469000101
1440.0	0.000363	109.5
1440.0	0.000363	109.546999931
1440.0	0.000363	109.594000101
1440.0	0.000363	109.625
1440.0	0.000363	109.671999931
1440.0	0.000363	109.703000069
1440.0	0.000363	109.75
1440.0	0.0003628	109.796999931
1440.0	0.0003625	109.828000069
1440.0	0.0003625	109.875
1440.0	0.0003625	109.921999931
1440.0	0.0003625	109.953000069
1440.0	0.000362	110.0
1440.0	0.000362	110.046999931
1440.0	0.0003625	110.078000069
1440.0	0.0003628	110.125
1440.0	0.0003628	110.157000065
1440.0	0.0003628	110.203000069
1450.0	0.000363	110.469000101
1450.0	0.0003633	110.516000032
1450.0	0.0003643	110.562999964
1450.0	0.0003643	110.594000101
1450.0	0.0003645	110.641000032
1450.0	0.0003645	110.687999964
1450.0	0.0003645	110.719000101
1450.0	0.0003643	110.766000032
1450.0	0.0003643	110.796999931
1450.0	0.0003643	110.844000101
1450.0	0.0003643	110.891000032
1450.0	0.0003643	110.921999931
1450.0	0.000364	110.969000101
1450.0	0.0003643	111.016000032
1450.0	0.0003643	111.046999931
1450.0	0.0003643	111.094000101
1450.0	0.0003643	111.125
1450.0	0.0003643	111.171999931
1450.0	0.000364	111.219000101
1450.0	0.0003638	111.266000032
1450.0	0.0003633	111.296999931
1450.0	0.000363	111.344000101
1450.0	0.000363	111.391000032
1450.0	0.000363	111.421999931
1450.0	0.000363	111.469000101
1450.0	0.0003628	111.516000032
1450.0	0.000363	111.546999931
1450.0	0.000363	111.594000101
1450.0	0.0003628	111.641000032
1450.0	0.000363	111.671999931
1450.0	0.0003633	111.719000101
1450.0	0.000363	111.766000032
1450.0	0.0003633	111.796999931
1450.0	0.000363	111.844000101
1450.0	0.000363	111.891000032
1450.0	0.000363	111.921999931
1460.0	0.0003645	112.187999964
1460.0	0.0003653	112.234999895
1460.0	0.0003655	112.282000065
1460.0	0.0003663	112.312999964
1460.0	0.0003668	112.359999895
1460.0	0.000367	112.391000032
1460.0	0.0003675	112.437999964
1460.0	0.0003675	112.484999895
1460.0	0.0003675	112.516000032
1460.0	0.0003678	112.562999964
1460.0	0.0003678	112.609999895
1460.0	0.0003678	112.641000032
1460.0	0.0003678	112.687999964
1460.0	0.0003678	112.719000101
1460.0	0.000368	112.766000032
1460.0	0.0003678	112.812999964
1460.0	0.0003675	112.844000101
1460.0	0.0003675	112.891000032
1460.0	0.000367	112.937999964
1460.0	0.000367	112.969000101
1460.0	0.0003675	113.016000032
1460.0	0.0003675	113.046999931
1460.0	0.0003675	113.094000101
1460.0	0.0003675	113.141000032
1460.0	0.000367	113.171999931
1460.0	0.000367	113.219000101
1460.0	0.000367	113.266000032
1460.0	0.000367	113.296999931
1460.0	0.000367	113.344000101
1460.0	0.000367	113.375
1460.0	0.0003675	113.421999931
1460.0	0.0003678	113.469000101
1460.0	0.0003678	113.5
1460.0	0.0003675	113.546999931
1460.0	0.0003675	113.594000101
1460.0	0.0003675	113.625
1460.0	0.0003675	113.671999931
1470.0	0.0003705	113.937999964
1470.0	0.0003715	113.984999895
1470.0	0.000372	114.016000032
1470.0	0.000373	114.062999964
1470.0	0.0003733	114.094000101
1470.0	0.0003738	114.141000032
1470.0	0.0003743	114.187999964
1470.0	0.0003745	114.219000101
1470.0	0.000375	114.266000032
1470.0	0.000375	114.312999964
1470.0	0.0003753	114.344000101
1470.0	0.000375	114.391000032
1470.0	0.0003745	114.437999964
1470.0	0.000375	114.469000101
1470.0	0.0003753	114.516000032
1470.0	0.0003753	114.546999931
1470.0	0.0003755	114.594000101
1470.0	0.0003755	114.641000032
1470.0	0.0003755	114.671999931
1470.0	0.0003755	114.719000101
1470.0	0.000375	114.766000032
1470.0	0.000375	114.796999931
1470.0	0.0003753	114.844000101
1470.0	0.0003753	114.891000032
1470.0	0.0003755	114.921999931
1470.0	0.0003763	114.969000101
1470.0	0.0003765	115.016000032
1470.0	0.0003765	115.046999931
1470.0	0.0003765	115.094000101
1470.0	0.0003763	115.125
1470.0	0.0003755	115.171999931
1470.0	0.0003755	115.219000101
1470.0	0.0003758	115.25
1470.0	0.0003758	115.296999931
1470.0	0.0003758	115.344000101
1470.0	0.0003765	115.375
1470.0	0.0003765	115.421999931
1480.0	0.000378	115.687999964
1480.0	0.0003793	115.734999895
1480.0	0.00038	115.766000032
1480.0	0.0003805	115.812999964
1480.0	0.0003815	115.844000101
1480.0	0.0003818	115.891000032
1480.0	0.000382	115.937999964
1480.0	0.0003825	115.969000101
1480.0	0.0003825	116.016000032
1480.0	0.0003828	116.062999964
1480.0	0.0003828	116.094000101
1480.0	0.0003828	116.141000032
1480.0	0.0003828	116.171999931
1480.0	0.000383	116.219000101
1480.0	0.000383	116.266000032
1480.0	0.000383	116.296999931
1480.0	0.0003833	116.344000101
1480.0	0.0003833	116.391000032
1480.0	0.0003838	116.421999931
1480.0	0.0003833	116.469000101
1480.0	0.0003838	116.516000032
1480.0	0.0003833	116.546999931
1480.0	0.000383	116.594000101
1480.0	0.0003828	116.625
1480.0	0.0003825	116.671999931
1480.0	0.000382	116.719000101
1480.0	0.000382	116.75
1480.0	0.000382	116.796999931
1480.0	0.0003825	116.844000101
1480.0	0.000382	116.875
1480.0	0.000382	116.921999931
1480.0	0.0003825	116.953000069
1480.0	0.0003828	117.0
1480.0	0.0003828	117.046999931
1480.0	0.0003828	117.078000069
1480.0	0.0003828	117.125
1480.0	0.0003828	117.171999931
1490.0	0.0003853	117.437999964
1490.0	0.0003858	117.484999895
1490.0	0.0003865	117.516000032
1490.0	0.0003865	117.562999964
1490.0	0.0003868	117.594000101
1490.0	0.0003865	117.641000032
1490.0	0.0003865	117.687999964
1490.0	0.000387	117.719000101
1490.0	0.0003875	117.766000032
1490.0	0.0003875	117.812999964
1490.0	0.000388	117.844000101
1490.0	0.0003878	117.891000032
1490.0	0.000388	117.921999931
1490.0	0.000388	117.969000101
1490.0	0.000388	118.016000032
1490.0	0.000388	118.046999931
1490.0	0.000388	118.094000101
1490.0	0.000388	118.141000032
1490.0	0.0003878	118.171999931
1490.0	0.0003875	118.219000101
1490.0	0.0003878	118.25
1490.0	0.000388	118.296999931
1490.0	0.000388	118.344000101
1490.0	0.0003883	118.375
1490.0	0.0003888	118.421999931
1490.0	0.0003888	118.469000101
1490.0	0.0003888	118.5
1490.0	0.0003883	118.546999931
1490.0	0.000388	118.578000069
1490.0	0.000388	118.625
1490.0	0.0003888	118.671999931
1490.0	0.0003888	118.703000069
1490.0	0.0003888	118.75
1490.0	0.0003888	118.796999931
1490.0	0.000389	118.828000069
1490.0	0.000389	118.875
1490.0	0.0003888	118.921999931
1500.0	0.00039	119.187999964
1500.0	0.0003905	119.234999895
1500.0	0.0003913	119.266000032
1500.0	0.0003913	119.312999964
1500.0	0.0003915	119.359999895
1500.0	0.0003918	119.391000032
1500.0	0.0003918	119.437999964
1500.0	0.0003918	119.484999895
1500.0	0.000392	119.516000032
1500.0	0.0003925	119.562999964
1500.0	0.0003928	119.594000101
1500.0	0.0003928	119.641000032
1500.0	0.0003928	119.687999964
1500.0	0.0003925	119.719000101
1500.0	0.0003925	119.766000032
1500.0	0.0003925	119.812999964
1500.0	0.0003928	119.844000101
1500.0	0.0003928	119.891000032
1500.0	0.0003928	119.921999931
1500.0	0.000393	119.969000101
1500.0	0.000393	120.016000032
1500.0	0.000393	120.046999931
1500.0	0.000393	120.094000101
1500.0	0.000393	120.141000032
1500.0	0.000393	120.171999931
1500.0	0.000393	120.219000101
1500.0	0.0003928	120.266000032
1500.0	0.0003928	120.296999931
1500.0	0.0003928	120.344000101
1500.0	0.0003928	120.375
1500.0	0.0003925	120.421999931
1500.0	0.0003928	120.469000101
1500.0	0.000393	120.5
1500.0	0.000393	120.546999931
1500.0	0.000393	120.594000101
1500.0	0.000393	120.625
1500.0	0.0003928	120.671999931
1510.0	0.0003943	120.937999964
1510.0	0.0003945	120.984999895
1510.0	0.0003953	121.032000065
1510.0	0.0003955	121.062999964
1510.0	0.0003958	121.109999895
1510.0	0.0003955	121.157000065
1510.0	0.0003955	121.187999964
1510.0	0.0003955	121.234999895
1510.0	0.0003958	121.266000032
1510.0	0.0003958	121.312999964
1510.0	0.0003963	121.359999895
1510.0	0.0003963	121.391000032
1510.0	0.0003965	121.437999964
1510.0	0.0003963	121.484999895
1510.0	0.0003963	121.516000032
1510.0	0.0003963	121.562999964
1510.0	0.0003958	121.594000101
1510.0	0.0003958	121.641000032
1510.0	0.0003958	121.687999964
1510.0	0.0003958	121.719000101
1510.0	0.0003958	121.766000032
1510.0	0.0003955	121.812999964
1510.0	0.0003955	121.844000101
1510.0	0.0003955	121.891000032
1510.0	0.0003955	121.921999931
1510.0	0.0003955	121.969000101
1510.0	0.0003955	122.016000032
1510.0	0.0003953	122.046999931
1510.0	0.0003955	122.094000101
1510.0	0.0003963	122.141000032
1510.0	0.0003963	122.171999931
1510.0	0.0003963	122.219000101
1510.0	0.0003963	122.266000032
1510.0	0.0003963	122.296999931
1510.0	0.0003963	122.344000101
1510.0	0.0003963	122.391000032
1520.0	0.0003963	122.657000065
1520.0	0.0003965	122.703000069
1520.0	0.0003965	122.734999895
1520.0	0.0003968	122.782000065
1520.0	0.0003968	122.828000069
1520.0	0.0003968	122.859999895
1520.0	0.0003968	122.907000065
1520.0	0.0003975	122.937999964
1520.0	0.0003978	122.984999895
1520.0	0.000398	123.032000065
1520.0	0.000398	123.062999964
1520.0	0.0003983	123.109999895
1520.0	0.0003983	123.157000065
1520.0	0.0003983	123.187999964
1520.0	0.0003988	123.234999895
1520.0	0.0003988	123.266000032
1520.0	0.0003983	123.312999964
1520.0	0.0003983	123.359999895
1520.0	0.000398	123.391000032
1520.0	0.000398	123.437999964
1520.0	0.0003978	123.484999895
1520.0	0.000398	123.516000032
1520.0	0.000398	123.562999964
1520.0	0.000398	123.594000101
1520.0	0.000398	123.641000032
1520.0	0.0003983	123.687999964
1520.0	0.0003983	123.719000101
1520.0	0.000398	123.766000032
1520.0	0.000398	123.812999964
1520.0	0.000398	123.844000101
1520.0	0.000398	123.891000032
1520.0	0.000398	123.921999931
1520.0	0.0003978	123.969000101
1520.0	0.0003975	124.016000032
1520.0	0.0003975	124.046999931
1520.0	0.000397	124.094000101
1520.0	0.000397	124.141000032
1530.0	0.0003983	124.407000065
1530.0	0.0003983	124.453000069
1530.0	0.0003983	124.5
1530.0	0.0003988	124.532000065
1530.0	0.000399	124.578000069
1530.0	0.000399	124.609999895
1530.0	0.0003988	124.657000065
1530.0	0.0003988	124.703000069
1530.0	0.000399	124.734999895
1530.0	0.000399	124.782000065
1530.0	0.000399	124.828000069
1530.0	0.000399	124.859999895
1530.0	0.000399	124.907000065
1530.0	0.000399	124.937999964
1530.0	0.0003988	124.984999895
1530.0	0.0003988	125.032000065
1530.0	0.0003988	125.062999964
1530.0	0.000399	125.109999895
1530.0	0.0003993	125.157000065
1530.0	0.0003995	125.187999964
1530.0	0.0003995	125.234999895
1530.0	0.0004	125.266000032
1530.0	0.0003995	125.312999964
1530.0	0.0004	125.359999895
1530.0	0.0004	125.391000032
1530.0	0.0003995	125.437999964
1530.0	0.0003995	125.484999895
1530.0	0.0003993	125.516000032
1530.0	0.0003993	125.562999964
1530.0	0.000399	125.594000101
1530.0	0.0003988	125.641000032
1530.0	0.0003988	125.687999964
1530.0	0.000399	125.719000101
1530.0	0.000399	125.766000032
1530.0	0.000399	125.812999964
1530.0	0.000399	125.844000101
1530.0	0.0003993	125.891000032
1540.0	0.0003988	126.171999931
1540.0	0.0003983	126.203000069
1540.0	0.0003983	126.25
1540.0	0.000398	126.282000065
1540.0	0.000398	126.328000069
1540.0	0.000398	126.375
1540.0	0.000398	126.407000065
1540.0	0.000398	126.453000069
1540.0	0.0003983	126.5
1540.0	0.0003988	126.532000065
1540.0	0.0003983	126.578000069
1540.0	0.0003983	126.609999895
1540.0	0.0003983	126.657000065
1540.0	0.0003983	126.703000069
1540.0	0.0003988	126.734999895
1540.0	0.0003983	126.782000065
1540.0	0.0003983	126.828000069
1540.0	0.000398	126.859999895
1540.0	0.0003978	126.907000065
1540.0	0.000398	126.937999964
1540.0	0.000398	126.984999895
1540.0	0.0003978	127.032000065
1540.0	0.000398	127.062999964
1540.0	0.000398	127.109999895
1540.0	0.000398	127.157000065
1540.0	0.000398	127.187999964
1540.0	0.0003978	127.234999895
1540.0	0.0003975	127.266000032
1540.0	0.0003978	127.312999964
1540.0	0.0003978	127.359999895
1540.0	0.0003978	127.391000032
1540.0	0.0003978	127.437999964
1540.0	0.0003978	127.484999895
1540.0	0.0003978	127.516000032
1540.0	0.0003978	127.562999964
1540.0	0.000398	127.594000101
1540.0	0.000398	127.641000032
1550.0	0.000397	127.921999931
1550.0	0.0003963	127.969000101
1550.0	0.0003955	128.016000032
1550.0	0.000395	128.046999931
1550.0	0.0003945	128.094000101
1550.0	0.0003943	128.125
1550.0	0.0003943	128.171999931
1550.0	0.0003943	128.219000101
1550.0	0.0003945	128.25
1550.0	0.0003945	128.296999931
1550.0	0.0003945	128.344000101
1550.0	0.000395	128.375
1550.0	0.000395	128.421999931
1550.0	0.000395	128.469000101
1550.0	0.000395	128.5
1550.0	0.0003945	128.546999931
1550.0	0.0003945	128.594000101
1550.0	0.0003945	128.625
1550.0	0.000395	128.671999931
1550.0	0.000395	128.703000069
1550.0	0.0003943	128.75
1550.0	0.0003943	128.796999931
1550.0	0.0003943	128.828000069
1550.0	0.0003943	128.875
1550.0	0.0003943	128.921999931
1550.0	0.0003943	128.953000069
1550.0	0.0003943	129.0
1550.0	0.0003943	129.046999931
1550.0	0.0003943	129.078000069
1550.0	0.0003943	129.125
1550.0	0.0003943	129.157000065
1550.0	0.0003943	129.203000069
1550.0	0.0003945	129.25
1550.0	0.0003953	129.282000065
1550.0	0.0003955	129.328000069
1550.0	0.0003953	129.375
1560.0	0.000392	129.641000032
1560.0	0.0003908	129.687999964
1560.0	0.00039	129.719000101
1560.0	0.0003893	129.766000032
1560.0	0.000389	129.796999931
1560.0	0.0003888	129.844000101
1560.0	0.0003888	129.891000032
1560.0	0.0003883	129.921999931
1560.0	0.000388	129.969000101
1560.0	0.0003875	130.016000032
1560.0	0.0003868	130.046999931
1560.0	0.0003865	130.094000101
1560.0	0.0003865	130.125
1560.0	0.0003863	130.171999931
1560.0	0.0003865	130.219000101
1560.0	0.0003865	130.25
1560.0	0.0003868	130.296999931
1560.0	0.0003868	130.344000101
1560.0	0.0003868	130.375
1560.0	0.0003868	130.421999931
1560.0	0.000387	130.453000069
1560.0	0.0003868	130.5
1560.0	0.0003868	130.546999931
1560.0	0.0003868	130.578000069
1560.0	0.000387	130.625
1560.0	0.000387	130.671999931
1560.0	0.0003868	130.703000069
1560.0	0.0003868	130.75
1560.0	0.0003868	130.782000065
1560.0	0.0003863	130.828000069
1560.0	0.0003855	130.875
1560.0	0.0003853	130.907000065
1560.0	0.0003853	130.953000069
1560.0	0.0003855	131.0
1560.0	0.0003853	131.032000065
1560.0	0.0003855	131.078000069
1560.0	0.0003855	131.125
1570.0	0.0003828	131.391000032
1570.0	0.0003815	131.421999931
1570.0	0.00038	131.469000101
1570.0	0.0003788	131.516000032
1570.0	0.0003778	131.546999931
1570.0	0.0003768	131.594000101
1570.0	0.0003763	131.641000032
1570.0	0.0003763	131.671999931
1570.0	0.0003755	131.719000101
1570.0	0.000375	131.766000032
1570.0	0.0003743	131.796999931
1570.0	0.000374	131.844000101
1570.0	0.000374	131.875
1570.0	0.0003738	131.921999931
1570.0	0.0003738	131.969000101
1570.0	0.000374	132.0
1570.0	0.000374	132.046999931
1570.0	0.000374	132.094000101
1570.0	0.000374	132.125
1570.0	0.000374	132.171999931
1570.0	0.000374	132.203000069
1570.0	0.0003743	132.25
1570.0	0.0003743	132.296999931
1570.0	0.000374	132.328000069
1570.0	0.000374	132.375
1570.0	0.0003738	132.421999931
1570.0	0.000374	132.453000069
1570.0	0.000374	132.5
1570.0	0.0003743	132.532000065
1570.0	0.0003743	132.578000069
1570.0	0.0003743	132.625
1570.0	0.0003743	132.657000065
1570.0	0.000374	132.703000069
1570.0	0.0003738	132.75
1570.0	0.0003738	132.782000065
1570.0	0.0003738	132.828000069
1570.0	0.0003733	132.875
1580.0	0.000368	133.141000032
1580.0	0.0003663	133.171999931
1580.0	0.0003645	133.219000101
1580.0	0.000363	133.266000032
1580.0	0.000362	133.296999931
1580.0	0.0003615	133.344000101
1580.0	0.0003613	133.391000032
1580.0	0.0003613	133.421999931
1580.0	0.0003613	133.469000101
1580.0	0.0003613	133.5
1580.0	0.0003608	133.546999931
1580.0	0.0003608	133.594000101
1580.0	0.0003603	133.625
1580.0	0.0003605	133.671999931
1580.0	0.0003605	133.719000101
1580.0	0.0003605	133.75
1580.0	0.0003608	133.796999931
1580.0	0.0003608	133.844000101
1580.0	0.0003605	133.875
1580.0	0.0003608	133.921999931
1580.0	0.0003608	133.969000101
1580.0	0.0003608	134.0
1580.0	0.0003613	134.046999931
1580.0	0.0003608	134.094000101
1580.0	0.0003608	134.125
1580.0	0.0003613	134.171999931
1580.0	0.0003613	134.219000101
1580.0	0.0003613	134.25
1580.0	0.0003613	134.296999931
1580.0	0.0003613	134.344000101
1580.0	0.0003615	134.375
1580.0	0.0003615	134.421999931
1580.0	0.0003618	134.453000069
1580.0	0.0003618	134.5
1580.0	0.0003618	134.546999931
1580.0	0.0003618	134.578000069
1580.0	0.0003618	134.625
1590.0	0.0003555	134.907000065
1590.0	0.000353	134.937999964
1590.0	0.0003508	134.984999895
1590.0	0.0003495	135.016000032
1590.0	0.0003483	135.062999964
1590.0	0.0003475	135.109999895
1590.0	0.0003468	135.141000032
1590.0	0.0003463	135.187999964
1590.0	0.0003458	135.234999895
1590.0	0.0003455	135.266000032
1590.0	0.0003455	135.312999964
1590.0	0.0003453	135.359999895
1590.0	0.0003453	135.391000032
1590.0	0.0003445	135.437999964
1590.0	0.0003445	135.469000101
1590.0	0.0003445	135.516000032
1590.0	0.0003443	135.562999964
1590.0	0.0003443	135.594000101
1590.0	0.0003443	135.641000032
1590.0	0.000344	135.687999964
1590.0	0.000344	135.719000101
1590.0	0.0003438	135.766000032
1590.0	0.0003438	135.812999964
1590.0	0.0003433	135.844000101
1590.0	0.000343	135.891000032
1590.0	0.000343	135.937999964
1590.0	0.000343	135.969000101
1590.0	0.000343	136.016000032
1590.0	0.0003433	136.046999931
1590.0	0.0003438	136.094000101
1590.0	0.0003438	136.141000032
1590.0	0.000344	136.171999931
1590.0	0.000344	136.219000101
1590.0	0.000344	136.266000032
1590.0	0.0003438	136.296999931
1590.0	0.0003438	136.344000101
1590.0	0.000344	136.391000032
1600.0	0.0003358	136.657000065
1600.0	0.000333	136.703000069
1600.0	0.0003313	136.734999895
1600.0	0.0003293	136.782000065
1600.0	0.0003275	136.828000069
1600.0	0.0003263	136.859999895
1600.0	0.0003253	136.907000065
1600.0	0.0003245	136.953000069
1600.0	0.0003243	136.984999895
1600.0	0.000324	137.032000065
1600.0	0.0003238	137.062999964
1600.0	0.0003233	137.109999895
1600.0	0.000323	137.157000065
1600.0	0.0003228	137.187999964
1600.0	0.0003228	137.234999895
1600.0	0.0003228	137.282000065
1600.0	0.0003228	137.312999964
1600.0	0.000322	137.359999895
1600.0	0.0003218	137.391000032
1600.0	0.0003218	137.437999964
1600.0	0.0003218	137.484999895
1600.0	0.0003218	137.516000032
1600.0	0.0003215	137.562999964
1600.0	0.0003215	137.609999895
1600.0	0.0003215	137.641000032
1600.0	0.0003215	137.687999964
1600.0	0.0003218	137.719000101
1600.0	0.0003225	137.766000032
1600.0	0.0003228	137.812999964
1600.0	0.000323	137.859999895
1600.0	0.0003233	137.891000032
1600.0	0.0003238	137.937999964
1600.0	0.0003238	137.969000101
1600.0	0.0003238	138.016000032
1600.0	0.0003238	138.062999964
1600.0	0.000324	138.109999895
1610.0	0.0003158	138.391000032
1610.0	0.0003128	138.421999931
1610.0	0.0003103	138.469000101
1610.0	0.0003083	138.5
1610.0	0.0003068	138.546999931
1610.0	0.0003058	138.594000101
1610.0	0.000305	138.625
1610.0	0.0003043	138.671999931
1610.0	0.0003043	138.719000101
1610.0	0.000304	138.75
1610.0	0.000304	138.796999931
1610.0	0.000304	138.828000069
1610.0	0.0003043	138.875
1610.0	0.0003043	138.921999931
1610.0	0.0003045	138.953000069
1610.0	0.0003045	139.0
1610.0	0.0003045	139.046999931
1610.0	0.0003045	139.078000069
1610.0	0.0003045	139.125
1610.0	0.0003043	139.157000065
1610.0	0.000304	139.203000069
1610.0	0.0003038	139.25
1610.0	0.0003038	139.282000065
1610.0	0.0003038	139.328000069
1610.0	0.0003033	139.375
1610.0	0.0003038	139.407000065
1610.0	0.0003038	139.453000069
1610.0	0.0003038	139.5
1610.0	0.0003038	139.532000065
1610.0	0.0003038	139.578000069
1610.0	0.0003038	139.609999895
1610.0	0.0003033	139.657000065
1610.0	0.0003033	139.703000069
1610.0	0.000303	139.734999895
1610.0	0.000303	139.782000065
1610.0	0.0003028	139.828000069
1610.0	0.0003028	139.859999895
1620.0	0.0002933	140.141000032
1620.0	0.00029	140.187999964
1620.0	0.0002875	140.219000101
1620.0	0.0002853	140.266000032
1620.0	0.0002833	140.312999964
1620.0	0.0002818	140.344000101
1620.0	0.0002805	140.391000032
1620.0	0.0002795	140.421999931
1620.0	0.0002788	140.469000101
1620.0	0.000278	140.516000032
1620.0	0.0002778	140.546999931
1620.0	0.0002778	140.594000101
1620.0	0.0002778	140.641000032
1620.0	0.0002775	140.671999931
1620.0	0.000277	140.719000101
1620.0	0.0002775	140.75
1620.0	0.0002775	140.796999931
1620.0	0.0002775	140.844000101
1620.0	0.0002775	140.875
1620.0	0.0002775	140.921999931
1620.0	0.0002775	140.969000101
1620.0	0.0002775	141.0
1620.0	0.0002778	141.046999931
1620.0	0.0002778	141.078000069
1620.0	0.0002778	141.125
1620.0	0.0002775	141.171999931
1620.0	0.000277	141.203000069
1620.0	0.0002768	141.25
1620.0	0.0002768	141.296999931
1620.0	0.0002768	141.328000069
1620.0	0.0002765	141.375
1620.0	0.0002765	141.421999931
1620.0	0.0002765	141.453000069
1620.0	0.0002768	141.5
1620.0	0.0002768	141.532000065
1620.0	0.000277	141.578000069
1620.0	0.0002775	141.625
1630.0	0.000268	141.907000065
1630.0	0.0002653	141.937999964
1630.0	0.000263	141.984999895
1630.0	0.0002613	142.032000065
1630.0	0.0002595	142.062999964
1630.0	0.0002583	142.109999895
1630.0	0.0002575	142.157000065
1630.0	0.0002568	142.187999964
1630.0	0.0002563	142.234999895
1630.0	0.0002555	142.266000032
1630.0	0.0002553	142.312999964
1630.0	0.000255	142.359999895
1630.0	0.000255	142.391000032
1630.0	0.0002545	142.437999964
1630.0	0.0002543	142.484999895
1630.0	0.0002545	142.516000032
1630.0	0.0002545	142.562999964
1630.0	0.000255	142.594000101
1630.0	0.0002553	142.641000032
1630.0	0.0002555	142.687999964
1630.0	0.0002553	142.719000101
1630.0	0.000255	142.766000032
1630.0	0.0002545	142.812999964
1630.0	0.0002545	142.844000101
1630.0	0.0002545	142.891000032
1630.0	0.000255	142.921999931
1630.0	0.0002545	142.969000101
1630.0	0.0002545	143.016000032
1630.0	0.0002543	143.046999931
1630.0	0.0002545	143.094000101
1630.0	0.0002553	143.141000032
1630.0	0.0002555	143.171999931
1630.0	0.0002553	143.219000101
1630.0	0.0002553	143.266000032
1630.0	0.0002553	143.296999931
1630.0	0.000255	143.344000101
1630.0	0.000255	143.375
1640.0	0.000244	143.671999931
1640.0	0.0002405	143.703000069
1640.0	0.0002375	143.75
1640.0	0.000235	143.782000065
1640.0	0.000233	143.828000069
1640.0	0.0002315	143.875
1640.0	0.0002305	143.907000065
1640.0	0.0002293	143.953000069
1640.0	0.0002283	144.0
1640.0	0.000228	144.032000065
1640.0	0.0002278	144.078000069
1640.0	0.0002275	144.125
1640.0	0.0002278	144.157000065
1640.0	0.0002275	144.203000069
1640.0	0.0002278	144.234999895
1640.0	0.0002275	144.282000065
1640.0	0.000227	144.328000069
1640.0	0.0002275	144.359999895
1640.0	0.0002275	144.407000065
1640.0	0.0002275	144.453000069
1640.0	0.0002275	144.484999895
1640.0	0.0002275	144.532000065
1640.0	0.0002275	144.562999964
1640.0	0.000227	144.609999895
1640.0	0.000227	144.657000065
1640.0	0.0002275	144.687999964
1640.0	0.0002275	144.734999895
1640.0	0.0002275	144.782000065
1640.0	0.0002275	144.812999964
1640.0	0.000227	144.859999895
1640.0	0.0002268	144.891000032
1640.0	0.000227	144.937999964
1640.0	0.000227	144.984999895
1640.0	0.0002275	145.016000032
1640.0	0.0002275	145.062999964
1640.0	0.0002275	145.109999895
1640.0	0.0002278	145.141000032
1650.0	0.000218	145.421999931
1650.0	0.000215	145.469000101
1650.0	0.000212	145.516000032
1650.0	0.0002095	145.546999931
1650.0	0.0002078	145.594000101
1650.0	0.0002065	145.625
1650.0	0.0002058	145.671999931
1650.0	0.0002055	145.719000101
1650.0	0.000205	145.766000032
1650.0	0.0002045	145.796999931
1650.0	0.0002043	145.844000101
1650.0	0.000204	145.891000032
1650.0	0.000204	145.921999931
1650.0	0.0002038	145.969000101
1650.0	0.0002038	146.0
1650.0	0.0002038	146.046999931
1650.0	0.0002033	146.094000101
1650.0	0.0002033	146.125
1650.0	0.0002038	146.171999931
1650.0	0.000204	146.219000101
1650.0	0.000204	146.25
1650.0	0.0002043	146.296999931
1650.0	0.0002045	146.328000069
1650.0	0.0002045	146.375
1650.0	0.000205	146.421999931
1650.0	0.0002053	146.453000069
1650.0	0.0002055	146.5
1650.0	0.0002055	146.546999931
1650.0	0.0002055	146.578000069
1650.0	0.0002055	146.625
1650.0	0.0002053	146.657000065
1650.0	0.0002055	146.703000069
1650.0	0.0002055	146.75
1650.0	0.0002053	146.796999931
1650.0	0.000205	146.828000069
1650.0	0.000205	146.875
1650.0	0.000205	146.907000065
1660.0	0.0001953	147.203000069
1660.0	0.0001918	147.234999895
1660.0	0.000189	147.282000065
1660.0	0.0001868	147.328000069
1660.0	0.0001853	147.359999895
1660.0	0.0001838	147.407000065
1660.0	0.0001828	147.437999964
1660.0	0.000182	147.484999895
1660.0	0.0001815	147.532000065
1660.0	0.0001813	147.562999964
1660.0	0.0001805	147.609999895
1660.0	0.0001803	147.641000032
1660.0	0.0001795	147.687999964
1660.0	0.0001793	147.734999895
1660.0	0.0001793	147.766000032
1660.0	0.0001793	147.812999964
1660.0	0.00018	147.859999895
1660.0	0.0001795	147.907000065
1660.0	0.0001793	147.937999964
1660.0	0.000179	147.984999895
1660.0	0.0001788	148.016000032
1660.0	0.0001783	148.062999964
1660.0	0.0001778	148.109999895
1660.0	0.0001778	148.141000032
1660.0	0.000178	148.187999964
1660.0	0.000178	148.234999895
1660.0	0.0001783	148.266000032
1660.0	0.0001783	148.312999964
1660.0	0.0001783	148.344000101
1660.0	0.0001788	148.391000032
1660.0	0.0001788	148.437999964
1660.0	0.0001788	148.469000101
1660.0	0.0001788	148.516000032
1660.0	0.0001788	148.562999964
1660.0	0.0001788	148.594000101
1660.0	0.0001788	148.641000032
1660.0	0.0001783	148.671999931
1670.0	0.0001713	148.969000101
1670.0	0.0001683	149.0
1670.0	0.0001663	149.046999931
1670.0	0.0001645	149.094000101
1670.0	0.0001633	149.125
1670.0	0.0001625	149.171999931
1670.0	0.0001618	149.203000069
1670.0	0.0001613	149.25
1670.0	0.0001605	149.296999931
1670.0	0.0001603	149.328000069
1670.0	0.00016	149.375
1670.0	0.0001595	149.421999931
1670.0	0.0001595	149.453000069
1670.0	0.0001595	149.5
1670.0	0.00016	149.532000065
1670.0	0.0001603	149.578000069
1670.0	0.0001603	149.625
1670.0	0.0001605	149.657000065
1670.0	0.0001603	149.703000069
1670.0	0.0001603	149.75
1670.0	0.0001603	149.782000065
1670.0	0.0001603	149.828000069
1670.0	0.0001603	149.875
1670.0	0.0001603	149.907000065
1670.0	0.0001603	149.953000069
1670.0	0.0001603	149.984999895
1670.0	0.0001603	150.032000065
1670.0	0.00016	150.078000069
1670.0	0.00016	150.109999895
1670.0	0.0001595	150.157000065
1670.0	0.0001595	150.203000069
1670.0	0.0001595	150.234999895
1670.0	0.0001593	150.282000065
1670.0	0.0001593	150.312999964
1670.0	0.0001595	150.359999895
1670.0	0.00016	150.407000065
1670.0	0.00016	150.437999964
1680.0	0.0001518	150.719000101
1680.0	0.0001493	150.766000032
1680.0	0.000147	150.812999964
1680.0	0.0001455	150.844000101
1680.0	0.000144	150.891000032
1680.0	0.0001428	150.937999964
1680.0	0.0001415	150.969000101
1680.0	0.0001405	151.016000032
1680.0	0.00014	151.046999931
1680.0	0.0001393	151.094000101
1680.0	0.0001388	151.141000032
1680.0	0.0001383	151.171999931
1680.0	0.0001388	151.219000101
1680.0	0.0001388	151.266000032
1680.0	0.0001383	151.296999931
1680.0	0.0001388	151.344000101
1680.0	0.0001388	151.391000032
1680.0	0.0001388	151.421999931
1680.0	0.000139	151.469000101
1680.0	0.000139	151.516000032
1680.0	0.0001388	151.546999931
1680.0	0.0001388	151.594000101
1680.0	0.0001383	151.625
1680.0	0.0001383	151.671999931
1680.0	0.0001383	151.719000101
1680.0	0.0001383	151.75
1680.0	0.0001383	151.796999931
1680.0	0.0001383	151.844000101
1680.0	0.0001388	151.875
1680.0	0.0001388	151.921999931
1680.0	0.0001388	151.969000101
1680.0	0.000139	152.0
1680.0	0.000139	152.046999931
1680.0	0.0001395	152.078000069
1680.0	0.00014	152.125
1680.0	0.00014	152.171999931
1680.0	0.00014	152.203000069
1690.0	0.000133	152.5
1690.0	0.0001305	152.532000065
1690.0	0.0001288	152.578000069
1690.0	0.0001275	152.625
1690.0	0.0001265	152.657000065
1690.0	0.0001255	152.703000069
1690.0	0.0001245	152.75
1690.0	0.0001243	152.782000065
1690.0	0.0001243	152.828000069
1690.0	0.0001243	152.859999895
1690.0	0.000124	152.907000065
1690.0	0.0001238	152.953000069
1690.0	0.0001233	152.984999895
1690.0	0.0001233	153.032000065
1690.0	0.0001233	153.078000069
1690.0	0.0001233	153.109999895
1690.0	0.0001238	153.157000065
1690.0	0.0001238	153.187999964
1690.0	0.0001238	153.234999895
1690.0	0.0001233	153.282000065
1690.0	0.000123	153.312999964
1690.0	0.000123	153.359999895
1690.0	0.000123	153.407000065
1690.0	0.0001233	153.437999964
1690.0	0.0001238	153.484999895
1690.0	0.0001238	153.516000032
1690.0	0.0001238	153.562999964
1690.0	0.0001238	153.609999895
1690.0	0.0001233	153.641000032
1690.0	0.000123	153.687999964
1690.0	0.0001228	153.734999895
1690.0	0.0001225	153.766000032
1690.0	0.000122	153.812999964
1690.0	0.000122	153.844000101
1690.0	0.0001218	153.891000032
1690.0	0.0001218	153.937999964
1690.0	0.0001218	153.969000101
1700.0	0.0001155	154.266000032
1700.0	0.0001138	154.296999931
1700.0	0.000112	154.344000101
1700.0	0.0001113	154.391000032
1700.0	0.0001103	154.421999931
1700.0	0.0001095	154.469000101
1700.0	0.000109	154.5
1700.0	0.0001083	154.546999931
1700.0	0.000108	154.594000101
1700.0	0.000108	154.625
1700.0	0.000108	154.671999931
1700.0	0.000108	154.719000101
1700.0	0.000108	154.766000032
1700.0	0.0001083	154.796999931
1700.0	0.000108	154.844000101
1700.0	0.000108	154.875
1700.0	0.000108	154.921999931
1700.0	0.000108	154.969000101
1700.0	0.000108	155.0
1700.0	0.0001083	155.046999931
1700.0	0.000108	155.094000101
1700.0	0.000108	155.125
1700.0	0.000108	155.171999931
1700.0	0.000108	155.203000069
1700.0	0.000108	155.25
1700.0	0.000108	155.296999931
1700.0	0.000108	155.328000069
1700.0	0.0001083	155.375
1700.0	0.0001088	155.421999931
1700.0	0.0001088	155.453000069
1700.0	0.0001088	155.5
1700.0	0.0001088	155.546999931
1700.0	0.0001083	155.578000069
1700.0	0.000108	155.625
1700.0	0.000108	155.657000065
1700.0	0.0001078	155.703000069
1700.0	0.0001075	155.75
1710.0	0.0001018	156.032000065
1710.0	0.0001003	156.078000069
1710.0	9.83e-05	156.109999895
1710.0	9.75e-05	156.157000065
1710.0	9.63e-05	156.203000069
1710.0	9.53e-05	156.234999895
1710.0	9.43e-05	156.282000065
1710.0	9.4e-05	156.312999964
1710.0	9.38e-05	156.359999895
1710.0	9.38e-05	156.407000065
1710.0	9.33e-05	156.437999964
1710.0	9.3e-05	156.484999895
1710.0	9.3e-05	156.532000065
1710.0	9.28e-05	156.562999964
1710.0	9.28e-05	156.609999895
1710.0	9.3e-05	156.641000032
1710.0	9.3e-05	156.687999964
1710.0	9.33e-05	156.734999895
1710.0	9.33e-05	156.766000032
1710.0	9.33e-05	156.812999964
1710.0	9.38e-05	156.859999895
1710.0	9.4e-05	156.891000032
1710.0	9.43e-05	156.937999964
1710.0	9.43e-05	156.969000101
1710.0	9.45e-05	157.016000032
1710.0	9.5e-05	157.062999964
1710.0	9.5e-05	157.094000101
1710.0	9.5e-05	157.141000032
1710.0	9.53e-05	157.187999964
1710.0	9.53e-05	157.219000101
1710.0	9.53e-05	157.266000032
1710.0	9.55e-05	157.312999964
1710.0	9.55e-05	157.344000101
1710.0	9.55e-05	157.391000032
1710.0	9.58e-05	157.421999931
1710.0	9.58e-05	157.469000101
1710.0	9.63e-05	157.516000032
1720.0	9.15e-05	157.796999931
1720.0	9e-05	157.844000101
1720.0	8.88e-05	157.875
1720.0	8.78e-05	157.921999931
1720.0	8.68e-05	157.969000101
1720.0	8.55e-05	158.0
1720.0	8.45e-05	158.046999931
1720.0	8.43e-05	158.078000069
1720.0	8.4e-05	158.125
1720.0	8.33e-05	158.171999931
1720.0	8.28e-05	158.203000069
1720.0	8.28e-05	158.25
1720.0	8.28e-05	158.296999931
1720.0	8.28e-05	158.328000069
1720.0	8.25e-05	158.375
1720.0	8.25e-05	158.421999931
1720.0	8.2e-05	158.453000069
1720.0	8.15e-05	158.5
1720.0	8.13e-05	158.532000065
1720.0	8.13e-05	158.578000069
1720.0	8.18e-05	158.625
1720.0	8.18e-05	158.657000065
1720.0	8.18e-05	158.703000069
1720.0	8.2e-05	158.75
1720.0	8.25e-05	158.782000065
1720.0	8.3e-05	158.828000069
1720.0	8.3e-05	158.875
1720.0	8.3e-05	158.907000065
1720.0	8.28e-05	158.953000069
1720.0	8.25e-05	159.0
1720.0	8.28e-05	159.032000065
1720.0	8.3e-05	159.078000069
1720.0	8.33e-05	159.109999895
1720.0	8.33e-05	159.157000065
1720.0	8.33e-05	159.203000069
1720.0	8.38e-05	159.234999895
1720.0	8.38e-05	159.282000065
1730.0	8.08e-05	159.578000069
1730.0	7.93e-05	159.609999895
1730.0	7.88e-05	159.657000065
1730.0	7.8e-05	159.703000069
1730.0	7.75e-05	159.734999895
1730.0	7.68e-05	159.782000065
1730.0	7.63e-05	159.812999964
1730.0	7.55e-05	159.859999895
1730.0	7.55e-05	159.907000065
1730.0	7.53e-05	159.937999964
1730.0	7.55e-05	159.984999895
1730.0	7.53e-05	160.032000065
1730.0	7.5e-05	160.062999964
1730.0	7.5e-05	160.109999895
1730.0	7.45e-05	160.141000032
1730.0	7.43e-05	160.187999964
1730.0	7.43e-05	160.234999895
1730.0	7.4e-05	160.266000032
1730.0	7.4e-05	160.312999964
1730.0	7.38e-05	160.359999895
1730.0	7.38e-05	160.391000032
1730.0	7.38e-05	160.437999964
1730.0	7.38e-05	160.469000101
1730.0	7.33e-05	160.516000032
1730.0	7.33e-05	160.562999964
1730.0	7.33e-05	160.594000101
1730.0	7.33e-05	160.641000032
1730.0	7.33e-05	160.687999964
1730.0	7.3e-05	160.719000101
1730.0	7.3e-05	160.766000032
1730.0	7.3e-05	160.796999931
1730.0	7.3e-05	160.844000101
1730.0	7.3e-05	160.891000032
1730.0	7.33e-05	160.921999931
1730.0	7.38e-05	160.969000101
1730.0	7.38e-05	161.016000032
1730.0	7.43e-05	161.046999931
1740.0	7.18e-05	161.344000101
1740.0	7.05e-05	161.391000032
1740.0	7e-05	161.421999931
1740.0	6.9e-05	161.469000101
1740.0	6.83e-05	161.516000032
1740.0	6.78e-05	161.546999931
1740.0	6.75e-05	161.594000101
1740.0	6.7e-05	161.641000032
1740.0	6.68e-05	161.671999931
1740.0	6.68e-05	161.719000101
1740.0	6.68e-05	161.75
1740.0	6.7e-05	161.796999931
1740.0	6.7e-05	161.844000101
1740.0	6.7e-05	161.875
1740.0	6.75e-05	161.921999931
1740.0	6.75e-05	161.969000101
1740.0	6.78e-05	162.0
1740.0	6.78e-05	162.046999931
1740.0	6.78e-05	162.094000101
1740.0	6.75e-05	162.125
1740.0	6.7e-05	162.171999931
1740.0	6.7e-05	162.219000101
1740.0	6.75e-05	162.25
1740.0	6.75e-05	162.296999931
1740.0	6.75e-05	162.344000101
1740.0	6.75e-05	162.375
1740.0	6.7e-05	162.421999931
1740.0	6.68e-05	162.469000101
1740.0	6.63e-05	162.5
1740.0	6.58e-05	162.546999931
1740.0	6.55e-05	162.594000101
1740.0	6.55e-05	162.625
1740.0	6.53e-05	162.671999931
1740.0	6.5e-05	162.703000069
1740.0	6.45e-05	162.75
1740.0	6.43e-05	162.796999931
1750.0	6.18e-05	163.078000069
1750.0	6.08e-05	163.125
1750.0	6e-05	163.171999931
1750.0	5.93e-05	163.203000069
1750.0	5.9e-05	163.25
1750.0	5.9e-05	163.296999931
1750.0	5.9e-05	163.328000069
1750.0	5.9e-05	163.375
1750.0	5.88e-05	163.421999931
1750.0	5.88e-05	163.453000069
1750.0	5.9e-05	163.5
1750.0	5.93e-05	163.546999931
1750.0	5.93e-05	163.578000069
1750.0	5.93e-05	163.625
1750.0	5.93e-05	163.657000065
1750.0	6e-05	163.703000069
1750.0	6e-05	163.75
1750.0	6e-05	163.782000065
1750.0	6.03e-05	163.828000069
1750.0	6.05e-05	163.875
1750.0	6.05e-05	163.907000065
1750.0	6.05e-05	163.953000069
1750.0	6.05e-05	163.984999895
1750.0	6.03e-05	164.032000065
1750.0	6e-05	164.078000069
1750.0	6e-05	164.109999895
1750.0	6e-05	164.157000065
1750.0	6e-05	164.203000069
1750.0	5.95e-05	164.234999895
1750.0	6e-05	164.282000065
1750.0	6e-05	164.328000069
1750.0	6e-05	164.359999895
1750.0	6e-05	164.407000065
1750.0	6e-05	164.437999964
1750.0	6.03e-05	164.484999895
1750.0	6e-05	164.532000065
1750.0	5.93e-05	164.562999964
1760.0	5.58e-05	164.859999895
1760.0	5.5e-05	164.907000065
1760.0	5.43e-05	164.953000069
1760.0	5.4e-05	165.0
1760.0	5.33e-05	165.032000065
1760.0	5.3e-05	165.078000069
1760.0	5.28e-05	165.125
1760.0	5.3e-05	165.157000065
1760.0	5.25e-05	165.203000069
1760.0	5.2e-05	165.234999895
1760.0	5.18e-05	165.282000065
1760.0	5.18e-05	165.328000069
1760.0	5.18e-05	165.359999895
1760.0	5.18e-05	165.407000065
1760.0	5.18e-05	165.453000069
1760.0	5.2e-05	165.484999895
1760.0	5.2e-05	165.532000065
1760.0	5.2e-05	165.562999964
1760.0	5.25e-05	165.609999895
1760.0	5.28e-05	165.657000065
1760.0	5.3e-05	165.687999964
1760.0	5.33e-05	165.734999895
1760.0	5.33e-05	165.782000065
1760.0	5.38e-05	165.812999964
1760.0	5.38e-05	165.859999895
1760.0	5.38e-05	165.891000032
1760.0	5.38e-05	165.937999964
1760.0	5.38e-05	165.984999895
1760.0	5.33e-05	166.016000032
1760.0	5.33e-05	166.062999964
1760.0	5.38e-05	166.109999895
1760.0	5.38e-05	166.141000032
1760.0	5.4e-05	166.187999964
1760.0	5.4e-05	166.219000101
1760.0	5.38e-05	166.266000032
1760.0	5.4e-05	166.312999964
1760.0	5.4e-05	166.344000101
1770.0	5.13e-05	166.657000065
1770.0	5.05e-05	166.687999964
1770.0	4.95e-05	166.734999895
1770.0	4.93e-05	166.782000065
1770.0	4.88e-05	166.812999964
1770.0	4.83e-05	166.859999895
1770.0	4.8e-05	166.907000065
1770.0	4.8e-05	166.937999964
1770.0	4.8e-05	166.984999895
1770.0	4.8e-05	167.032000065
1770.0	4.83e-05	167.062999964
1770.0	4.83e-05	167.109999895
1770.0	4.8e-05	167.157000065
1770.0	4.8e-05	167.187999964
1770.0	4.78e-05	167.234999895
1770.0	4.78e-05	167.282000065
1770.0	4.8e-05	167.312999964
1770.0	4.78e-05	167.359999895
1770.0	4.75e-05	167.391000032
1770.0	4.75e-05	167.437999964
1770.0	4.75e-05	167.484999895
1770.0	4.75e-05	167.516000032
1770.0	4.7e-05	167.562999964
1770.0	4.7e-05	167.609999895
1770.0	4.7e-05	167.641000032
1770.0	4.7e-05	167.687999964
1770.0	4.75e-05	167.719000101
1770.0	4.78e-05	167.766000032
1770.0	4.78e-05	167.812999964
1770.0	4.75e-05	167.844000101
1770.0	4.75e-05	167.891000032
1770.0	4.7e-05	167.937999964
1770.0	4.68e-05	167.969000101
1770.0	4.68e-05	168.016000032
1770.0	4.65e-05	168.046999931
1770.0	4.68e-05	168.094000101
1770.0	4.68e-05	168.141000032
1780.0	4.43e-05	168.437999964
1780.0	4.33e-05	168.484999895
1780.0	4.3e-05	168.516000032
1780.0	4.28e-05	168.562999964
1780.0	4.3e-05	168.609999895
1780.0	4.28e-05	168.657000065
1780.0	4.28e-05	168.687999964
1780.0	4.3e-05	168.734999895
1780.0	4.33e-05	168.766000032
1780.0	4.38e-05	168.812999964
1780.0	4.4e-05	168.859999895
1780.0	4.4e-05	168.891000032
1780.0	4.4e-05	168.937999964
1780.0	4.4e-05	168.984999895
1780.0	4.4e-05	169.016000032
1780.0	4.43e-05	169.062999964
1780.0	4.43e-05	169.094000101
1780.0	4.43e-05	169.141000032
1780.0	4.45e-05	169.187999964
1780.0	4.45e-05	169.219000101
1780.0	4.43e-05	169.266000032
1780.0	4.4e-05	169.312999964
1780.0	4.4e-05	169.344000101
1780.0	4.43e-05	169.391000032
1780.0	4.4e-05	169.437999964
1780.0	4.43e-05	169.469000101
1780.0	4.43e-05	169.516000032
1780.0	4.43e-05	169.562999964
1780.0	4.43e-05	169.594000101
1780.0	4.43e-05	169.641000032
1780.0	4.45e-05	169.687999964
1780.0	4.45e-05	169.719000101
1780.0	4.45e-05	169.766000032
1780.0	4.43e-05	169.796999931
1780.0	4.43e-05	169.844000101
1780.0	4.4e-05	169.891000032
1790.0	4.08e-05	170.187999964
1790.0	4.03e-05	170.234999895
1790.0	3.95e-05	170.282000065
1790.0	3.95e-05	170.312999964
1790.0	3.95e-05	170.359999895
1790.0	3.93e-05	170.391000032
1790.0	3.93e-05	170.437999964
1790.0	3.93e-05	170.484999895
1790.0	3.88e-05	170.516000032
1790.0	3.88e-05	170.562999964
1790.0	3.88e-05	170.609999895
1790.0	3.83e-05	170.641000032
1790.0	3.83e-05	170.687999964
1790.0	3.8e-05	170.734999895
1790.0	3.8e-05	170.766000032
1790.0	3.83e-05	170.812999964
1790.0	3.8e-05	170.844000101
1790.0	3.8e-05	170.891000032
1790.0	3.8e-05	170.937999964
1790.0	3.78e-05	170.969000101
1790.0	3.78e-05	171.016000032
1790.0	3.75e-05	171.062999964
1790.0	3.7e-05	171.094000101
1790.0	3.75e-05	171.141000032
1790.0	3.7e-05	171.171999931
1790.0	3.7e-05	171.219000101
1790.0	3.7e-05	171.266000032
1790.0	3.7e-05	171.312999964
1790.0	3.7e-05	171.344000101
1790.0	3.68e-05	171.391000032
1790.0	3.7e-05	171.437999964
1790.0	3.68e-05	171.469000101
1790.0	3.68e-05	171.516000032
1790.0	3.65e-05	171.546999931
1790.0	3.68e-05	171.594000101
1790.0	3.68e-05	171.641000032
1800.0	3.5e-05	171.937999964
1800.0	3.45e-05	171.969000101
1800.0	3.43e-05	172.016000032
1800.0	3.4e-05	172.062999964
1800.0	3.4e-05	172.109999895
1800.0	3.43e-05	172.141000032
1800.0	3.43e-05	172.187999964
1800.0	3.43e-05	172.219000101
1800.0	3.43e-05	172.266000032
1800.0	3.43e-05	172.312999964
1800.0	3.4e-05	172.344000101
1800.0	3.38e-05	172.391000032
1800.0	3.38e-05	172.437999964
1800.0	3.38e-05	172.469000101
1800.0	3.38e-05	172.516000032
1800.0	3.38e-05	172.562999964
1800.0	3.38e-05	172.594000101
1800.0	3.38e-05	172.641000032
1800.0	3.38e-05	172.671999931
1800.0	3.4e-05	172.719000101
1800.0	3.4e-05	172.766000032
1800.0	3.4e-05	172.796999931
1800.0	3.43e-05	172.844000101
1800.0	3.45e-05	172.891000032
1800.0	3.5e-05	172.921999931
1800.0	3.5e-05	172.969000101
1800.0	3.53e-05	173.0
1800.0	3.53e-05	173.046999931
1800.0	3.53e-05	173.094000101
1800.0	3.5e-05	173.125
1800.0	3.5e-05	173.171999931
1800.0	3.45e-05	173.219000101
1800.0	3.5e-05	173.25
1800.0	3.5e-05	173.296999931
1800.0	3.5e-05	173.344000101
1800.0	3.5e-05	173.375
1800.0	3.53e-05	173.421999931
