Your edit line - do NOT delete this line
Wavelength [nm], Voltage [V], Elapsed time [s]
900.0	0.0002253	14.0929999352
900.0	0.0002205	14.1399998665
900.0	0.0002168	14.1870000362
900.0	0.0002138	14.2179999352
900.0	0.0002115	14.2649998665
900.0	0.00021	14.3120000362
900.0	0.000209	14.3429999352
900.0	0.000208	14.3899998665
900.0	0.0002078	14.4210000038
900.0	0.000207	14.4679999352
900.0	0.0002068	14.5149998665
900.0	0.0002063	14.5460000038
900.0	0.0002063	14.5929999352
900.0	0.0002063	14.6399998665
900.0	0.0002063	14.6710000038
900.0	0.0002058	14.7179999352
900.0	0.0002058	14.7649998665
900.0	0.0002055	14.7960000038
900.0	0.0002055	14.8429999352
900.0	0.0002053	14.875
900.0	0.0002055	14.9210000038
900.0	0.0002055	14.9679999352
900.0	0.0002055	15.0
900.0	0.0002055	15.0460000038
900.0	0.0002055	15.0929999352
900.0	0.0002055	15.125
900.0	0.0002053	15.1710000038
900.0	0.0002053	15.2029998302
900.0	0.0002053	15.25
900.0	0.0002055	15.2960000038
900.0	0.0002055	15.3279998302
900.0	0.0002055	15.375
900.0	0.0002053	15.4210000038
900.0	0.0002053	15.4529998302
900.0	0.0002053	15.5
900.0	0.0002053	15.5309998989
900.0	0.0002053	15.5779998302
910.0	0.0002155	15.8899998665
910.0	0.000218	15.9210000038
910.0	0.0002205	15.9679999352
910.0	0.0002225	16.0149998665
910.0	0.0002238	16.0620000362
910.0	0.0002245	16.0929999352
910.0	0.0002258	16.1399998665
910.0	0.000227	16.1710000038
910.0	0.0002278	16.2179999352
910.0	0.0002283	16.2649998665
910.0	0.0002283	16.2960000038
910.0	0.0002283	16.3429999352
910.0	0.0002283	16.3899998665
910.0	0.0002283	16.4210000038
910.0	0.0002288	16.4679999352
910.0	0.0002288	16.5
910.0	0.0002288	16.5460000038
910.0	0.0002283	16.5929999352
910.0	0.0002288	16.625
910.0	0.0002288	16.6710000038
910.0	0.000229	16.7179999352
910.0	0.0002293	16.75
910.0	0.0002293	16.7960000038
910.0	0.0002293	16.8279998302
910.0	0.0002293	16.875
910.0	0.0002293	16.9210000038
910.0	0.0002293	16.9529998302
910.0	0.0002293	17.0
910.0	0.000229	17.0460000038
910.0	0.000229	17.0779998302
910.0	0.0002288	17.125
910.0	0.0002288	17.1710000038
910.0	0.0002283	17.2029998302
910.0	0.0002283	17.25
910.0	0.0002288	17.2809998989
910.0	0.0002288	17.3279998302
910.0	0.0002288	17.375
920.0	0.000239	17.6710000038
920.0	0.0002428	17.7179999352
920.0	0.0002458	17.75
920.0	0.0002483	17.7960000038
920.0	0.0002503	17.8429999352
920.0	0.0002518	17.875
920.0	0.0002528	17.9210000038
920.0	0.0002538	17.9679999352
920.0	0.0002543	18.0
920.0	0.0002545	18.0460000038
920.0	0.000255	18.0779998302
920.0	0.0002553	18.125
920.0	0.0002553	18.1710000038
920.0	0.0002555	18.2179999352
920.0	0.0002558	18.25
920.0	0.0002558	18.2960000038
920.0	0.0002558	18.3279998302
920.0	0.0002555	18.375
920.0	0.0002555	18.4210000038
920.0	0.0002558	18.4529998302
920.0	0.0002555	18.5
920.0	0.0002553	18.5460000038
920.0	0.0002555	18.5779998302
920.0	0.0002555	18.625
920.0	0.0002555	18.6559998989
920.0	0.0002553	18.7029998302
920.0	0.000255	18.75
920.0	0.000255	18.7809998989
920.0	0.0002545	18.8279998302
920.0	0.0002545	18.875
920.0	0.0002553	18.9059998989
920.0	0.0002553	18.9529998302
920.0	0.0002555	19.0
920.0	0.0002558	19.0309998989
920.0	0.0002563	19.0779998302
920.0	0.0002563	19.125
930.0	0.0002683	19.4210000038
930.0	0.0002715	19.4679999352
930.0	0.0002743	19.5
930.0	0.0002765	19.5460000038
930.0	0.000278	19.5929999352
930.0	0.0002795	19.625
930.0	0.0002808	19.6710000038
930.0	0.0002818	19.7179999352
930.0	0.0002825	19.75
930.0	0.000283	19.7960000038
930.0	0.0002838	19.8279998302
930.0	0.000284	19.875
930.0	0.000284	19.9210000038
930.0	0.0002838	19.9529998302
930.0	0.000284	20.0
930.0	0.000284	20.0460000038
930.0	0.0002833	20.0779998302
930.0	0.000283	20.125
930.0	0.0002828	20.1710000038
930.0	0.0002828	20.2029998302
930.0	0.0002828	20.25
930.0	0.0002828	20.2960000038
930.0	0.0002828	20.3279998302
930.0	0.000283	20.375
930.0	0.0002833	20.4059998989
930.0	0.0002838	20.4529998302
930.0	0.0002838	20.5
930.0	0.0002838	20.5309998989
930.0	0.0002838	20.5779998302
930.0	0.000284	20.625
930.0	0.0002845	20.6559998989
930.0	0.0002845	20.7029998302
930.0	0.000284	20.7339999676
930.0	0.0002838	20.7809998989
930.0	0.0002838	20.8279998302
930.0	0.0002833	20.8589999676
930.0	0.0002838	20.9059998989
940.0	0.0002953	21.2029998302
940.0	0.0002993	21.25
940.0	0.0003028	21.2809998989
940.0	0.0003055	21.3279998302
940.0	0.000307	21.375
940.0	0.0003088	21.4059998989
940.0	0.0003095	21.4529998302
940.0	0.0003105	21.5
940.0	0.0003115	21.5309998989
940.0	0.0003118	21.5779998302
940.0	0.000312	21.625
940.0	0.0003128	21.6559998989
940.0	0.0003128	21.7029998302
940.0	0.000313	21.75
940.0	0.0003133	21.7809998989
940.0	0.0003133	21.8279998302
940.0	0.0003138	21.875
940.0	0.0003138	21.9059998989
940.0	0.0003138	21.9529998302
940.0	0.000314	21.9839999676
940.0	0.0003138	22.0309998989
940.0	0.0003138	22.0779998302
940.0	0.0003138	22.1089999676
940.0	0.0003138	22.1559998989
940.0	0.0003138	22.2029998302
940.0	0.0003138	22.2339999676
940.0	0.0003133	22.2809998989
940.0	0.0003133	22.3120000362
940.0	0.000313	22.3589999676
940.0	0.000313	22.4059998989
940.0	0.0003128	22.4370000362
940.0	0.0003128	22.4839999676
940.0	0.0003125	22.5309998989
940.0	0.0003125	22.5620000362
940.0	0.0003125	22.6089999676
940.0	0.0003128	22.6559998989
950.0	0.0003245	22.9529998302
950.0	0.000328	22.9839999676
950.0	0.0003313	23.0309998989
950.0	0.0003333	23.0620000362
950.0	0.000335	23.1089999676
950.0	0.0003363	23.1559998989
950.0	0.0003375	23.1870000362
950.0	0.0003383	23.2339999676
950.0	0.000339	23.2809998989
950.0	0.0003393	23.3120000362
950.0	0.0003395	23.3589999676
950.0	0.00034	23.4059998989
950.0	0.00034	23.4370000362
950.0	0.0003395	23.4839999676
950.0	0.0003395	23.5149998665
950.0	0.00034	23.5620000362
950.0	0.00034	23.6089999676
950.0	0.0003403	23.6559998989
950.0	0.0003403	23.6870000362
950.0	0.00034	23.7339999676
950.0	0.0003395	23.7809998989
950.0	0.0003393	23.8120000362
950.0	0.0003393	23.8589999676
950.0	0.0003395	23.9059998989
950.0	0.00034	23.9370000362
950.0	0.00034	23.9839999676
950.0	0.00034	24.0309998989
950.0	0.00034	24.0620000362
950.0	0.00034	24.1089999676
950.0	0.00034	24.1399998665
950.0	0.00034	24.1870000362
950.0	0.00034	24.2339999676
950.0	0.0003395	24.2649998665
950.0	0.0003395	24.3120000362
950.0	0.0003395	24.3589999676
950.0	0.0003395	24.3899998665
950.0	0.0003395	24.4370000362
960.0	0.0003503	24.7179999352
960.0	0.0003543	24.7649998665
960.0	0.0003575	24.7960000038
960.0	0.0003603	24.8429999352
960.0	0.0003625	24.8899998665
960.0	0.0003643	24.9210000038
960.0	0.0003653	24.9679999352
960.0	0.0003663	25.0149998665
960.0	0.0003665	25.0460000038
960.0	0.000367	25.0929999352
960.0	0.0003675	25.125
960.0	0.0003675	25.1710000038
960.0	0.0003678	25.2179999352
960.0	0.0003675	25.25
960.0	0.000367	25.2960000038
960.0	0.000367	25.3429999352
960.0	0.000367	25.375
960.0	0.000367	25.4210000038
960.0	0.0003675	25.4529998302
960.0	0.0003675	25.5
960.0	0.0003675	25.5460000038
960.0	0.000367	25.5779998302
960.0	0.0003668	25.625
960.0	0.0003668	25.6710000038
960.0	0.0003668	25.7029998302
960.0	0.000367	25.75
960.0	0.000367	25.7960000038
960.0	0.000367	25.8279998302
960.0	0.000367	25.875
960.0	0.0003668	25.9059998989
960.0	0.0003665	25.9529998302
960.0	0.0003665	26.0
960.0	0.0003665	26.0309998989
960.0	0.0003665	26.0779998302
960.0	0.0003668	26.125
960.0	0.0003675	26.1559998989
960.0	0.0003678	26.2029998302
970.0	0.000378	26.4839999676
970.0	0.000382	26.5309998989
970.0	0.0003853	26.5620000362
970.0	0.000388	26.6089999676
970.0	0.00039	26.6399998665
970.0	0.0003915	26.6870000362
970.0	0.0003925	26.7339999676
970.0	0.000393	26.7649998665
970.0	0.0003938	26.8120000362
970.0	0.000394	26.8589999676
970.0	0.0003943	26.8899998665
970.0	0.000395	26.9370000362
970.0	0.0003953	26.9679999352
970.0	0.0003955	27.0149998665
970.0	0.0003958	27.0620000362
970.0	0.0003958	27.0929999352
970.0	0.0003963	27.1399998665
970.0	0.0003958	27.1870000362
970.0	0.0003955	27.2179999352
970.0	0.0003955	27.2649998665
970.0	0.0003958	27.3120000362
970.0	0.0003958	27.3429999352
970.0	0.0003958	27.3899998665
970.0	0.0003955	27.4210000038
970.0	0.0003955	27.4679999352
970.0	0.0003958	27.5149998665
970.0	0.0003958	27.5460000038
970.0	0.0003958	27.5929999352
970.0	0.0003955	27.6399998665
970.0	0.0003958	27.6710000038
970.0	0.0003958	27.7179999352
970.0	0.0003958	27.7649998665
970.0	0.0003963	27.7960000038
970.0	0.0003965	27.8429999352
970.0	0.0003965	27.8899998665
970.0	0.0003968	27.9210000038
980.0	0.000408	28.2029998302
980.0	0.0004118	28.25
980.0	0.000415	28.2960000038
980.0	0.000417	28.3279998302
980.0	0.0004193	28.375
980.0	0.0004208	28.4210000038
980.0	0.000422	28.4529998302
980.0	0.0004228	28.5
980.0	0.000423	28.5309998989
980.0	0.000423	28.5779998302
980.0	0.0004238	28.625
980.0	0.0004243	28.6559998989
980.0	0.0004245	28.7029998302
980.0	0.000425	28.75
980.0	0.000425	28.7809998989
980.0	0.000425	28.8279998302
980.0	0.000425	28.8589999676
980.0	0.0004253	28.9059998989
980.0	0.0004255	28.9529998302
980.0	0.0004255	28.9839999676
980.0	0.0004258	29.0309998989
980.0	0.0004258	29.0779998302
980.0	0.0004258	29.1089999676
980.0	0.0004263	29.1559998989
980.0	0.0004265	29.1870000362
980.0	0.0004268	29.2339999676
980.0	0.0004268	29.2809998989
980.0	0.0004268	29.3120000362
980.0	0.000427	29.3589999676
980.0	0.000427	29.4059998989
980.0	0.000427	29.4370000362
980.0	0.0004268	29.4839999676
980.0	0.000427	29.5309998989
980.0	0.0004268	29.5620000362
980.0	0.0004268	29.6089999676
980.0	0.0004268	29.6399998665
980.0	0.0004268	29.6870000362
990.0	0.000438	29.9679999352
990.0	0.000442	30.0
990.0	0.0004455	30.0460000038
990.0	0.0004483	30.0929999352
990.0	0.0004503	30.125
990.0	0.000452	30.1710000038
990.0	0.000453	30.2179999352
990.0	0.0004538	30.25
990.0	0.0004543	30.2960000038
990.0	0.0004545	30.3429999352
990.0	0.000455	30.375
990.0	0.0004553	30.4210000038
990.0	0.0004555	30.4529998302
990.0	0.0004558	30.5
990.0	0.0004558	30.5460000038
990.0	0.0004558	30.5779998302
990.0	0.0004563	30.625
990.0	0.0004565	30.6710000038
990.0	0.0004563	30.7029998302
990.0	0.0004558	30.75
990.0	0.0004558	30.7960000038
990.0	0.0004563	30.8279998302
990.0	0.0004565	30.875
990.0	0.0004565	30.9210000038
990.0	0.0004565	30.9529998302
990.0	0.0004568	31.0
990.0	0.0004565	31.0460000038
990.0	0.0004565	31.0779998302
990.0	0.0004563	31.125
990.0	0.0004558	31.1710000038
990.0	0.0004558	31.2029998302
990.0	0.0004555	31.25
990.0	0.0004553	31.2960000038
990.0	0.0004555	31.3279998302
990.0	0.0004553	31.375
990.0	0.0004555	31.4059998989
990.0	0.0004558	31.4529998302
1000.0	0.0004665	31.7339999676
1000.0	0.0004705	31.7809998989
1000.0	0.0004738	31.8120000362
1000.0	0.0004765	31.8589999676
1000.0	0.0004788	31.8899998665
1000.0	0.00048	31.9370000362
1000.0	0.0004818	31.9839999676
1000.0	0.0004828	32.0149998665
1000.0	0.0004833	32.0620000362
1000.0	0.0004838	32.1089999676
1000.0	0.000484	32.1399998665
1000.0	0.0004843	32.1870000362
1000.0	0.0004845	32.2339999676
1000.0	0.000485	32.2649998665
1000.0	0.000485	32.3120000362
1000.0	0.000485	32.3589999676
1000.0	0.0004845	32.3899998665
1000.0	0.0004853	32.4370000362
1000.0	0.0004855	32.4679999352
1000.0	0.0004853	32.5149998665
1000.0	0.0004853	32.5620000362
1000.0	0.0004853	32.5929999352
1000.0	0.000485	32.6399998665
1000.0	0.000485	32.6870000362
1000.0	0.0004845	32.7179999352
1000.0	0.0004843	32.7649998665
1000.0	0.000484	32.7960000038
1000.0	0.000484	32.8429999352
1000.0	0.000484	32.8899998665
1000.0	0.0004838	32.9210000038
1000.0	0.0004838	32.9679999352
1000.0	0.000484	33.0149998665
1000.0	0.000484	33.0460000038
1000.0	0.0004838	33.0929999352
1000.0	0.0004838	33.1399998665
1000.0	0.0004838	33.1710000038
1000.0	0.0004838	33.2179999352
1010.0	0.000494	33.5
1010.0	0.0004978	33.5309998989
1010.0	0.0005013	33.5779998302
1010.0	0.0005043	33.625
1010.0	0.0005065	33.6559998989
1010.0	0.000508	33.7029998302
1010.0	0.0005093	33.7339999676
1010.0	0.0005103	33.7809998989
1010.0	0.0005113	33.8279998302
1010.0	0.0005115	33.8589999676
1010.0	0.0005115	33.9059998989
1010.0	0.0005118	33.9529998302
1010.0	0.0005118	33.9839999676
1010.0	0.0005118	34.0309998989
1010.0	0.0005125	34.0620000362
1010.0	0.0005128	34.1089999676
1010.0	0.000513	34.1559998989
1010.0	0.000513	34.1870000362
1010.0	0.000513	34.2339999676
1010.0	0.000513	34.2809998989
1010.0	0.000513	34.3120000362
1010.0	0.000513	34.3589999676
1010.0	0.0005128	34.3899998665
1010.0	0.0005128	34.4370000362
1010.0	0.000513	34.4839999676
1010.0	0.000513	34.5149998665
1010.0	0.000513	34.5620000362
1010.0	0.000513	34.6089999676
1010.0	0.0005128	34.6559998989
1010.0	0.000513	34.6870000362
1010.0	0.000513	34.7339999676
1010.0	0.0005128	34.7809998989
1010.0	0.0005128	34.8120000362
1010.0	0.000513	34.8589999676
1010.0	0.000513	34.9059998989
1010.0	0.000513	34.9370000362
1010.0	0.000513	34.9839999676
1020.0	0.000523	35.2649998665
1020.0	0.0005268	35.3120000362
1020.0	0.00053	35.3429999352
1020.0	0.0005325	35.3899998665
1020.0	0.0005343	35.4210000038
1020.0	0.0005363	35.4679999352
1020.0	0.0005375	35.5149998665
1020.0	0.0005383	35.5620000362
1020.0	0.0005393	35.5929999352
1020.0	0.0005403	35.6399998665
1020.0	0.0005405	35.6870000362
1020.0	0.0005413	35.7179999352
1020.0	0.0005415	35.7649998665
1020.0	0.0005418	35.7960000038
1020.0	0.0005418	35.8429999352
1020.0	0.0005418	35.8899998665
1020.0	0.000542	35.9210000038
1020.0	0.0005425	35.9679999352
1020.0	0.0005428	36.0149998665
1020.0	0.0005428	36.0460000038
1020.0	0.000543	36.0929999352
1020.0	0.000543	36.125
1020.0	0.0005438	36.1710000038
1020.0	0.0005438	36.2179999352
1020.0	0.0005438	36.25
1020.0	0.0005438	36.2960000038
1020.0	0.0005438	36.3429999352
1020.0	0.000544	36.375
1020.0	0.0005443	36.4210000038
1020.0	0.0005443	36.4529998302
1020.0	0.000544	36.5
1020.0	0.0005443	36.5460000038
1020.0	0.000544	36.5779998302
1020.0	0.000544	36.625
1020.0	0.0005438	36.6710000038
1020.0	0.0005438	36.7029998302
1020.0	0.000544	36.75
1030.0	0.0005558	37.0309998989
1030.0	0.0005593	37.0779998302
1030.0	0.0005628	37.1089999676
1030.0	0.0005653	37.1559998989
1030.0	0.0005675	37.1870000362
1030.0	0.0005693	37.2339999676
1030.0	0.0005708	37.2809998989
1030.0	0.000572	37.3120000362
1030.0	0.000573	37.3589999676
1030.0	0.0005738	37.4059998989
1030.0	0.0005743	37.4370000362
1030.0	0.0005745	37.4839999676
1030.0	0.0005753	37.5309998989
1030.0	0.0005753	37.5620000362
1030.0	0.0005753	37.6089999676
1030.0	0.0005753	37.6399998665
1030.0	0.000575	37.6870000362
1030.0	0.0005753	37.7339999676
1030.0	0.0005755	37.7649998665
1030.0	0.0005753	37.8120000362
1030.0	0.000575	37.8589999676
1030.0	0.0005745	37.8899998665
1030.0	0.0005745	37.9370000362
1030.0	0.0005745	37.9679999352
1030.0	0.000575	38.0149998665
1030.0	0.0005745	38.0620000362
1030.0	0.0005743	38.0929999352
1030.0	0.000574	38.1399998665
1030.0	0.000574	38.1870000362
1030.0	0.0005743	38.2179999352
1030.0	0.0005743	38.2649998665
1030.0	0.000574	38.2960000038
1030.0	0.0005743	38.3429999352
1030.0	0.0005743	38.3899998665
1030.0	0.0005743	38.4210000038
1030.0	0.0005743	38.4679999352
1030.0	0.0005743	38.5149998665
1040.0	0.0005853	38.7960000038
1040.0	0.0005888	38.8279998302
1040.0	0.0005918	38.875
1040.0	0.0005943	38.9210000038
1040.0	0.0005968	38.9679999352
1040.0	0.000598	39.0
1040.0	0.000599	39.0460000038
1040.0	0.0006003	39.0929999352
1040.0	0.0006005	39.125
1040.0	0.0006013	39.1710000038
1040.0	0.0006015	39.2179999352
1040.0	0.000602	39.25
1040.0	0.000602	39.2960000038
1040.0	0.0006025	39.3279998302
1040.0	0.000602	39.375
1040.0	0.000602	39.4210000038
1040.0	0.0006018	39.4529998302
1040.0	0.0006018	39.5
1040.0	0.000602	39.5460000038
1040.0	0.0006025	39.5779998302
1040.0	0.000602	39.625
1040.0	0.0006025	39.6710000038
1040.0	0.0006025	39.7029998302
1040.0	0.000602	39.75
1040.0	0.0006018	39.7809998989
1040.0	0.0006018	39.8279998302
1040.0	0.0006018	39.875
1040.0	0.000602	39.9059998989
1040.0	0.000602	39.9529998302
1040.0	0.0006025	40.0
1040.0	0.0006028	40.0309998989
1040.0	0.0006025	40.0779998302
1040.0	0.0006025	40.1089999676
1040.0	0.000602	40.1559998989
1040.0	0.000602	40.2029998302
1040.0	0.0006018	40.2339999676
1040.0	0.000602	40.2809998989
1050.0	0.0006128	40.5620000362
1050.0	0.000617	40.6089999676
1050.0	0.0006203	40.6399998665
1050.0	0.000623	40.6870000362
1050.0	0.000625	40.7339999676
1050.0	0.0006268	40.7649998665
1050.0	0.000628	40.8120000362
1050.0	0.0006293	40.8429999352
1050.0	0.00063	40.8899998665
1050.0	0.0006303	40.9370000362
1050.0	0.0006308	40.9679999352
1050.0	0.0006313	41.0149998665
1050.0	0.0006315	41.0620000362
1050.0	0.0006315	41.0929999352
1050.0	0.000632	41.1399998665
1050.0	0.0006325	41.1710000038
1050.0	0.0006325	41.2179999352
1050.0	0.0006325	41.2649998665
1050.0	0.0006328	41.2960000038
1050.0	0.0006333	41.3429999352
1050.0	0.0006338	41.3899998665
1050.0	0.0006338	41.4370000362
1050.0	0.000634	41.4679999352
1050.0	0.000634	41.5149998665
1050.0	0.0006343	41.5460000038
1050.0	0.0006343	41.5929999352
1050.0	0.000634	41.6399998665
1050.0	0.0006338	41.6710000038
1050.0	0.0006338	41.7179999352
1050.0	0.0006338	41.7649998665
1050.0	0.000634	41.7960000038
1050.0	0.0006338	41.8429999352
1050.0	0.0006338	41.875
1050.0	0.0006338	41.9210000038
1050.0	0.0006338	41.9679999352
1050.0	0.0006338	42.0
1050.0	0.0006338	42.0460000038
1060.0	0.0006453	42.3279998302
1060.0	0.0006488	42.375
1060.0	0.0006518	42.4210000038
1060.0	0.000654	42.4529998302
1060.0	0.000656	42.5
1060.0	0.0006575	42.5460000038
1060.0	0.000659	42.5779998302
1060.0	0.00066	42.625
1060.0	0.0006603	42.6559998989
1060.0	0.0006605	42.7029998302
1060.0	0.000661	42.75
1060.0	0.0006613	42.7809998989
1060.0	0.0006615	42.8279998302
1060.0	0.0006618	42.875
1060.0	0.0006623	42.9059998989
1060.0	0.0006625	42.9529998302
1060.0	0.0006628	43.0
1060.0	0.0006628	43.0309998989
1060.0	0.0006628	43.0779998302
1060.0	0.000663	43.125
1060.0	0.000663	43.1559998989
1060.0	0.0006635	43.2029998302
1060.0	0.000663	43.2339999676
1060.0	0.0006628	43.2809998989
1060.0	0.0006625	43.3279998302
1060.0	0.0006628	43.3589999676
1060.0	0.0006628	43.4059998989
1060.0	0.0006628	43.4529998302
1060.0	0.0006625	43.4839999676
1060.0	0.0006623	43.5309998989
1060.0	0.0006618	43.5620000362
1060.0	0.0006618	43.6089999676
1060.0	0.0006618	43.6559998989
1060.0	0.0006618	43.6870000362
1060.0	0.0006623	43.7339999676
1060.0	0.0006623	43.7809998989
1060.0	0.0006618	43.8120000362
1070.0	0.0006718	44.0929999352
1070.0	0.0006753	44.1399998665
1070.0	0.0006785	44.1870000362
1070.0	0.000681	44.2179999352
1070.0	0.0006825	44.2649998665
1070.0	0.0006838	44.2960000038
1070.0	0.0006853	44.3429999352
1070.0	0.0006863	44.3899998665
1070.0	0.0006868	44.4210000038
1070.0	0.0006873	44.4679999352
1070.0	0.0006873	44.5149998665
1070.0	0.0006875	44.5460000038
1070.0	0.0006875	44.5929999352
1070.0	0.0006875	44.6399998665
1070.0	0.0006875	44.6710000038
1070.0	0.0006873	44.7179999352
1070.0	0.0006873	44.7649998665
1070.0	0.0006873	44.7960000038
1070.0	0.0006873	44.8429999352
1070.0	0.0006873	44.8899998665
1070.0	0.0006873	44.9210000038
1070.0	0.0006873	44.9679999352
1070.0	0.0006873	45.0
1070.0	0.0006875	45.0460000038
1070.0	0.000688	45.0929999352
1070.0	0.0006885	45.125
1070.0	0.0006878	45.1710000038
1070.0	0.0006878	45.2179999352
1070.0	0.0006878	45.25
1070.0	0.0006885	45.2960000038
1070.0	0.0006885	45.3429999352
1070.0	0.0006885	45.375
1070.0	0.0006885	45.4210000038
1070.0	0.0006885	45.4529998302
1070.0	0.000688	45.5
1070.0	0.000688	45.5460000038
1070.0	0.0006878	45.5779998302
1080.0	0.0006985	45.8589999676
1080.0	0.0007015	45.9059998989
1080.0	0.000704	45.9529998302
1080.0	0.0007065	46.0
1080.0	0.000708	46.0309998989
1080.0	0.000709	46.0779998302
1080.0	0.00071	46.125
1080.0	0.000711	46.1559998989
1080.0	0.0007115	46.2029998302
1080.0	0.0007125	46.25
1080.0	0.0007128	46.2809998989
1080.0	0.0007135	46.3279998302
1080.0	0.0007138	46.375
1080.0	0.000714	46.4059998989
1080.0	0.0007148	46.4529998302
1080.0	0.0007143	46.4839999676
1080.0	0.0007143	46.5309998989
1080.0	0.0007143	46.5779998302
1080.0	0.0007143	46.6089999676
1080.0	0.0007143	46.6559998989
1080.0	0.0007148	46.6870000362
1080.0	0.0007148	46.7339999676
1080.0	0.0007148	46.7809998989
1080.0	0.0007143	46.8120000362
1080.0	0.0007148	46.8589999676
1080.0	0.000715	46.9059998989
1080.0	0.0007148	46.9370000362
1080.0	0.0007148	46.9839999676
1080.0	0.0007148	47.0149998665
1080.0	0.000715	47.0620000362
1080.0	0.0007153	47.1089999676
1080.0	0.000715	47.1399998665
1080.0	0.000715	47.1870000362
1080.0	0.0007153	47.2339999676
1080.0	0.0007153	47.2649998665
1080.0	0.0007153	47.3120000362
1080.0	0.000716	47.3589999676
1090.0	0.000726	47.6399998665
1090.0	0.0007288	47.6710000038
1090.0	0.0007315	47.7179999352
1090.0	0.0007335	47.7649998665
1090.0	0.000735	47.7960000038
1090.0	0.0007363	47.8429999352
1090.0	0.0007378	47.8899998665
1090.0	0.000739	47.9210000038
1090.0	0.0007398	47.9679999352
1090.0	0.0007403	48.0149998665
1090.0	0.00074	48.0620000362
1090.0	0.00074	48.0929999352
1090.0	0.0007403	48.1399998665
1090.0	0.0007405	48.1870000362
1090.0	0.0007403	48.2179999352
1090.0	0.0007405	48.2649998665
1090.0	0.000741	48.3120000362
1090.0	0.000741	48.3429999352
1090.0	0.000741	48.3899998665
1090.0	0.0007413	48.4210000038
1090.0	0.0007413	48.4679999352
1090.0	0.0007413	48.5149998665
1090.0	0.0007413	48.5620000362
1090.0	0.0007415	48.5929999352
1090.0	0.0007413	48.6399998665
1090.0	0.0007413	48.6710000038
1090.0	0.0007413	48.7179999352
1090.0	0.0007413	48.7649998665
1090.0	0.000741	48.7960000038
1090.0	0.000741	48.8429999352
1090.0	0.0007405	48.8899998665
1090.0	0.0007405	48.9210000038
1090.0	0.0007405	48.9679999352
1090.0	0.000741	49.0149998665
1090.0	0.000741	49.0460000038
1090.0	0.000741	49.0929999352
1100.0	0.0007503	49.375
1100.0	0.0007528	49.4210000038
1100.0	0.0007548	49.4529998302
1100.0	0.0007565	49.5
1100.0	0.0007578	49.5460000038
1100.0	0.0007588	49.5779998302
1100.0	0.0007593	49.625
1100.0	0.0007603	49.6710000038
1100.0	0.0007603	49.7029998302
1100.0	0.000761	49.75
1100.0	0.0007613	49.7809998989
1100.0	0.0007618	49.8279998302
1100.0	0.0007615	49.875
1100.0	0.0007613	49.9059998989
1100.0	0.0007613	49.9529998302
1100.0	0.000761	50.0
1100.0	0.0007605	50.0309998989
1100.0	0.0007605	50.0779998302
1100.0	0.000761	50.1089999676
1100.0	0.0007605	50.1559998989
1100.0	0.000761	50.2029998302
1100.0	0.000761	50.2339999676
1100.0	0.0007613	50.2809998989
1100.0	0.0007613	50.3279998302
1100.0	0.0007613	50.3589999676
1100.0	0.0007613	50.4059998989
1100.0	0.000761	50.4370000362
1100.0	0.000761	50.4839999676
1100.0	0.0007613	50.5309998989
1100.0	0.0007615	50.5779998302
1100.0	0.0007615	50.6089999676
1100.0	0.0007613	50.6559998989
1100.0	0.000761	50.7029998302
1100.0	0.0007603	50.7339999676
1100.0	0.00076	50.7809998989
1100.0	0.0007598	50.8120000362
1100.0	0.0007593	50.8589999676
1110.0	0.000766	51.1399998665
1110.0	0.0007688	51.1870000362
1110.0	0.0007705	51.2179999352
1110.0	0.0007723	51.2649998665
1110.0	0.0007738	51.2960000038
1110.0	0.0007748	51.3429999352
1110.0	0.0007753	51.3899998665
1110.0	0.000776	51.4210000038
1110.0	0.0007763	51.4679999352
1110.0	0.0007765	51.5149998665
1110.0	0.0007768	51.5460000038
1110.0	0.0007773	51.5929999352
1110.0	0.0007773	51.6399998665
1110.0	0.0007773	51.6710000038
1110.0	0.0007775	51.7179999352
1110.0	0.0007775	51.7649998665
1110.0	0.0007775	51.7960000038
1110.0	0.0007775	51.8429999352
1110.0	0.0007775	51.8899998665
1110.0	0.0007778	51.9210000038
1110.0	0.0007785	51.9679999352
1110.0	0.0007785	52.0
1110.0	0.000778	52.0460000038
1110.0	0.0007785	52.0929999352
1110.0	0.000778	52.125
1110.0	0.000778	52.1710000038
1110.0	0.0007785	52.2179999352
1110.0	0.0007785	52.25
1110.0	0.0007785	52.2960000038
1110.0	0.0007788	52.3279998302
1110.0	0.0007788	52.375
1110.0	0.0007788	52.4210000038
1110.0	0.0007788	52.4529998302
1110.0	0.0007788	52.5
1110.0	0.0007788	52.5460000038
1110.0	0.0007788	52.5779998302
1110.0	0.0007788	52.625
1120.0	0.0007853	52.9059998989
1120.0	0.000788	52.9370000362
1120.0	0.00079	52.9839999676
1120.0	0.0007915	53.0309998989
1120.0	0.0007925	53.0620000362
1120.0	0.0007938	53.1089999676
1120.0	0.0007943	53.1399998665
1120.0	0.000795	53.1870000362
1120.0	0.0007955	53.2339999676
1120.0	0.000796	53.2649998665
1120.0	0.0007955	53.3120000362
1120.0	0.0007955	53.3589999676
1120.0	0.0007955	53.3899998665
1120.0	0.0007955	53.4370000362
1120.0	0.000796	53.4679999352
1120.0	0.000796	53.5149998665
1120.0	0.0007963	53.5620000362
1120.0	0.0007963	53.5929999352
1120.0	0.0007963	53.6399998665
1120.0	0.0007965	53.6870000362
1120.0	0.0007973	53.7179999352
1120.0	0.0007973	53.7649998665
1120.0	0.0007978	53.8120000362
1120.0	0.0007985	53.8429999352
1120.0	0.0007985	53.8899998665
1120.0	0.0007985	53.9370000362
1120.0	0.000798	53.9679999352
1120.0	0.000798	54.0149998665
1120.0	0.000798	54.0620000362
1120.0	0.000798	54.0929999352
1120.0	0.000798	54.1399998665
1120.0	0.000798	54.1710000038
1120.0	0.000798	54.2179999352
1120.0	0.000798	54.2649998665
1120.0	0.0007985	54.2960000038
1120.0	0.0007988	54.3429999352
1120.0	0.0007985	54.3899998665
1130.0	0.0008043	54.6559998989
1130.0	0.0008065	54.7029998302
1130.0	0.0008078	54.7339999676
1130.0	0.0008088	54.7809998989
1130.0	0.0008098	54.8279998302
1130.0	0.0008103	54.8589999676
1130.0	0.000811	54.9059998989
1130.0	0.000811	54.9529998302
1130.0	0.000811	54.9839999676
1130.0	0.0008113	55.0309998989
1130.0	0.0008118	55.0620000362
1130.0	0.0008118	55.1089999676
1130.0	0.0008125	55.1559998989
1130.0	0.0008125	55.1870000362
1130.0	0.0008128	55.2339999676
1130.0	0.0008128	55.2809998989
1130.0	0.0008128	55.3120000362
1130.0	0.0008135	55.3589999676
1130.0	0.0008135	55.4059998989
1130.0	0.0008135	55.4370000362
1130.0	0.000813	55.4839999676
1130.0	0.0008128	55.5309998989
1130.0	0.0008125	55.5620000362
1130.0	0.0008125	55.6089999676
1130.0	0.0008128	55.6559998989
1130.0	0.0008125	55.6870000362
1130.0	0.0008125	55.7339999676
1130.0	0.0008125	55.7649998665
1130.0	0.0008125	55.8120000362
1130.0	0.0008125	55.8589999676
1130.0	0.0008123	55.8899998665
1130.0	0.0008123	55.9370000362
1130.0	0.0008123	55.9839999676
1130.0	0.0008123	56.0149998665
1130.0	0.0008123	56.0620000362
1130.0	0.0008125	56.0929999352
1140.0	0.0008165	56.375
1140.0	0.0008178	56.4059998989
1140.0	0.0008193	56.4529998302
1140.0	0.0008203	56.5
1140.0	0.000821	56.5309998989
1140.0	0.0008215	56.5779998302
1140.0	0.0008223	56.625
1140.0	0.0008225	56.6559998989
1140.0	0.0008228	56.7029998302
1140.0	0.0008228	56.75
1140.0	0.0008228	56.7809998989
1140.0	0.0008228	56.8279998302
1140.0	0.0008228	56.8589999676
1140.0	0.0008225	56.9059998989
1140.0	0.0008225	56.9529998302
1140.0	0.0008225	56.9839999676
1140.0	0.0008228	57.0309998989
1140.0	0.0008223	57.0620000362
1140.0	0.0008223	57.1089999676
1140.0	0.0008223	57.1559998989
1140.0	0.0008223	57.1870000362
1140.0	0.0008223	57.2339999676
1140.0	0.0008223	57.2809998989
1140.0	0.0008225	57.3120000362
1140.0	0.0008225	57.3589999676
1140.0	0.0008225	57.4059998989
1140.0	0.0008223	57.4370000362
1140.0	0.0008223	57.4839999676
1140.0	0.0008225	57.5149998665
1140.0	0.0008225	57.5620000362
1140.0	0.0008225	57.6089999676
1140.0	0.0008228	57.6399998665
1140.0	0.0008223	57.6870000362
1140.0	0.0008218	57.7339999676
1140.0	0.0008223	57.7649998665
1140.0	0.0008223	57.8120000362
1140.0	0.0008223	57.8429999352
1150.0	0.000826	58.125
1150.0	0.0008268	58.1559998989
1150.0	0.000828	58.2029998302
1150.0	0.000829	58.2339999676
1150.0	0.0008298	58.2809998989
1150.0	0.00083	58.3279998302
1150.0	0.00083	58.3589999676
1150.0	0.00083	58.4059998989
1150.0	0.00083	58.4529998302
1150.0	0.00083	58.4839999676
1150.0	0.0008305	58.5309998989
1150.0	0.0008305	58.5620000362
1150.0	0.0008303	58.6089999676
1150.0	0.0008303	58.6559998989
1150.0	0.0008305	58.6870000362
1150.0	0.000831	58.7339999676
1150.0	0.000831	58.7809998989
1150.0	0.000831	58.8120000362
1150.0	0.0008313	58.8589999676
1150.0	0.0008315	58.8899998665
1150.0	0.0008315	58.9370000362
1150.0	0.0008315	58.9839999676
1150.0	0.0008315	59.0149998665
1150.0	0.0008315	59.0620000362
1150.0	0.0008315	59.1089999676
1150.0	0.0008313	59.1399998665
1150.0	0.0008313	59.1870000362
1150.0	0.0008313	59.2339999676
1150.0	0.0008313	59.2649998665
1150.0	0.0008315	59.3120000362
1150.0	0.0008318	59.3429999352
1150.0	0.0008318	59.3899998665
1150.0	0.0008318	59.4370000362
1150.0	0.0008315	59.4679999352
1150.0	0.0008313	59.5149998665
1150.0	0.0008313	59.5620000362
1150.0	0.0008313	59.5929999352
1160.0	0.0008343	59.8589999676
1160.0	0.000836	59.9059998989
1160.0	0.0008363	59.9370000362
1160.0	0.0008373	59.9839999676
1160.0	0.0008385	60.0149998665
1160.0	0.0008393	60.0620000362
1160.0	0.0008403	60.1089999676
1160.0	0.000841	60.1399998665
1160.0	0.0008415	60.1870000362
1160.0	0.0008418	60.2339999676
1160.0	0.0008418	60.2809998989
1160.0	0.0008415	60.3120000362
1160.0	0.0008415	60.3589999676
1160.0	0.0008415	60.3899998665
1160.0	0.0008418	60.4370000362
1160.0	0.0008423	60.4839999676
1160.0	0.0008423	60.5149998665
1160.0	0.0008423	60.5620000362
1160.0	0.0008425	60.6089999676
1160.0	0.0008428	60.6399998665
1160.0	0.000843	60.6870000362
1160.0	0.0008428	60.7339999676
1160.0	0.0008428	60.7649998665
1160.0	0.0008425	60.8120000362
1160.0	0.0008425	60.8589999676
1160.0	0.0008425	60.8899998665
1160.0	0.0008428	60.9370000362
1160.0	0.0008428	60.9839999676
1160.0	0.0008428	61.0149998665
1160.0	0.0008428	61.0620000362
1160.0	0.0008428	61.1089999676
1160.0	0.000843	61.1399998665
1160.0	0.0008435	61.1870000362
1160.0	0.000844	61.2339999676
1160.0	0.000844	61.2649998665
1160.0	0.000844	61.3120000362
1170.0	0.000848	61.5620000362
1170.0	0.0008493	61.6089999676
1170.0	0.0008503	61.6559998989
1170.0	0.0008513	61.6870000362
1170.0	0.0008515	61.7339999676
1170.0	0.0008523	61.7649998665
1170.0	0.0008523	61.8120000362
1170.0	0.0008523	61.8589999676
1170.0	0.0008518	61.8899998665
1170.0	0.0008518	61.9370000362
1170.0	0.0008525	61.9839999676
1170.0	0.000853	62.0149998665
1170.0	0.0008535	62.0620000362
1170.0	0.0008538	62.0929999352
1170.0	0.000854	62.1399998665
1170.0	0.0008543	62.1870000362
1170.0	0.0008543	62.2339999676
1170.0	0.000855	62.2649998665
1170.0	0.000855	62.3120000362
1170.0	0.0008543	62.3589999676
1170.0	0.0008543	62.3899998665
1170.0	0.000854	62.4370000362
1170.0	0.000854	62.4679999352
1170.0	0.000854	62.5149998665
1170.0	0.000854	62.5620000362
1170.0	0.000854	62.5929999352
1170.0	0.0008543	62.6399998665
1170.0	0.000854	62.6870000362
1170.0	0.0008543	62.7179999352
1170.0	0.000854	62.7649998665
1170.0	0.000854	62.7960000038
1170.0	0.0008543	62.8429999352
1170.0	0.0008543	62.8899998665
1170.0	0.000855	62.9210000038
1170.0	0.000855	62.9679999352
1170.0	0.0008548	63.0149998665
1170.0	0.0008548	63.0460000038
1180.0	0.0008568	63.3120000362
1180.0	0.0008585	63.3429999352
1180.0	0.0008598	63.3899998665
1180.0	0.0008605	63.4370000362
1180.0	0.0008615	63.4679999352
1180.0	0.0008623	63.5149998665
1180.0	0.0008625	63.5620000362
1180.0	0.0008628	63.5929999352
1180.0	0.000863	63.6399998665
1180.0	0.000863	63.6710000038
1180.0	0.0008628	63.7179999352
1180.0	0.0008628	63.7649998665
1180.0	0.0008628	63.7960000038
1180.0	0.000863	63.8429999352
1180.0	0.000863	63.8899998665
1180.0	0.0008635	63.9210000038
1180.0	0.0008635	63.9679999352
1180.0	0.000863	64.0
1180.0	0.0008628	64.0460000038
1180.0	0.0008625	64.0929999352
1180.0	0.0008623	64.125
1180.0	0.0008623	64.1710000038
1180.0	0.0008623	64.2179999352
1180.0	0.0008623	64.25
1180.0	0.0008625	64.2960000038
1180.0	0.0008623	64.3429999352
1180.0	0.0008625	64.375
1180.0	0.0008628	64.4210000038
1180.0	0.0008628	64.4529998302
1180.0	0.0008625	64.5
1180.0	0.0008623	64.5460000038
1180.0	0.0008615	64.5779998302
1180.0	0.0008613	64.625
1180.0	0.000861	64.6710000038
1180.0	0.000861	64.7029998302
1180.0	0.000861	64.75
1180.0	0.000861	64.7809998989
1190.0	0.000864	65.0460000038
1190.0	0.0008653	65.0929999352
1190.0	0.0008663	65.1399998665
1190.0	0.0008673	65.1710000038
1190.0	0.0008678	65.2179999352
1190.0	0.0008685	65.25
1190.0	0.000869	65.2960000038
1190.0	0.0008698	65.3429999352
1190.0	0.0008698	65.375
1190.0	0.0008698	65.4210000038
1190.0	0.0008693	65.4679999352
1190.0	0.000869	65.5
1190.0	0.0008688	65.5460000038
1190.0	0.0008685	65.5779998302
1190.0	0.0008688	65.625
1190.0	0.0008685	65.6710000038
1190.0	0.0008688	65.7029998302
1190.0	0.000869	65.75
1190.0	0.0008698	65.7960000038
1190.0	0.0008698	65.8279998302
1190.0	0.00087	65.875
1190.0	0.0008703	65.9059998989
1190.0	0.0008703	65.9529998302
1190.0	0.0008705	66.0
1190.0	0.0008705	66.0309998989
1190.0	0.0008705	66.0779998302
1190.0	0.0008705	66.125
1190.0	0.0008703	66.1559998989
1190.0	0.00087	66.2029998302
1190.0	0.0008698	66.2339999676
1190.0	0.0008693	66.2809998989
1190.0	0.000869	66.3279998302
1190.0	0.0008688	66.3589999676
1190.0	0.0008688	66.4059998989
1190.0	0.0008688	66.4529998302
1190.0	0.0008688	66.4839999676
1190.0	0.000869	66.5309998989
1200.0	0.0008725	66.7960000038
1200.0	0.0008738	66.8279998302
1200.0	0.0008748	66.875
1200.0	0.0008755	66.9210000038
1200.0	0.000876	66.9529998302
1200.0	0.0008768	67.0
1200.0	0.0008773	67.0309998989
1200.0	0.0008775	67.0779998302
1200.0	0.0008778	67.125
1200.0	0.000878	67.1559998989
1200.0	0.0008785	67.2029998302
1200.0	0.0008788	67.25
1200.0	0.0008788	67.2960000038
1200.0	0.0008785	67.3279998302
1200.0	0.0008785	67.375
1200.0	0.0008785	67.4059998989
1200.0	0.0008788	67.4529998302
1200.0	0.000879	67.5
1200.0	0.0008798	67.5309998989
1200.0	0.0008798	67.5779998302
1200.0	0.0008798	67.625
1200.0	0.000879	67.6559998989
1200.0	0.000879	67.7029998302
1200.0	0.000879	67.7339999676
1200.0	0.0008788	67.7809998989
1200.0	0.0008793	67.8279998302
1200.0	0.0008798	67.8589999676
1200.0	0.00088	67.9059998989
1200.0	0.0008798	67.9529998302
1200.0	0.00088	67.9839999676
1200.0	0.0008798	68.0309998989
1200.0	0.0008798	68.0779998302
1200.0	0.0008798	68.1089999676
1200.0	0.0008798	68.1559998989
1200.0	0.0008798	68.2029998302
1200.0	0.000879	68.2339999676
1200.0	0.000879	68.2809998989
1210.0	0.0008828	68.5460000038
1210.0	0.0008848	68.5929999352
1210.0	0.0008863	68.625
1210.0	0.0008875	68.6710000038
1210.0	0.0008885	68.7179999352
1210.0	0.0008893	68.75
1210.0	0.0008898	68.7960000038
1210.0	0.0008903	68.8429999352
1210.0	0.0008905	68.875
1210.0	0.000891	68.9210000038
1210.0	0.000891	68.9679999352
1210.0	0.000891	69.0
1210.0	0.0008913	69.0460000038
1210.0	0.0008913	69.0929999352
1210.0	0.0008913	69.125
1210.0	0.0008913	69.1710000038
1210.0	0.0008913	69.2179999352
1210.0	0.0008915	69.25
1210.0	0.0008918	69.2960000038
1210.0	0.0008918	69.3279998302
1210.0	0.0008923	69.375
1210.0	0.0008925	69.4210000038
1210.0	0.0008923	69.4529998302
1210.0	0.0008918	69.5
1210.0	0.0008918	69.5460000038
1210.0	0.0008918	69.5779998302
1210.0	0.0008918	69.625
1210.0	0.0008915	69.6559998989
1210.0	0.0008918	69.7029998302
1210.0	0.0008918	69.75
1210.0	0.0008915	69.7809998989
1210.0	0.0008918	69.8279998302
1210.0	0.0008918	69.875
1210.0	0.0008918	69.9210000038
1210.0	0.0008923	69.9529998302
1210.0	0.0008923	70.0
1220.0	0.0008968	70.2649998665
1220.0	0.0008985	70.2960000038
1220.0	0.0008993	70.3429999352
1220.0	0.0009003	70.3899998665
1220.0	0.0009013	70.4210000038
1220.0	0.0009023	70.4679999352
1220.0	0.0009028	70.5149998665
1220.0	0.000903	70.5460000038
1220.0	0.0009035	70.5929999352
1220.0	0.0009035	70.625
1220.0	0.0009038	70.6710000038
1220.0	0.000904	70.7179999352
1220.0	0.0009043	70.75
1220.0	0.000904	70.7960000038
1220.0	0.000904	70.8429999352
1220.0	0.0009043	70.875
1220.0	0.0009043	70.9210000038
1220.0	0.0009043	70.9679999352
1220.0	0.000904	71.0
1220.0	0.000904	71.0460000038
1220.0	0.0009043	71.0929999352
1220.0	0.000904	71.125
1220.0	0.0009043	71.1710000038
1220.0	0.0009048	71.2179999352
1220.0	0.0009043	71.25
1220.0	0.0009043	71.2960000038
1220.0	0.0009038	71.3279998302
1220.0	0.0009035	71.375
1220.0	0.0009038	71.4210000038
1220.0	0.0009038	71.4529998302
1220.0	0.000904	71.5
1220.0	0.0009038	71.5460000038
1220.0	0.0009035	71.5779998302
1220.0	0.0009038	71.625
1220.0	0.0009038	71.6559998989
1220.0	0.0009038	71.7029998302
1220.0	0.000904	71.75
1230.0	0.0009073	72.0149998665
1230.0	0.0009088	72.0620000362
1230.0	0.0009103	72.0929999352
1230.0	0.0009113	72.1399998665
1230.0	0.0009118	72.1870000362
1230.0	0.0009128	72.2179999352
1230.0	0.0009135	72.2649998665
1230.0	0.0009138	72.2960000038
1230.0	0.000914	72.3429999352
1230.0	0.000914	72.3899998665
1230.0	0.000914	72.4210000038
1230.0	0.000914	72.4679999352
1230.0	0.000914	72.5149998665
1230.0	0.000914	72.5460000038
1230.0	0.0009135	72.5929999352
1230.0	0.0009135	72.625
1230.0	0.0009135	72.6710000038
1230.0	0.0009138	72.7179999352
1230.0	0.0009135	72.75
1230.0	0.0009135	72.7960000038
1230.0	0.0009135	72.8429999352
1230.0	0.0009135	72.8899998665
1230.0	0.0009135	72.9210000038
1230.0	0.0009135	72.9679999352
1230.0	0.000913	73.0
1230.0	0.0009128	73.0460000038
1230.0	0.0009128	73.0929999352
1230.0	0.0009128	73.125
1230.0	0.000913	73.1710000038
1230.0	0.0009128	73.2179999352
1230.0	0.0009128	73.25
1230.0	0.000913	73.2960000038
1230.0	0.0009128	73.3279998302
1230.0	0.0009125	73.375
1230.0	0.0009123	73.4210000038
1230.0	0.0009125	73.4529998302
1230.0	0.0009125	73.5
1240.0	0.000916	73.7649998665
1240.0	0.0009173	73.8120000362
1240.0	0.0009185	73.8589999676
1240.0	0.00092	73.8899998665
1240.0	0.000921	73.9370000362
1240.0	0.0009213	73.9839999676
1240.0	0.0009215	74.0149998665
1240.0	0.0009218	74.0620000362
1240.0	0.0009223	74.1089999676
1240.0	0.0009225	74.1399998665
1240.0	0.0009228	74.1870000362
1240.0	0.000923	74.2179999352
1240.0	0.000923	74.2649998665
1240.0	0.0009228	74.3120000362
1240.0	0.000923	74.3429999352
1240.0	0.0009235	74.3899998665
1240.0	0.0009235	74.4370000362
1240.0	0.0009235	74.4679999352
1240.0	0.0009235	74.5149998665
1240.0	0.0009228	74.5620000362
1240.0	0.0009228	74.5929999352
1240.0	0.0009228	74.6399998665
1240.0	0.0009235	74.6710000038
1240.0	0.0009235	74.7179999352
1240.0	0.0009235	74.7649998665
1240.0	0.0009238	74.7960000038
1240.0	0.0009238	74.8429999352
1240.0	0.0009235	74.8899998665
1240.0	0.000923	74.9210000038
1240.0	0.0009228	74.9679999352
1240.0	0.0009225	75.0
1240.0	0.0009228	75.0460000038
1240.0	0.000923	75.0929999352
1240.0	0.0009235	75.125
1240.0	0.000923	75.1710000038
1240.0	0.000923	75.2179999352
1240.0	0.0009235	75.25
1250.0	0.0009273	75.5309998989
1250.0	0.0009285	75.5620000362
1250.0	0.00093	75.6089999676
1250.0	0.000931	75.6559998989
1250.0	0.0009318	75.6870000362
1250.0	0.0009325	75.7339999676
1250.0	0.000933	75.7809998989
1250.0	0.0009338	75.8120000362
1250.0	0.000934	75.8589999676
1250.0	0.0009343	75.8899998665
1250.0	0.0009348	75.9370000362
1250.0	0.0009348	75.9839999676
1250.0	0.000935	76.0149998665
1250.0	0.0009348	76.0620000362
1250.0	0.000935	76.1089999676
1250.0	0.0009353	76.1399998665
1250.0	0.000936	76.1870000362
1250.0	0.000936	76.2179999352
1250.0	0.0009363	76.2649998665
1250.0	0.0009363	76.3120000362
1250.0	0.000936	76.3429999352
1250.0	0.000936	76.3899998665
1250.0	0.000936	76.4370000362
1250.0	0.000936	76.4679999352
1250.0	0.0009363	76.5149998665
1250.0	0.0009365	76.5620000362
1250.0	0.0009368	76.5929999352
1250.0	0.0009373	76.6399998665
1250.0	0.0009373	76.6710000038
1250.0	0.0009375	76.7179999352
1250.0	0.0009378	76.7649998665
1250.0	0.0009378	76.7960000038
1250.0	0.0009378	76.8429999352
1250.0	0.0009375	76.8899998665
1250.0	0.0009375	76.9210000038
1250.0	0.0009375	76.9679999352
1250.0	0.0009375	77.0
1260.0	0.0009415	77.2809998989
1260.0	0.0009428	77.3120000362
1260.0	0.0009438	77.3589999676
1260.0	0.0009448	77.4059998989
1260.0	0.0009453	77.4370000362
1260.0	0.000946	77.4839999676
1260.0	0.0009465	77.5309998989
1260.0	0.0009465	77.5620000362
1260.0	0.0009465	77.6089999676
1260.0	0.0009468	77.6399998665
1260.0	0.0009468	77.6870000362
1260.0	0.0009473	77.7339999676
1260.0	0.0009473	77.7649998665
1260.0	0.0009475	77.8120000362
1260.0	0.0009478	77.8589999676
1260.0	0.000948	77.8899998665
1260.0	0.000948	77.9370000362
1260.0	0.0009478	77.9679999352
1260.0	0.0009478	78.0149998665
1260.0	0.0009478	78.0620000362
1260.0	0.000948	78.1089999676
1260.0	0.0009478	78.1559998989
1260.0	0.0009475	78.1870000362
1260.0	0.0009473	78.2339999676
1260.0	0.0009475	78.2649998665
1260.0	0.0009478	78.3120000362
1260.0	0.0009478	78.3589999676
1260.0	0.0009478	78.3899998665
1260.0	0.0009478	78.4370000362
1260.0	0.0009473	78.4839999676
1260.0	0.0009473	78.5149998665
1260.0	0.0009475	78.5620000362
1260.0	0.0009475	78.5929999352
1260.0	0.0009473	78.6399998665
1260.0	0.0009468	78.6870000362
1260.0	0.0009468	78.7179999352
1260.0	0.0009468	78.7649998665
1270.0	0.0009498	79.0309998989
1270.0	0.0009505	79.0779998302
1270.0	0.0009513	79.125
1270.0	0.0009518	79.1559998989
1270.0	0.0009523	79.2029998302
1270.0	0.0009523	79.2339999676
1270.0	0.0009525	79.2809998989
1270.0	0.0009528	79.3279998302
1270.0	0.0009528	79.3589999676
1270.0	0.0009528	79.4059998989
1270.0	0.0009528	79.4529998302
1270.0	0.0009525	79.4839999676
1270.0	0.0009523	79.5309998989
1270.0	0.0009518	79.5620000362
1270.0	0.0009523	79.6089999676
1270.0	0.0009523	79.6559998989
1270.0	0.0009523	79.6870000362
1270.0	0.0009528	79.7339999676
1270.0	0.000953	79.7809998989
1270.0	0.0009528	79.8120000362
1270.0	0.0009528	79.8589999676
1270.0	0.0009528	79.9059998989
1270.0	0.000953	79.9370000362
1270.0	0.000953	79.9839999676
1270.0	0.000953	80.0309998989
1270.0	0.000953	80.0620000362
1270.0	0.000953	80.1089999676
1270.0	0.0009528	80.1399998665
1270.0	0.0009525	80.1870000362
1270.0	0.0009528	80.2339999676
1270.0	0.0009525	80.2649998665
1270.0	0.0009525	80.3120000362
1270.0	0.0009525	80.3589999676
1270.0	0.0009523	80.3899998665
1270.0	0.0009523	80.4370000362
1270.0	0.0009525	80.4839999676
1280.0	0.0009543	80.75
1280.0	0.0009553	80.7809998989
1280.0	0.0009553	80.8279998302
1280.0	0.0009555	80.875
1280.0	0.0009555	80.9059998989
1280.0	0.000956	80.9529998302
1280.0	0.000956	80.9839999676
1280.0	0.0009563	81.0309998989
1280.0	0.0009563	81.0779998302
1280.0	0.0009563	81.1089999676
1280.0	0.0009563	81.1559998989
1280.0	0.000956	81.2029998302
1280.0	0.000956	81.2339999676
1280.0	0.0009565	81.2809998989
1280.0	0.0009565	81.3120000362
1280.0	0.0009565	81.3589999676
1280.0	0.0009568	81.4059998989
1280.0	0.0009568	81.4370000362
1280.0	0.0009568	81.4839999676
1280.0	0.0009563	81.5309998989
1280.0	0.0009563	81.5620000362
1280.0	0.0009565	81.6089999676
1280.0	0.0009565	81.6559998989
1280.0	0.0009565	81.6870000362
1280.0	0.0009565	81.7339999676
1280.0	0.0009563	81.7809998989
1280.0	0.0009563	81.8120000362
1280.0	0.0009565	81.8589999676
1280.0	0.0009563	81.9059998989
1280.0	0.0009563	81.9370000362
1280.0	0.000956	81.9839999676
1280.0	0.000956	82.0149998665
1280.0	0.0009565	82.0620000362
1280.0	0.0009563	82.1089999676
1280.0	0.0009563	82.1559998989
1280.0	0.000956	82.1870000362
1280.0	0.0009555	82.2339999676
1290.0	0.0009565	82.5
1290.0	0.0009568	82.5309998989
1290.0	0.0009573	82.5779998302
1290.0	0.0009578	82.6089999676
1290.0	0.0009578	82.6559998989
1290.0	0.0009575	82.7029998302
1290.0	0.0009573	82.7339999676
1290.0	0.0009575	82.7809998989
1290.0	0.000958	82.8279998302
1290.0	0.0009578	82.875
1290.0	0.000958	82.9059998989
1290.0	0.000958	82.9529998302
1290.0	0.0009578	82.9839999676
1290.0	0.000958	83.0309998989
1290.0	0.000958	83.0779998302
1290.0	0.0009585	83.1089999676
1290.0	0.0009585	83.1559998989
1290.0	0.0009585	83.2029998302
1290.0	0.0009588	83.2339999676
1290.0	0.000959	83.2809998989
1290.0	0.0009588	83.3279998302
1290.0	0.000959	83.3589999676
1290.0	0.0009593	83.4059998989
1290.0	0.000959	83.4529998302
1290.0	0.000959	83.4839999676
1290.0	0.0009588	83.5309998989
1290.0	0.000959	83.5620000362
1290.0	0.000959	83.6089999676
1290.0	0.0009593	83.6559998989
1290.0	0.0009593	83.6870000362
1290.0	0.0009593	83.7339999676
1290.0	0.0009593	83.7809998989
1290.0	0.0009593	83.8120000362
1290.0	0.0009598	83.8589999676
1290.0	0.0009593	83.8899998665
1290.0	0.0009598	83.9370000362
1290.0	0.0009598	83.9839999676
1300.0	0.0009585	84.25
1300.0	0.0009578	84.2809998989
1300.0	0.0009578	84.3279998302
1300.0	0.0009573	84.375
1300.0	0.0009573	84.4059998989
1300.0	0.0009575	84.4529998302
1300.0	0.0009573	84.5
1300.0	0.0009573	84.5309998989
1300.0	0.0009573	84.5779998302
1300.0	0.0009575	84.625
1300.0	0.0009578	84.6559998989
1300.0	0.0009575	84.7029998302
1300.0	0.0009575	84.75
1300.0	0.0009575	84.7809998989
1300.0	0.0009573	84.8279998302
1300.0	0.0009573	84.875
1300.0	0.0009573	84.9059998989
1300.0	0.0009573	84.9529998302
1300.0	0.0009573	84.9839999676
1300.0	0.0009573	85.0309998989
1300.0	0.0009573	85.0779998302
1300.0	0.0009568	85.1089999676
1300.0	0.0009573	85.1559998989
1300.0	0.0009573	85.2029998302
1300.0	0.0009575	85.2339999676
1300.0	0.0009573	85.2809998989
1300.0	0.0009575	85.3120000362
1300.0	0.0009575	85.3589999676
1300.0	0.0009578	85.4059998989
1300.0	0.0009578	85.4370000362
1300.0	0.0009578	85.4839999676
1300.0	0.000958	85.5309998989
1300.0	0.000958	85.5620000362
1300.0	0.000958	85.6089999676
1300.0	0.0009578	85.6399998665
1300.0	0.000958	85.6870000362
1300.0	0.0009578	85.7339999676
1310.0	0.0009553	86.0
1310.0	0.0009535	86.0460000038
1310.0	0.0009523	86.0779998302
1310.0	0.000951	86.125
1310.0	0.00095	86.1559998989
1310.0	0.0009498	86.2029998302
1310.0	0.0009493	86.25
1310.0	0.000949	86.2809998989
1310.0	0.0009485	86.3279998302
1310.0	0.0009478	86.3589999676
1310.0	0.0009475	86.4059998989
1310.0	0.0009475	86.4529998302
1310.0	0.0009475	86.4839999676
1310.0	0.0009468	86.5309998989
1310.0	0.0009465	86.5779998302
1310.0	0.0009463	86.6089999676
1310.0	0.0009465	86.6559998989
1310.0	0.0009468	86.7029998302
1310.0	0.0009468	86.7339999676
1310.0	0.0009468	86.7809998989
1310.0	0.0009468	86.8279998302
1310.0	0.0009468	86.8589999676
1310.0	0.0009468	86.9059998989
1310.0	0.0009465	86.9529998302
1310.0	0.0009465	86.9839999676
1310.0	0.0009465	87.0309998989
1310.0	0.0009465	87.0620000362
1310.0	0.0009465	87.1089999676
1310.0	0.0009465	87.1559998989
1310.0	0.0009463	87.1870000362
1310.0	0.0009465	87.2339999676
1310.0	0.0009463	87.2809998989
1310.0	0.0009463	87.3120000362
1310.0	0.0009463	87.3589999676
1310.0	0.0009463	87.3899998665
1310.0	0.0009463	87.4370000362
1310.0	0.0009463	87.4839999676
1320.0	0.0009398	87.75
1320.0	0.0009378	87.7809998989
1320.0	0.0009355	87.8279998302
1320.0	0.000934	87.875
1320.0	0.0009328	87.9059998989
1320.0	0.0009315	87.9529998302
1320.0	0.000931	88.0
1320.0	0.00093	88.0309998989
1320.0	0.0009298	88.0779998302
1320.0	0.0009298	88.125
1320.0	0.0009293	88.1559998989
1320.0	0.0009293	88.2029998302
1320.0	0.000929	88.25
1320.0	0.000929	88.2809998989
1320.0	0.0009288	88.3279998302
1320.0	0.000929	88.375
1320.0	0.000929	88.4059998989
1320.0	0.000929	88.4529998302
1320.0	0.0009293	88.5
1320.0	0.0009298	88.5309998989
1320.0	0.0009298	88.5779998302
1320.0	0.0009298	88.625
1320.0	0.00093	88.6559998989
1320.0	0.00093	88.7029998302
1320.0	0.0009298	88.75
1320.0	0.0009298	88.7809998989
1320.0	0.0009298	88.8279998302
1320.0	0.0009298	88.875
1320.0	0.0009298	88.9059998989
1320.0	0.0009298	88.9529998302
1320.0	0.0009293	88.9839999676
1320.0	0.000929	89.0309998989
1320.0	0.000929	89.0779998302
1320.0	0.000929	89.1089999676
1320.0	0.0009293	89.1559998989
1320.0	0.0009293	89.2029998302
1330.0	0.000921	89.4529998302
1330.0	0.0009175	89.5
1330.0	0.0009148	89.5460000038
1330.0	0.0009125	89.5779998302
1330.0	0.000911	89.625
1330.0	0.0009093	89.6710000038
1330.0	0.0009085	89.7029998302
1330.0	0.000908	89.75
1330.0	0.0009078	89.7809998989
1330.0	0.0009078	89.8279998302
1330.0	0.0009078	89.875
1330.0	0.000908	89.9059998989
1330.0	0.0009085	89.9529998302
1330.0	0.0009085	90.0
1330.0	0.0009085	90.0309998989
1330.0	0.0009078	90.0779998302
1330.0	0.0009078	90.1089999676
1330.0	0.0009078	90.1559998989
1330.0	0.0009078	90.2029998302
1330.0	0.0009078	90.2339999676
1330.0	0.0009078	90.2809998989
1330.0	0.000908	90.3279998302
1330.0	0.000908	90.3589999676
1330.0	0.0009078	90.4059998989
1330.0	0.0009075	90.4370000362
1330.0	0.0009073	90.4839999676
1330.0	0.0009073	90.5309998989
1330.0	0.0009073	90.5620000362
1330.0	0.0009073	90.6089999676
1330.0	0.0009068	90.6559998989
1330.0	0.0009065	90.6870000362
1330.0	0.0009065	90.7339999676
1330.0	0.0009065	90.7809998989
1330.0	0.0009065	90.8120000362
1330.0	0.0009073	90.8589999676
1330.0	0.0009075	90.8899998665
1330.0	0.0009078	90.9370000362
1340.0	0.0008975	91.2029998302
1340.0	0.000893	91.2339999676
1340.0	0.0008903	91.2809998989
1340.0	0.0008875	91.3279998302
1340.0	0.000886	91.3589999676
1340.0	0.000884	91.4059998989
1340.0	0.000883	91.4529998302
1340.0	0.0008828	91.4839999676
1340.0	0.0008828	91.5309998989
1340.0	0.0008823	91.5779998302
1340.0	0.0008815	91.6089999676
1340.0	0.000881	91.6559998989
1340.0	0.00088	91.6870000362
1340.0	0.00088	91.7339999676
1340.0	0.00088	91.7809998989
1340.0	0.0008803	91.8120000362
1340.0	0.0008803	91.8589999676
1340.0	0.0008803	91.9059998989
1340.0	0.00088	91.9370000362
1340.0	0.00088	91.9839999676
1340.0	0.0008803	92.0309998989
1340.0	0.0008805	92.0620000362
1340.0	0.000881	92.1089999676
1340.0	0.0008805	92.1559998989
1340.0	0.0008805	92.1870000362
1340.0	0.0008805	92.2339999676
1340.0	0.000881	92.2649998665
1340.0	0.0008813	92.3120000362
1340.0	0.0008815	92.3589999676
1340.0	0.0008813	92.3899998665
1340.0	0.0008815	92.4370000362
1340.0	0.0008818	92.4839999676
1340.0	0.0008823	92.5149998665
1340.0	0.0008825	92.5620000362
1340.0	0.0008823	92.6089999676
1340.0	0.0008823	92.6399998665
1340.0	0.0008818	92.6870000362
1350.0	0.0008703	92.9529998302
1350.0	0.0008663	92.9839999676
1350.0	0.0008628	93.0309998989
1350.0	0.00086	93.0779998302
1350.0	0.0008578	93.1089999676
1350.0	0.000856	93.1559998989
1350.0	0.0008548	93.2029998302
1350.0	0.0008538	93.2339999676
1350.0	0.0008528	93.2809998989
1350.0	0.0008523	93.3120000362
1350.0	0.0008515	93.3589999676
1350.0	0.000851	93.4059998989
1350.0	0.0008505	93.4370000362
1350.0	0.0008505	93.4839999676
1350.0	0.000851	93.5309998989
1350.0	0.000851	93.5779998302
1350.0	0.000851	93.6089999676
1350.0	0.000851	93.6559998989
1350.0	0.000851	93.6870000362
1350.0	0.000851	93.7339999676
1350.0	0.0008513	93.7809998989
1350.0	0.0008515	93.8120000362
1350.0	0.0008515	93.8589999676
1350.0	0.0008515	93.9059998989
1350.0	0.0008515	93.9370000362
1350.0	0.000851	93.9839999676
1350.0	0.000851	94.0149998665
1350.0	0.000851	94.0620000362
1350.0	0.0008513	94.1089999676
1350.0	0.0008513	94.1399998665
1350.0	0.0008513	94.1870000362
1350.0	0.0008515	94.2339999676
1350.0	0.0008515	94.2649998665
1350.0	0.0008515	94.3120000362
1350.0	0.0008513	94.3429999352
1350.0	0.000851	94.3899998665
1350.0	0.0008505	94.4370000362
1360.0	0.0008378	94.7029998302
1360.0	0.0008335	94.7339999676
1360.0	0.00083	94.7809998989
1360.0	0.0008273	94.8120000362
1360.0	0.000825	94.8589999676
1360.0	0.0008235	94.9059998989
1360.0	0.0008223	94.9370000362
1360.0	0.000821	94.9839999676
1360.0	0.00082	95.0309998989
1360.0	0.000819	95.0620000362
1360.0	0.0008185	95.1089999676
1360.0	0.0008185	95.1399998665
1360.0	0.000818	95.1870000362
1360.0	0.0008178	95.2339999676
1360.0	0.0008175	95.2649998665
1360.0	0.0008175	95.3120000362
1360.0	0.0008175	95.3589999676
1360.0	0.0008173	95.3899998665
1360.0	0.0008168	95.4370000362
1360.0	0.0008165	95.4679999352
1360.0	0.0008165	95.5149998665
1360.0	0.0008165	95.5620000362
1360.0	0.0008168	95.5929999352
1360.0	0.0008168	95.6399998665
1360.0	0.0008165	95.6870000362
1360.0	0.0008165	95.7179999352
1360.0	0.0008165	95.7649998665
1360.0	0.0008163	95.8120000362
1360.0	0.000816	95.8429999352
1360.0	0.000816	95.8899998665
1360.0	0.0008165	95.9370000362
1360.0	0.0008165	95.9679999352
1360.0	0.0008163	96.0149998665
1360.0	0.0008163	96.0620000362
1360.0	0.0008165	96.0929999352
1360.0	0.0008165	96.1399998665
1360.0	0.0008165	96.1870000362
1370.0	0.0008038	96.4370000362
1370.0	0.0007993	96.4839999676
1370.0	0.000796	96.5309998989
1370.0	0.0007928	96.5620000362
1370.0	0.0007903	96.6089999676
1370.0	0.0007885	96.6399998665
1370.0	0.0007865	96.6870000362
1370.0	0.0007853	96.7339999676
1370.0	0.0007843	96.7649998665
1370.0	0.0007838	96.8120000362
1370.0	0.0007838	96.8589999676
1370.0	0.0007835	96.8899998665
1370.0	0.0007838	96.9370000362
1370.0	0.0007838	96.9839999676
1370.0	0.0007835	97.0149998665
1370.0	0.000783	97.0620000362
1370.0	0.0007835	97.1089999676
1370.0	0.000783	97.1399998665
1370.0	0.0007828	97.1870000362
1370.0	0.0007828	97.2339999676
1370.0	0.000783	97.2649998665
1370.0	0.0007828	97.3120000362
1370.0	0.0007825	97.3429999352
1370.0	0.0007823	97.3899998665
1370.0	0.0007823	97.4370000362
1370.0	0.0007818	97.4679999352
1370.0	0.0007823	97.5149998665
1370.0	0.0007823	97.5620000362
1370.0	0.0007825	97.5929999352
1370.0	0.0007825	97.6399998665
1370.0	0.0007825	97.6870000362
1370.0	0.0007828	97.7339999676
1370.0	0.0007825	97.7649998665
1370.0	0.0007825	97.8120000362
1370.0	0.0007825	97.8429999352
1370.0	0.0007825	97.8899998665
1370.0	0.0007823	97.9370000362
1380.0	0.0007715	98.2029998302
1380.0	0.0007673	98.2339999676
1380.0	0.000764	98.2809998989
1380.0	0.0007618	98.3120000362
1380.0	0.0007598	98.3589999676
1380.0	0.000758	98.4059998989
1380.0	0.0007573	98.4370000362
1380.0	0.0007565	98.4839999676
1380.0	0.000756	98.5309998989
1380.0	0.0007553	98.5620000362
1380.0	0.000755	98.6089999676
1380.0	0.0007543	98.6399998665
1380.0	0.0007538	98.6870000362
1380.0	0.0007535	98.7339999676
1380.0	0.000753	98.7809998989
1380.0	0.0007528	98.8120000362
1380.0	0.000753	98.8589999676
1380.0	0.000753	98.8899998665
1380.0	0.0007535	98.9370000362
1380.0	0.0007535	98.9839999676
1380.0	0.000753	99.0309998989
1380.0	0.000753	99.0620000362
1380.0	0.0007535	99.1089999676
1380.0	0.0007528	99.1559998989
1380.0	0.0007528	99.1870000362
1380.0	0.0007528	99.2339999676
1380.0	0.0007528	99.2649998665
1380.0	0.0007528	99.3120000362
1380.0	0.000753	99.3589999676
1380.0	0.0007535	99.4059998989
1380.0	0.0007535	99.4370000362
1380.0	0.0007538	99.4839999676
1380.0	0.0007538	99.5149998665
1380.0	0.0007538	99.5620000362
1380.0	0.0007535	99.6089999676
1380.0	0.0007535	99.6399998665
1380.0	0.0007535	99.6870000362
1390.0	0.000743	99.9529998302
1390.0	0.00074	100.0
1390.0	0.0007373	100.030999899
1390.0	0.0007348	100.07799983
1390.0	0.000733	100.125
1390.0	0.0007318	100.155999899
1390.0	0.000731	100.20299983
1390.0	0.0007303	100.233999968
1390.0	0.0007298	100.280999899
1390.0	0.0007298	100.32799983
1390.0	0.0007293	100.375
1390.0	0.0007293	100.405999899
1390.0	0.0007293	100.45299983
1390.0	0.000729	100.483999968
1390.0	0.000729	100.530999899
1390.0	0.0007288	100.57799983
1390.0	0.0007288	100.608999968
1390.0	0.0007288	100.655999899
1390.0	0.0007288	100.70299983
1390.0	0.0007293	100.733999968
1390.0	0.0007298	100.780999899
1390.0	0.0007298	100.812000036
1390.0	0.0007298	100.858999968
1390.0	0.00073	100.905999899
1390.0	0.00073	100.937000036
1390.0	0.00073	100.983999968
1390.0	0.00073	101.030999899
1390.0	0.00073	101.062000036
1390.0	0.00073	101.108999968
1390.0	0.0007303	101.155999899
1390.0	0.0007303	101.187000036
1390.0	0.0007303	101.233999968
1390.0	0.00073	101.280999899
1390.0	0.0007303	101.312000036
1390.0	0.0007303	101.358999968
1390.0	0.00073	101.405999899
1400.0	0.000723	101.671000004
1400.0	0.0007203	101.70299983
1400.0	0.000718	101.75
1400.0	0.0007163	101.796000004
1400.0	0.000715	101.82799983
1400.0	0.0007143	101.875
1400.0	0.000714	101.905999899
1400.0	0.0007135	101.95299983
1400.0	0.000713	102.0
1400.0	0.0007128	102.030999899
1400.0	0.0007128	102.07799983
1400.0	0.0007128	102.125
1400.0	0.0007125	102.155999899
1400.0	0.0007123	102.20299983
1400.0	0.0007125	102.233999968
1400.0	0.0007125	102.280999899
1400.0	0.0007125	102.32799983
1400.0	0.0007125	102.358999968
1400.0	0.0007125	102.405999899
1400.0	0.0007123	102.45299983
1400.0	0.0007125	102.483999968
1400.0	0.0007125	102.530999899
1400.0	0.0007125	102.562000036
1400.0	0.0007125	102.608999968
1400.0	0.0007125	102.655999899
1400.0	0.0007123	102.687000036
1400.0	0.0007123	102.733999968
1400.0	0.0007118	102.780999899
1400.0	0.0007123	102.812000036
1400.0	0.0007125	102.858999968
1400.0	0.0007123	102.905999899
1400.0	0.0007123	102.937000036
1400.0	0.0007123	102.983999968
1400.0	0.0007125	103.014999866
1400.0	0.0007125	103.062000036
1400.0	0.0007125	103.108999968
1400.0	0.0007123	103.139999866
1410.0	0.0007075	103.405999899
1410.0	0.0007055	103.45299983
1410.0	0.000704	103.5
1410.0	0.0007028	103.530999899
1410.0	0.0007015	103.57799983
1410.0	0.000701	103.608999968
1410.0	0.000701	103.655999899
1410.0	0.000701	103.70299983
1410.0	0.000701	103.733999968
1410.0	0.000701	103.780999899
1410.0	0.000701	103.82799983
1410.0	0.000701	103.875
1410.0	0.0007005	103.905999899
1410.0	0.0007005	103.95299983
1410.0	0.0007003	103.983999968
1410.0	0.000701	104.030999899
1410.0	0.000701	104.07799983
1410.0	0.000701	104.108999968
1410.0	0.000701	104.155999899
1410.0	0.000701	104.20299983
1410.0	0.000701	104.233999968
1410.0	0.0007005	104.280999899
1410.0	0.0007003	104.312000036
1410.0	0.0007	104.358999968
1410.0	0.0007	104.405999899
1410.0	0.0006998	104.437000036
1410.0	0.0006998	104.483999968
1410.0	0.0007	104.530999899
1410.0	0.0007	104.562000036
1410.0	0.0007003	104.608999968
1410.0	0.0007005	104.655999899
1410.0	0.0007005	104.687000036
1410.0	0.0007005	104.733999968
1410.0	0.0007003	104.780999899
1410.0	0.0007003	104.812000036
1410.0	0.0007003	104.858999968
1410.0	0.0007003	104.905999899
1420.0	0.0006975	105.171000004
1420.0	0.0006965	105.20299983
1420.0	0.000696	105.25
1420.0	0.0006948	105.296000004
1420.0	0.000694	105.32799983
1420.0	0.0006935	105.375
1420.0	0.0006935	105.405999899
1420.0	0.000693	105.45299983
1420.0	0.000693	105.5
1420.0	0.000693	105.530999899
1420.0	0.0006928	105.57799983
1420.0	0.0006923	105.625
1420.0	0.0006923	105.655999899
1420.0	0.0006923	105.70299983
1420.0	0.0006925	105.75
1420.0	0.0006925	105.780999899
1420.0	0.0006928	105.82799983
1420.0	0.0006928	105.875
1420.0	0.0006928	105.905999899
1420.0	0.0006925	105.95299983
1420.0	0.0006928	106.0
1420.0	0.0006928	106.030999899
1420.0	0.0006925	106.07799983
1420.0	0.0006925	106.125
1420.0	0.0006925	106.155999899
1420.0	0.0006923	106.20299983
1420.0	0.0006923	106.233999968
1420.0	0.0006923	106.280999899
1420.0	0.0006923	106.32799983
1420.0	0.0006925	106.358999968
1420.0	0.0006925	106.405999899
1420.0	0.0006925	106.45299983
1420.0	0.0006925	106.483999968
1420.0	0.0006923	106.530999899
1420.0	0.0006923	106.57799983
1420.0	0.0006923	106.608999968
1420.0	0.0006923	106.655999899
1430.0	0.0006918	106.921000004
1430.0	0.0006915	106.967999935
1430.0	0.0006915	107.0
1430.0	0.0006913	107.046000004
1430.0	0.0006915	107.092999935
1430.0	0.0006915	107.125
1430.0	0.0006913	107.171000004
1430.0	0.000691	107.217999935
1430.0	0.0006913	107.25
1430.0	0.000691	107.296000004
1430.0	0.000691	107.32799983
1430.0	0.000691	107.375
1430.0	0.0006905	107.421000004
1430.0	0.0006903	107.467999935
1430.0	0.00069	107.5
1430.0	0.00069	107.546000004
1430.0	0.0006898	107.592999935
1430.0	0.0006898	107.625
1430.0	0.0006898	107.671000004
1430.0	0.0006893	107.717999935
1430.0	0.0006893	107.75
1430.0	0.0006898	107.796000004
1430.0	0.0006898	107.82799983
1430.0	0.0006893	107.875
1430.0	0.0006893	107.921000004
1430.0	0.0006893	107.95299983
1430.0	0.0006898	108.0
1430.0	0.0006898	108.046000004
1430.0	0.0006898	108.07799983
1430.0	0.0006898	108.125
1430.0	0.00069	108.171000004
1430.0	0.0006898	108.20299983
1430.0	0.00069	108.25
1430.0	0.00069	108.280999899
1430.0	0.0006898	108.32799983
1430.0	0.0006898	108.375
1440.0	0.0006915	108.639999866
1440.0	0.0006923	108.671000004
1440.0	0.0006935	108.717999935
1440.0	0.000694	108.764999866
1440.0	0.0006943	108.796000004
1440.0	0.000695	108.842999935
1440.0	0.0006953	108.889999866
1440.0	0.0006953	108.921000004
1440.0	0.0006955	108.967999935
1440.0	0.0006955	109.0
1440.0	0.000696	109.046000004
1440.0	0.0006963	109.092999935
1440.0	0.000696	109.125
1440.0	0.0006963	109.171000004
1440.0	0.000696	109.217999935
1440.0	0.0006955	109.25
1440.0	0.0006955	109.296000004
1440.0	0.0006955	109.32799983
1440.0	0.0006955	109.375
1440.0	0.000696	109.421000004
1440.0	0.000696	109.45299983
1440.0	0.0006963	109.5
1440.0	0.0006963	109.546000004
1440.0	0.000696	109.57799983
1440.0	0.0006963	109.625
1440.0	0.0006963	109.655999899
1440.0	0.0006963	109.70299983
1440.0	0.0006963	109.75
1440.0	0.000696	109.780999899
1440.0	0.000696	109.82799983
1440.0	0.000696	109.875
1440.0	0.0006955	109.921000004
1440.0	0.0006955	109.95299983
1440.0	0.0006953	110.0
1440.0	0.0006953	110.030999899
1440.0	0.0006955	110.07799983
1440.0	0.000696	110.125
1450.0	0.0006998	110.389999866
1450.0	0.000701	110.421000004
1450.0	0.0007018	110.467999935
1450.0	0.000703	110.514999866
1450.0	0.000704	110.546000004
1450.0	0.0007048	110.592999935
1450.0	0.0007053	110.639999866
1450.0	0.0007055	110.671000004
1450.0	0.0007063	110.717999935
1450.0	0.0007063	110.75
1450.0	0.0007065	110.796000004
1450.0	0.0007068	110.842999935
1450.0	0.0007073	110.875
1450.0	0.0007073	110.921000004
1450.0	0.0007075	110.967999935
1450.0	0.0007075	111.014999866
1450.0	0.0007075	111.046000004
1450.0	0.0007078	111.092999935
1450.0	0.0007078	111.139999866
1450.0	0.0007078	111.171000004
1450.0	0.0007078	111.217999935
1450.0	0.0007078	111.264999866
1450.0	0.0007073	111.296000004
1450.0	0.0007068	111.342999935
1450.0	0.0007065	111.389999866
1450.0	0.0007065	111.421000004
1450.0	0.0007068	111.467999935
1450.0	0.0007068	111.514999866
1450.0	0.0007068	111.546000004
1450.0	0.0007068	111.592999935
1450.0	0.0007068	111.625
1450.0	0.0007063	111.671000004
1450.0	0.0007063	111.717999935
1450.0	0.0007065	111.75
1450.0	0.0007065	111.796000004
1450.0	0.0007065	111.842999935
1460.0	0.0007113	112.108999968
1460.0	0.0007135	112.139999866
1460.0	0.0007153	112.187000036
1460.0	0.0007168	112.217999935
1460.0	0.000718	112.264999866
1460.0	0.0007188	112.312000036
1460.0	0.0007198	112.342999935
1460.0	0.00072	112.389999866
1460.0	0.0007205	112.437000036
1460.0	0.000721	112.467999935
1460.0	0.0007215	112.514999866
1460.0	0.0007215	112.562000036
1460.0	0.0007218	112.592999935
1460.0	0.0007218	112.639999866
1460.0	0.0007223	112.671000004
1460.0	0.0007218	112.717999935
1460.0	0.0007215	112.764999866
1460.0	0.0007218	112.796000004
1460.0	0.0007215	112.842999935
1460.0	0.0007213	112.889999866
1460.0	0.0007215	112.921000004
1460.0	0.0007215	112.967999935
1460.0	0.0007215	113.0
1460.0	0.0007215	113.046000004
1460.0	0.0007218	113.092999935
1460.0	0.0007218	113.125
1460.0	0.0007223	113.171000004
1460.0	0.0007225	113.217999935
1460.0	0.0007228	113.25
1460.0	0.0007225	113.296000004
1460.0	0.0007223	113.32799983
1460.0	0.0007223	113.375
1460.0	0.0007223	113.421000004
1460.0	0.0007223	113.45299983
1460.0	0.0007223	113.5
1460.0	0.0007223	113.546000004
1460.0	0.0007223	113.592999935
1470.0	0.0007265	113.858999968
1470.0	0.0007288	113.889999866
1470.0	0.0007305	113.937000036
1470.0	0.0007323	113.983999968
1470.0	0.000733	114.014999866
1470.0	0.0007338	114.062000036
1470.0	0.0007343	114.108999968
1470.0	0.000735	114.139999866
1470.0	0.0007353	114.187000036
1470.0	0.0007355	114.233999968
1470.0	0.0007355	114.264999866
1470.0	0.000736	114.312000036
1470.0	0.000736	114.342999935
1470.0	0.0007363	114.389999866
1470.0	0.0007365	114.437000036
1470.0	0.0007368	114.467999935
1470.0	0.0007368	114.514999866
1470.0	0.0007368	114.562000036
1470.0	0.0007368	114.592999935
1470.0	0.0007368	114.639999866
1470.0	0.0007368	114.671000004
1470.0	0.0007368	114.717999935
1470.0	0.0007368	114.764999866
1470.0	0.0007365	114.796000004
1470.0	0.0007365	114.842999935
1470.0	0.0007363	114.889999866
1470.0	0.0007355	114.921000004
1470.0	0.0007353	114.967999935
1470.0	0.0007353	115.0
1470.0	0.0007353	115.046000004
1470.0	0.0007353	115.092999935
1470.0	0.0007353	115.125
1470.0	0.000736	115.171000004
1470.0	0.000736	115.217999935
1470.0	0.000736	115.25
1470.0	0.0007355	115.296000004
1470.0	0.000736	115.342999935
1480.0	0.0007413	115.608999968
1480.0	0.0007435	115.639999866
1480.0	0.000745	115.687000036
1480.0	0.0007463	115.733999968
1480.0	0.0007473	115.764999866
1480.0	0.0007485	115.812000036
1480.0	0.000749	115.858999968
1480.0	0.0007498	115.889999866
1480.0	0.0007503	115.937000036
1480.0	0.000751	115.967999935
1480.0	0.000751	116.014999866
1480.0	0.0007515	116.062000036
1480.0	0.0007513	116.092999935
1480.0	0.000751	116.139999866
1480.0	0.000751	116.187000036
1480.0	0.000751	116.233999968
1480.0	0.000751	116.264999866
1480.0	0.000751	116.312000036
1480.0	0.0007505	116.342999935
1480.0	0.0007513	116.389999866
1480.0	0.000751	116.437000036
1480.0	0.000751	116.467999935
1480.0	0.0007513	116.514999866
1480.0	0.0007513	116.562000036
1480.0	0.0007515	116.592999935
1480.0	0.0007515	116.639999866
1480.0	0.0007513	116.671000004
1480.0	0.0007513	116.717999935
1480.0	0.000751	116.764999866
1480.0	0.000751	116.796000004
1480.0	0.0007515	116.842999935
1480.0	0.0007518	116.889999866
1480.0	0.0007518	116.921000004
1480.0	0.0007518	116.967999935
1480.0	0.0007518	117.014999866
1480.0	0.0007518	117.046000004
1480.0	0.0007515	117.092999935
1490.0	0.000756	117.358999968
1490.0	0.0007578	117.405999899
1490.0	0.000759	117.45299983
1490.0	0.0007603	117.483999968
1490.0	0.000761	117.530999899
1490.0	0.0007613	117.562000036
1490.0	0.0007615	117.608999968
1490.0	0.0007615	117.655999899
1490.0	0.0007615	117.687000036
1490.0	0.0007618	117.733999968
1490.0	0.0007623	117.780999899
1490.0	0.0007625	117.812000036
1490.0	0.0007628	117.858999968
1490.0	0.000763	117.889999866
1490.0	0.0007628	117.937000036
1490.0	0.0007628	117.983999968
1490.0	0.0007628	118.014999866
1490.0	0.0007628	118.062000036
1490.0	0.0007625	118.108999968
1490.0	0.0007625	118.139999866
1490.0	0.0007625	118.187000036
1490.0	0.0007628	118.233999968
1490.0	0.0007625	118.264999866
1490.0	0.0007628	118.312000036
1490.0	0.0007628	118.342999935
1490.0	0.000763	118.389999866
1490.0	0.0007635	118.437000036
1490.0	0.0007635	118.467999935
1490.0	0.000764	118.514999866
1490.0	0.000764	118.562000036
1490.0	0.0007635	118.592999935
1490.0	0.0007635	118.639999866
1490.0	0.0007635	118.687000036
1490.0	0.000763	118.717999935
1490.0	0.000763	118.764999866
1490.0	0.000763	118.812000036
1490.0	0.0007625	118.842999935
1500.0	0.0007655	119.125
1500.0	0.0007663	119.155999899
1500.0	0.0007673	119.20299983
1500.0	0.0007675	119.25
1500.0	0.000768	119.280999899
1500.0	0.0007685	119.32799983
1500.0	0.0007685	119.375
1500.0	0.000769	119.405999899
1500.0	0.0007698	119.45299983
1500.0	0.0007698	119.5
1500.0	0.00077	119.530999899
1500.0	0.0007703	119.57799983
1500.0	0.0007703	119.625
1500.0	0.0007703	119.655999899
1500.0	0.0007703	119.70299983
1500.0	0.00077	119.733999968
1500.0	0.0007698	119.780999899
1500.0	0.0007698	119.82799983
1500.0	0.00077	119.858999968
1500.0	0.0007703	119.905999899
1500.0	0.0007705	119.95299983
1500.0	0.000771	119.983999968
1500.0	0.0007715	120.030999899
1500.0	0.0007713	120.07799983
1500.0	0.0007715	120.108999968
1500.0	0.0007715	120.155999899
1500.0	0.0007713	120.187000036
1500.0	0.0007713	120.233999968
1500.0	0.000771	120.280999899
1500.0	0.0007713	120.312000036
1500.0	0.0007713	120.358999968
1500.0	0.0007715	120.405999899
1500.0	0.0007713	120.437000036
1500.0	0.0007713	120.483999968
1500.0	0.000771	120.514999866
1500.0	0.0007705	120.562000036
1500.0	0.0007703	120.608999968
1510.0	0.0007723	120.875
1510.0	0.0007728	120.921000004
1510.0	0.000773	120.967999935
1510.0	0.0007735	121.0
1510.0	0.0007738	121.046000004
1510.0	0.000774	121.092999935
1510.0	0.0007743	121.125
1510.0	0.000775	121.171000004
1510.0	0.000775	121.217999935
1510.0	0.0007748	121.25
1510.0	0.0007748	121.296000004
1510.0	0.0007748	121.342999935
1510.0	0.000775	121.375
1510.0	0.000775	121.421000004
1510.0	0.000775	121.45299983
1510.0	0.000775	121.5
1510.0	0.0007748	121.546000004
1510.0	0.0007748	121.57799983
1510.0	0.0007743	121.625
1510.0	0.0007743	121.671000004
1510.0	0.000774	121.70299983
1510.0	0.000774	121.75
1510.0	0.000774	121.796000004
1510.0	0.0007748	121.82799983
1510.0	0.0007748	121.875
1510.0	0.0007748	121.921000004
1510.0	0.000775	121.95299983
1510.0	0.000775	122.0
1510.0	0.0007753	122.046000004
1510.0	0.0007753	122.092999935
1510.0	0.0007753	122.125
1510.0	0.000775	122.171000004
1510.0	0.000775	122.217999935
1510.0	0.0007753	122.25
1510.0	0.0007753	122.296000004
1510.0	0.0007753	122.32799983
1510.0	0.0007753	122.375
1520.0	0.0007755	122.639999866
1520.0	0.0007755	122.687000036
1520.0	0.000776	122.733999968
1520.0	0.000776	122.764999866
1520.0	0.0007755	122.812000036
1520.0	0.0007755	122.858999968
1520.0	0.0007753	122.889999866
1520.0	0.0007755	122.937000036
1520.0	0.0007753	122.967999935
1520.0	0.0007755	123.014999866
1520.0	0.000776	123.062000036
1520.0	0.0007755	123.092999935
1520.0	0.000776	123.139999866
1520.0	0.0007763	123.187000036
1520.0	0.0007763	123.217999935
1520.0	0.0007765	123.264999866
1520.0	0.0007765	123.296000004
1520.0	0.0007768	123.342999935
1520.0	0.0007768	123.389999866
1520.0	0.0007765	123.421000004
1520.0	0.0007763	123.467999935
1520.0	0.0007763	123.514999866
1520.0	0.0007763	123.546000004
1520.0	0.000776	123.592999935
1520.0	0.000776	123.625
1520.0	0.000776	123.671000004
1520.0	0.000776	123.717999935
1520.0	0.000776	123.75
1520.0	0.0007755	123.796000004
1520.0	0.0007755	123.842999935
1520.0	0.0007753	123.875
1520.0	0.0007753	123.921000004
1520.0	0.0007753	123.95299983
1520.0	0.0007755	124.0
1520.0	0.0007755	124.046000004
1520.0	0.000776	124.07799983
1520.0	0.000776	124.125
1530.0	0.0007735	124.405999899
1530.0	0.0007728	124.437000036
1530.0	0.0007723	124.483999968
1530.0	0.0007718	124.514999866
1530.0	0.0007713	124.562000036
1530.0	0.0007713	124.608999968
1530.0	0.0007713	124.655999899
1530.0	0.000771	124.687000036
1530.0	0.000771	124.733999968
1530.0	0.000771	124.780999899
1530.0	0.0007713	124.812000036
1530.0	0.000771	124.858999968
1530.0	0.000771	124.889999866
1530.0	0.0007705	124.937000036
1530.0	0.0007705	124.983999968
1530.0	0.0007705	125.014999866
1530.0	0.0007703	125.062000036
1530.0	0.00077	125.108999968
1530.0	0.00077	125.139999866
1530.0	0.0007703	125.187000036
1530.0	0.0007703	125.233999968
1530.0	0.0007703	125.264999866
1530.0	0.0007703	125.312000036
1530.0	0.0007703	125.358999968
1530.0	0.0007703	125.389999866
1530.0	0.0007703	125.437000036
1530.0	0.00077	125.467999935
1530.0	0.0007703	125.514999866
1530.0	0.0007703	125.562000036
1530.0	0.000771	125.592999935
1530.0	0.0007713	125.639999866
1530.0	0.0007713	125.687000036
1530.0	0.000771	125.733999968
1530.0	0.000771	125.764999866
1530.0	0.0007705	125.812000036
1530.0	0.00077	125.842999935
1530.0	0.00077	125.889999866
1540.0	0.0007675	126.171000004
1540.0	0.000766	126.20299983
1540.0	0.0007648	126.25
1540.0	0.0007638	126.280999899
1540.0	0.000763	126.32799983
1540.0	0.0007623	126.375
1540.0	0.0007615	126.405999899
1540.0	0.0007613	126.45299983
1540.0	0.000761	126.5
1540.0	0.000761	126.530999899
1540.0	0.0007605	126.57799983
1540.0	0.000761	126.625
1540.0	0.0007613	126.655999899
1540.0	0.0007613	126.70299983
1540.0	0.0007605	126.733999968
1540.0	0.0007605	126.780999899
1540.0	0.0007603	126.82799983
1540.0	0.0007603	126.858999968
1540.0	0.0007603	126.905999899
1540.0	0.00076	126.95299983
1540.0	0.00076	126.983999968
1540.0	0.00076	127.030999899
1540.0	0.0007598	127.062000036
1540.0	0.0007598	127.108999968
1540.0	0.0007598	127.155999899
1540.0	0.0007598	127.187000036
1540.0	0.00076	127.233999968
1540.0	0.00076	127.280999899
1540.0	0.0007603	127.312000036
1540.0	0.0007605	127.358999968
1540.0	0.000761	127.389999866
1540.0	0.000761	127.437000036
1540.0	0.0007605	127.483999968
1540.0	0.0007603	127.530999899
1540.0	0.00076	127.562000036
1540.0	0.0007603	127.608999968
1540.0	0.00076	127.655999899
1550.0	0.0007543	127.921000004
1550.0	0.0007523	127.967999935
1550.0	0.000751	128.014999866
1550.0	0.00075	128.046000004
1550.0	0.000749	128.092999935
1550.0	0.0007488	128.139999866
1550.0	0.0007485	128.171000004
1550.0	0.0007478	128.217999935
1550.0	0.0007475	128.25
1550.0	0.0007473	128.296000004
1550.0	0.0007475	128.342999935
1550.0	0.0007478	128.375
1550.0	0.0007475	128.421000004
1550.0	0.0007478	128.467999935
1550.0	0.0007478	128.5
1550.0	0.0007475	128.546000004
1550.0	0.0007475	128.57799983
1550.0	0.0007475	128.625
1550.0	0.0007473	128.671000004
1550.0	0.0007473	128.70299983
1550.0	0.0007473	128.75
1550.0	0.0007475	128.796000004
1550.0	0.0007475	128.82799983
1550.0	0.0007478	128.875
1550.0	0.0007478	128.905999899
1550.0	0.0007478	128.95299983
1550.0	0.0007478	129.0
1550.0	0.0007478	129.030999899
1550.0	0.0007478	129.07799983
1550.0	0.0007478	129.125
1550.0	0.0007478	129.155999899
1550.0	0.0007475	129.20299983
1550.0	0.000748	129.233999968
1550.0	0.0007485	129.280999899
1550.0	0.0007485	129.32799983
1550.0	0.0007485	129.358999968
1550.0	0.0007485	129.405999899
1560.0	0.0007418	129.687000036
1560.0	0.000739	129.717999935
1560.0	0.0007373	129.764999866
1560.0	0.0007353	129.812000036
1560.0	0.000734	129.842999935
1560.0	0.0007325	129.889999866
1560.0	0.0007315	129.921000004
1560.0	0.000731	129.967999935
1560.0	0.0007305	130.014999866
1560.0	0.000731	130.046000004
1560.0	0.0007305	130.092999935
1560.0	0.0007305	130.139999866
1560.0	0.0007303	130.171000004
1560.0	0.0007303	130.217999935
1560.0	0.0007303	130.264999866
1560.0	0.0007305	130.296000004
1560.0	0.0007305	130.342999935
1560.0	0.0007305	130.389999866
1560.0	0.000731	130.421000004
1560.0	0.000731	130.467999935
1560.0	0.000731	130.5
1560.0	0.000731	130.546000004
1560.0	0.000731	130.592999935
1560.0	0.000731	130.625
1560.0	0.0007305	130.671000004
1560.0	0.000731	130.717999935
1560.0	0.0007315	130.75
1560.0	0.0007315	130.796000004
1560.0	0.0007318	130.842999935
1560.0	0.0007315	130.875
1560.0	0.0007313	130.921000004
1560.0	0.000731	130.967999935
1560.0	0.000731	131.0
1560.0	0.0007305	131.046000004
1560.0	0.0007305	131.092999935
1560.0	0.0007303	131.125
1560.0	0.00073	131.171000004
1570.0	0.000723	131.437000036
1570.0	0.0007198	131.483999968
1570.0	0.0007168	131.514999866
1570.0	0.0007148	131.562000036
1570.0	0.0007128	131.608999968
1570.0	0.0007113	131.639999866
1570.0	0.00071	131.687000036
1570.0	0.0007088	131.733999968
1570.0	0.000708	131.764999866
1570.0	0.0007075	131.812000036
1570.0	0.0007068	131.842999935
1570.0	0.0007065	131.889999866
1570.0	0.0007065	131.937000036
1570.0	0.0007065	131.967999935
1570.0	0.0007068	132.014999866
1570.0	0.0007068	132.062000036
1570.0	0.0007068	132.092999935
1570.0	0.0007065	132.139999866
1570.0	0.0007065	132.171000004
1570.0	0.0007063	132.217999935
1570.0	0.000706	132.264999866
1570.0	0.000706	132.296000004
1570.0	0.0007055	132.342999935
1570.0	0.0007055	132.389999866
1570.0	0.0007055	132.421000004
1570.0	0.0007055	132.467999935
1570.0	0.0007053	132.514999866
1570.0	0.0007055	132.546000004
1570.0	0.0007053	132.592999935
1570.0	0.000705	132.639999866
1570.0	0.000705	132.671000004
1570.0	0.000705	132.717999935
1570.0	0.0007048	132.764999866
1570.0	0.000705	132.796000004
1570.0	0.000705	132.842999935
1570.0	0.000705	132.875
1570.0	0.000705	132.921000004
1580.0	0.0006943	133.187000036
1580.0	0.0006905	133.233999968
1580.0	0.0006875	133.280999899
1580.0	0.000685	133.312000036
1580.0	0.0006823	133.358999968
1580.0	0.0006803	133.405999899
1580.0	0.0006788	133.437000036
1580.0	0.0006778	133.483999968
1580.0	0.0006768	133.514999866
1580.0	0.0006765	133.562000036
1580.0	0.0006763	133.608999968
1580.0	0.0006763	133.639999866
1580.0	0.000676	133.687000036
1580.0	0.0006763	133.733999968
1580.0	0.000676	133.764999866
1580.0	0.000676	133.812000036
1580.0	0.0006763	133.842999935
1580.0	0.000676	133.889999866
1580.0	0.0006755	133.937000036
1580.0	0.0006753	133.967999935
1580.0	0.0006755	134.014999866
1580.0	0.000676	134.062000036
1580.0	0.000676	134.092999935
1580.0	0.000676	134.139999866
1580.0	0.000676	134.171000004
1580.0	0.000676	134.217999935
1580.0	0.000676	134.264999866
1580.0	0.000676	134.296000004
1580.0	0.000676	134.342999935
1580.0	0.000676	134.389999866
1580.0	0.000676	134.421000004
1580.0	0.000676	134.467999935
1580.0	0.000676	134.514999866
1580.0	0.0006755	134.546000004
1580.0	0.0006755	134.592999935
1580.0	0.0006755	134.625
1580.0	0.000676	134.671000004
1590.0	0.0006638	134.95299983
1590.0	0.0006593	134.983999968
1590.0	0.0006555	135.030999899
1590.0	0.0006525	135.062000036
1590.0	0.0006503	135.108999968
1590.0	0.0006488	135.155999899
1590.0	0.0006475	135.187000036
1590.0	0.0006468	135.233999968
1590.0	0.000646	135.280999899
1590.0	0.0006455	135.312000036
1590.0	0.000645	135.358999968
1590.0	0.000645	135.405999899
1590.0	0.0006448	135.437000036
1590.0	0.0006443	135.483999968
1590.0	0.000644	135.514999866
1590.0	0.000644	135.562000036
1590.0	0.0006443	135.608999968
1590.0	0.0006443	135.639999866
1590.0	0.0006448	135.687000036
1590.0	0.0006443	135.733999968
1590.0	0.0006443	135.764999866
1590.0	0.0006443	135.812000036
1590.0	0.0006448	135.858999968
1590.0	0.0006448	135.889999866
1590.0	0.0006448	135.937000036
1590.0	0.0006443	135.983999968
1590.0	0.000644	136.014999866
1590.0	0.0006438	136.062000036
1590.0	0.0006435	136.108999968
1590.0	0.000644	136.139999866
1590.0	0.000644	136.187000036
1590.0	0.0006443	136.233999968
1590.0	0.0006448	136.264999866
1590.0	0.0006443	136.312000036
1590.0	0.0006443	136.358999968
1590.0	0.0006443	136.389999866
1590.0	0.0006448	136.437000036
1600.0	0.0006308	136.70299983
1600.0	0.0006263	136.75
1600.0	0.000622	136.796000004
1600.0	0.0006188	136.82799983
1600.0	0.0006163	136.875
1600.0	0.0006143	136.921000004
1600.0	0.0006128	136.95299983
1600.0	0.0006115	137.0
1600.0	0.0006105	137.030999899
1600.0	0.00061	137.07799983
1600.0	0.0006093	137.125
1600.0	0.0006083	137.155999899
1600.0	0.000608	137.20299983
1600.0	0.0006075	137.25
1600.0	0.0006075	137.280999899
1600.0	0.0006075	137.32799983
1600.0	0.0006075	137.375
1600.0	0.000607	137.405999899
1600.0	0.000607	137.45299983
1600.0	0.000607	137.5
1600.0	0.000607	137.530999899
1600.0	0.0006068	137.57799983
1600.0	0.0006068	137.625
1600.0	0.0006075	137.655999899
1600.0	0.000607	137.70299983
1600.0	0.0006075	137.75
1600.0	0.0006075	137.780999899
1600.0	0.0006075	137.82799983
1600.0	0.0006075	137.858999968
1600.0	0.000607	137.905999899
1600.0	0.000607	137.95299983
1600.0	0.0006068	138.0
1600.0	0.0006068	138.030999899
1600.0	0.0006068	138.07799983
1600.0	0.0006068	138.125
1600.0	0.0006068	138.155999899
1600.0	0.000607	138.20299983
1610.0	0.00059	138.483999968
1610.0	0.0005838	138.530999899
1610.0	0.0005788	138.562000036
1610.0	0.000575	138.608999968
1610.0	0.000572	138.639999866
1610.0	0.0005695	138.687000036
1610.0	0.0005675	138.733999968
1610.0	0.0005658	138.764999866
1610.0	0.000565	138.812000036
1610.0	0.0005643	138.858999968
1610.0	0.0005643	138.889999866
1610.0	0.000564	138.937000036
1610.0	0.0005638	138.983999968
1610.0	0.0005638	139.014999866
1610.0	0.0005633	139.062000036
1610.0	0.0005633	139.108999968
1610.0	0.0005628	139.139999866
1610.0	0.0005628	139.187000036
1610.0	0.0005628	139.233999968
1610.0	0.0005628	139.264999866
1610.0	0.0005628	139.312000036
1610.0	0.0005628	139.342999935
1610.0	0.0005625	139.389999866
1610.0	0.0005628	139.437000036
1610.0	0.0005628	139.467999935
1610.0	0.0005625	139.514999866
1610.0	0.0005628	139.562000036
1610.0	0.0005628	139.592999935
1610.0	0.000563	139.639999866
1610.0	0.000563	139.671000004
1610.0	0.000563	139.717999935
1610.0	0.0005633	139.764999866
1610.0	0.0005633	139.796000004
1610.0	0.0005638	139.842999935
1610.0	0.000564	139.889999866
1610.0	0.0005638	139.921000004
1610.0	0.000564	139.967999935
1620.0	0.0005475	140.25
1620.0	0.0005418	140.296000004
1620.0	0.0005375	140.32799983
1620.0	0.000534	140.375
1620.0	0.0005313	140.405999899
1620.0	0.0005288	140.45299983
1620.0	0.0005265	140.5
1620.0	0.000525	140.530999899
1620.0	0.0005245	140.57799983
1620.0	0.0005238	140.625
1620.0	0.0005233	140.655999899
1620.0	0.000523	140.70299983
1620.0	0.0005233	140.75
1620.0	0.0005233	140.780999899
1620.0	0.0005233	140.82799983
1620.0	0.000523	140.875
1620.0	0.000523	140.905999899
1620.0	0.0005228	140.95299983
1620.0	0.0005228	141.0
1620.0	0.000523	141.030999899
1620.0	0.0005233	141.07799983
1620.0	0.0005233	141.125
1620.0	0.000523	141.155999899
1620.0	0.000523	141.20299983
1620.0	0.000523	141.25
1620.0	0.000523	141.280999899
1620.0	0.000523	141.32799983
1620.0	0.000523	141.358999968
1620.0	0.0005233	141.405999899
1620.0	0.0005233	141.45299983
1620.0	0.000523	141.483999968
1620.0	0.0005228	141.530999899
1620.0	0.0005228	141.57799983
1620.0	0.0005228	141.608999968
1620.0	0.0005225	141.655999899
1620.0	0.0005225	141.687000036
1630.0	0.000505	141.967999935
1630.0	0.0004988	142.014999866
1630.0	0.000494	142.062000036
1630.0	0.0004903	142.092999935
1630.0	0.0004875	142.139999866
1630.0	0.000485	142.187000036
1630.0	0.0004833	142.217999935
1630.0	0.0004818	142.264999866
1630.0	0.0004805	142.296000004
1630.0	0.00048	142.342999935
1630.0	0.0004795	142.389999866
1630.0	0.000479	142.421000004
1630.0	0.0004783	142.467999935
1630.0	0.0004783	142.514999866
1630.0	0.0004778	142.546000004
1630.0	0.0004775	142.592999935
1630.0	0.0004775	142.625
1630.0	0.000477	142.671000004
1630.0	0.000477	142.717999935
1630.0	0.0004768	142.75
1630.0	0.0004765	142.796000004
1630.0	0.0004765	142.842999935
1630.0	0.0004763	142.875
1630.0	0.0004765	142.921000004
1630.0	0.0004768	142.967999935
1630.0	0.0004768	143.0
1630.0	0.0004768	143.046000004
1630.0	0.0004768	143.07799983
1630.0	0.0004765	143.125
1630.0	0.0004765	143.171000004
1630.0	0.0004763	143.20299983
1630.0	0.0004763	143.25
1630.0	0.0004758	143.296000004
1630.0	0.0004755	143.342999935
1630.0	0.0004755	143.375
1630.0	0.0004753	143.421000004
1630.0	0.0004755	143.467999935
1640.0	0.000458	143.75
1640.0	0.0004518	143.796000004
1640.0	0.000447	143.82799983
1640.0	0.0004428	143.875
1640.0	0.0004395	143.905999899
1640.0	0.000437	143.95299983
1640.0	0.0004353	144.0
1640.0	0.0004338	144.030999899
1640.0	0.0004328	144.07799983
1640.0	0.0004318	144.125
1640.0	0.0004313	144.155999899
1640.0	0.0004308	144.20299983
1640.0	0.0004305	144.233999968
1640.0	0.00043	144.280999899
1640.0	0.00043	144.32799983
1640.0	0.0004295	144.358999968
1640.0	0.00043	144.405999899
1640.0	0.00043	144.45299983
1640.0	0.0004303	144.483999968
1640.0	0.0004305	144.530999899
1640.0	0.0004305	144.562000036
1640.0	0.0004308	144.608999968
1640.0	0.0004305	144.655999899
1640.0	0.0004303	144.687000036
1640.0	0.0004305	144.733999968
1640.0	0.0004308	144.780999899
1640.0	0.0004305	144.812000036
1640.0	0.0004305	144.858999968
1640.0	0.0004305	144.905999899
1640.0	0.0004305	144.937000036
1640.0	0.0004308	144.983999968
1640.0	0.0004305	145.014999866
1640.0	0.0004308	145.062000036
1640.0	0.0004308	145.108999968
1640.0	0.0004313	145.139999866
1640.0	0.0004318	145.187000036
1640.0	0.0004318	145.233999968
1650.0	0.0004145	145.514999866
1650.0	0.000409	145.546000004
1650.0	0.000404	145.592999935
1650.0	0.0004003	145.639999866
1650.0	0.000397	145.671000004
1650.0	0.000395	145.717999935
1650.0	0.0003938	145.75
1650.0	0.0003925	145.796000004
1650.0	0.0003915	145.842999935
1650.0	0.0003908	145.875
1650.0	0.0003903	145.921000004
1650.0	0.00039	145.967999935
1650.0	0.00039	146.0
1650.0	0.000389	146.046000004
1650.0	0.000389	146.092999935
1650.0	0.0003888	146.125
1650.0	0.0003888	146.171000004
1650.0	0.0003888	146.217999935
1650.0	0.0003888	146.25
1650.0	0.0003888	146.296000004
1650.0	0.000389	146.342999935
1650.0	0.0003893	146.375
1650.0	0.0003895	146.421000004
1650.0	0.0003895	146.45299983
1650.0	0.00039	146.5
1650.0	0.00039	146.546000004
1650.0	0.0003903	146.57799983
1650.0	0.00039	146.625
1650.0	0.00039	146.671000004
1650.0	0.0003895	146.70299983
1650.0	0.0003895	146.75
1650.0	0.0003895	146.780999899
1650.0	0.0003895	146.82799983
1650.0	0.0003893	146.875
1650.0	0.000389	146.905999899
1650.0	0.0003888	146.95299983
1650.0	0.0003883	147.0
1660.0	0.0003718	147.280999899
1660.0	0.0003665	147.32799983
1660.0	0.0003618	147.358999968
1660.0	0.0003578	147.405999899
1660.0	0.0003545	147.437000036
1660.0	0.0003525	147.483999968
1660.0	0.0003505	147.530999899
1660.0	0.0003493	147.562000036
1660.0	0.0003483	147.608999968
1660.0	0.000347	147.655999899
1660.0	0.0003463	147.687000036
1660.0	0.0003455	147.733999968
1660.0	0.0003453	147.780999899
1660.0	0.000345	147.812000036
1660.0	0.0003445	147.858999968
1660.0	0.000345	147.889999866
1660.0	0.000345	147.937000036
1660.0	0.000345	147.983999968
1660.0	0.0003445	148.014999866
1660.0	0.0003443	148.062000036
1660.0	0.0003445	148.125
1660.0	0.0003445	148.171000004
1660.0	0.0003445	148.217999935
1660.0	0.0003445	148.25
1660.0	0.0003445	148.296000004
1660.0	0.000345	148.342999935
1660.0	0.000345	148.375
1660.0	0.000345	148.421000004
1660.0	0.0003453	148.45299983
1660.0	0.0003453	148.5
1660.0	0.0003453	148.546000004
1660.0	0.0003455	148.57799983
1660.0	0.0003453	148.625
1660.0	0.0003453	148.671000004
1660.0	0.000345	148.70299983
1660.0	0.000345	148.75
1670.0	0.0003305	149.030999899
1670.0	0.0003255	149.07799983
1670.0	0.0003218	149.108999968
1670.0	0.000319	149.155999899
1670.0	0.0003165	149.187000036
1670.0	0.0003145	149.233999968
1670.0	0.000313	149.280999899
1670.0	0.000312	149.312000036
1670.0	0.0003113	149.358999968
1670.0	0.0003108	149.405999899
1670.0	0.0003108	149.437000036
1670.0	0.0003108	149.483999968
1670.0	0.0003105	149.530999899
1670.0	0.0003105	149.562000036
1670.0	0.0003105	149.608999968
1670.0	0.0003105	149.639999866
1670.0	0.0003105	149.687000036
1670.0	0.0003105	149.733999968
1670.0	0.0003103	149.764999866
1670.0	0.0003103	149.812000036
1670.0	0.0003105	149.858999968
1670.0	0.0003105	149.889999866
1670.0	0.0003103	149.937000036
1670.0	0.00031	149.983999968
1670.0	0.00031	150.014999866
1670.0	0.0003103	150.062000036
1670.0	0.0003105	150.108999968
1670.0	0.0003108	150.139999866
1670.0	0.0003108	150.187000036
1670.0	0.0003105	150.217999935
1670.0	0.0003108	150.264999866
1670.0	0.0003105	150.312000036
1670.0	0.0003103	150.342999935
1670.0	0.0003103	150.389999866
1670.0	0.0003103	150.437000036
1670.0	0.0003105	150.467999935
1670.0	0.0003105	150.514999866
1680.0	0.0002968	150.796000004
1680.0	0.0002925	150.842999935
1680.0	0.0002888	150.889999866
1680.0	0.0002858	150.921000004
1680.0	0.000284	150.967999935
1680.0	0.000282	151.0
1680.0	0.0002808	151.046000004
1680.0	0.0002803	151.092999935
1680.0	0.0002793	151.125
1680.0	0.000279	151.171000004
1680.0	0.000278	151.217999935
1680.0	0.0002775	151.25
1680.0	0.0002775	151.296000004
1680.0	0.0002768	151.342999935
1680.0	0.0002763	151.375
1680.0	0.0002758	151.421000004
1680.0	0.0002758	151.467999935
1680.0	0.0002758	151.5
1680.0	0.0002763	151.546000004
1680.0	0.0002765	151.592999935
1680.0	0.0002768	151.625
1680.0	0.0002768	151.671000004
1680.0	0.0002768	151.70299983
1680.0	0.000277	151.75
1680.0	0.000277	151.796000004
1680.0	0.0002768	151.82799983
1680.0	0.0002763	151.875
1680.0	0.0002763	151.905999899
1680.0	0.0002758	151.95299983
1680.0	0.0002758	152.0
1680.0	0.0002763	152.062000036
1680.0	0.0002765	152.108999968
1680.0	0.0002768	152.155999899
1680.0	0.0002768	152.187000036
1680.0	0.0002765	152.233999968
1680.0	0.0002763	152.280999899
1690.0	0.0002643	152.562000036
1690.0	0.0002608	152.608999968
1690.0	0.0002578	152.639999866
1690.0	0.0002553	152.687000036
1690.0	0.0002533	152.733999968
1690.0	0.000252	152.764999866
1690.0	0.0002508	152.812000036
1690.0	0.00025	152.842999935
1690.0	0.0002495	152.889999866
1690.0	0.000249	152.937000036
1690.0	0.0002488	152.967999935
1690.0	0.000248	153.014999866
1690.0	0.000248	153.062000036
1690.0	0.000248	153.092999935
1690.0	0.0002478	153.139999866
1690.0	0.0002478	153.187000036
1690.0	0.0002478	153.217999935
1690.0	0.0002475	153.264999866
1690.0	0.0002478	153.312000036
1690.0	0.0002478	153.342999935
1690.0	0.000248	153.389999866
1690.0	0.0002483	153.437000036
1690.0	0.0002483	153.467999935
1690.0	0.0002483	153.514999866
1690.0	0.0002488	153.546000004
1690.0	0.000249	153.592999935
1690.0	0.000249	153.639999866
1690.0	0.000249	153.671000004
1690.0	0.000249	153.717999935
1690.0	0.0002493	153.764999866
1690.0	0.000249	153.796000004
1690.0	0.000249	153.842999935
1690.0	0.000249	153.875
1690.0	0.0002488	153.921000004
1690.0	0.0002488	153.967999935
1690.0	0.0002488	154.0
1690.0	0.0002488	154.046000004
1700.0	0.000239	154.32799983
1700.0	0.0002353	154.375
1700.0	0.0002325	154.421000004
1700.0	0.0002303	154.45299983
1700.0	0.0002283	154.5
1700.0	0.0002268	154.530999899
1700.0	0.0002258	154.57799983
1700.0	0.000225	154.625
1700.0	0.000224	154.655999899
1700.0	0.0002238	154.70299983
1700.0	0.000223	154.75
1700.0	0.0002228	154.780999899
1700.0	0.0002225	154.82799983
1700.0	0.0002225	154.875
1700.0	0.000222	154.905999899
1700.0	0.0002215	154.95299983
1700.0	0.0002215	155.0
1700.0	0.0002213	155.030999899
1700.0	0.0002213	155.07799983
1700.0	0.0002213	155.125
1700.0	0.0002215	155.155999899
1700.0	0.0002215	155.20299983
1700.0	0.0002213	155.25
1700.0	0.0002208	155.280999899
1700.0	0.0002213	155.32799983
1700.0	0.0002213	155.375
1700.0	0.0002208	155.405999899
1700.0	0.0002208	155.45299983
1700.0	0.0002213	155.483999968
1700.0	0.0002213	155.530999899
1700.0	0.0002213	155.57799983
1700.0	0.0002208	155.608999968
1700.0	0.0002208	155.655999899
1700.0	0.0002208	155.70299983
1700.0	0.0002213	155.733999968
1700.0	0.0002213	155.780999899
1700.0	0.0002208	155.82799983
1710.0	0.0002118	156.108999968
1710.0	0.0002088	156.155999899
1710.0	0.0002063	156.187000036
1710.0	0.000204	156.233999968
1710.0	0.0002025	156.264999866
1710.0	0.0002015	156.312000036
1710.0	0.0002008	156.358999968
1710.0	0.0002	156.405999899
1710.0	0.0001993	156.437000036
1710.0	0.000199	156.483999968
1710.0	0.000199	156.514999866
1710.0	0.0001988	156.562000036
1710.0	0.0001988	156.608999968
1710.0	0.0001983	156.639999866
1710.0	0.0001983	156.687000036
1710.0	0.0001978	156.733999968
1710.0	0.0001975	156.764999866
1710.0	0.000197	156.812000036
1710.0	0.000197	156.858999968
1710.0	0.000197	156.889999866
1710.0	0.0001978	156.937000036
1710.0	0.0001978	156.967999935
1710.0	0.0001975	157.014999866
1710.0	0.0001978	157.062000036
1710.0	0.0001983	157.092999935
1710.0	0.0001988	157.139999866
1710.0	0.0001988	157.187000036
1710.0	0.000199	157.217999935
1710.0	0.000199	157.264999866
1710.0	0.000199	157.312000036
1710.0	0.000199	157.342999935
1710.0	0.000199	157.389999866
1710.0	0.0001993	157.437000036
1710.0	0.0001993	157.467999935
1710.0	0.0001995	157.514999866
1710.0	0.0002	157.546000004
1710.0	0.0002	157.592999935
1720.0	0.0001925	157.875
1720.0	0.0001895	157.921000004
1720.0	0.0001875	157.967999935
1720.0	0.0001858	158.0
1720.0	0.000184	158.046000004
1720.0	0.000183	158.092999935
1720.0	0.0001825	158.125
1720.0	0.000182	158.171000004
1720.0	0.0001818	158.217999935
1720.0	0.0001815	158.25
1720.0	0.0001815	158.296000004
1720.0	0.0001813	158.32799983
1720.0	0.0001813	158.375
1720.0	0.0001813	158.421000004
1720.0	0.0001815	158.45299983
1720.0	0.0001818	158.5
1720.0	0.0001818	158.530999899
1720.0	0.0001815	158.57799983
1720.0	0.0001815	158.625
1720.0	0.0001813	158.655999899
1720.0	0.0001813	158.70299983
1720.0	0.0001813	158.75
1720.0	0.0001808	158.780999899
1720.0	0.0001808	158.82799983
1720.0	0.0001813	158.858999968
1720.0	0.0001813	158.905999899
1720.0	0.0001813	158.95299983
1720.0	0.0001808	158.983999968
1720.0	0.0001803	159.030999899
1720.0	0.0001803	159.07799983
1720.0	0.0001803	159.108999968
1720.0	0.0001803	159.155999899
1720.0	0.0001803	159.20299983
1720.0	0.0001803	159.233999968
1720.0	0.0001805	159.280999899
1720.0	0.0001803	159.312000036
1720.0	0.00018	159.358999968
1730.0	0.0001693	159.717999935
1730.0	0.0001675	159.764999866
1730.0	0.0001663	159.812000036
1730.0	0.0001653	159.842999935
1730.0	0.0001645	159.889999866
1730.0	0.000164	159.937000036
1730.0	0.0001638	159.967999935
1730.0	0.0001633	160.014999866
1730.0	0.000163	160.062000036
1730.0	0.0001628	160.092999935
1730.0	0.0001625	160.139999866
1730.0	0.0001628	160.171000004
1730.0	0.0001628	160.217999935
1730.0	0.0001625	160.264999866
1730.0	0.0001625	160.296000004
1730.0	0.000162	160.342999935
1730.0	0.000162	160.389999866
1730.0	0.0001625	160.421000004
1730.0	0.0001625	160.467999935
1730.0	0.0001625	160.514999866
1730.0	0.000162	160.546000004
1730.0	0.0001618	160.592999935
1730.0	0.0001615	160.639999866
1730.0	0.0001613	160.671000004
1730.0	0.0001613	160.717999935
1730.0	0.0001613	160.75
1730.0	0.0001613	160.796000004
1730.0	0.0001613	160.842999935
1730.0	0.0001615	160.875
1730.0	0.0001615	160.921000004
1730.0	0.0001618	160.967999935
1730.0	0.000162	161.0
1730.0	0.000162	161.046000004
1730.0	0.000162	161.092999935
1730.0	0.0001618	161.125
1730.0	0.0001615	161.171000004
1730.0	0.0001613	161.217999935
1740.0	0.000155	161.5
1740.0	0.000153	161.546000004
1740.0	0.0001515	161.592999935
1740.0	0.0001503	161.625
1740.0	0.000149	161.671000004
1740.0	0.000148	161.70299983
1740.0	0.000147	161.75
1740.0	0.0001465	161.796000004
1740.0	0.0001463	161.82799983
1740.0	0.0001463	161.875
1740.0	0.0001463	161.921000004
1740.0	0.0001463	161.95299983
1740.0	0.0001465	162.0
1740.0	0.0001463	162.030999899
1740.0	0.0001463	162.07799983
1740.0	0.0001463	162.125
1740.0	0.0001463	162.155999899
1740.0	0.0001463	162.20299983
1740.0	0.0001458	162.25
1740.0	0.0001453	162.280999899
1740.0	0.000145	162.32799983
1740.0	0.0001453	162.358999968
1740.0	0.000145	162.405999899
1740.0	0.0001453	162.45299983
1740.0	0.0001453	162.483999968
1740.0	0.0001455	162.530999899
1740.0	0.0001455	162.57799983
1740.0	0.0001455	162.608999968
1740.0	0.0001453	162.655999899
1740.0	0.0001453	162.70299983
1740.0	0.0001445	162.733999968
1740.0	0.0001445	162.780999899
1740.0	0.000145	162.812000036
1740.0	0.0001453	162.858999968
1740.0	0.000145	162.905999899
1740.0	0.0001443	162.937000036
1740.0	0.0001443	162.983999968
1750.0	0.0001403	163.280999899
1750.0	0.0001383	163.312000036
1750.0	0.000137	163.358999968
1750.0	0.0001363	163.405999899
1750.0	0.0001353	163.45299983
1750.0	0.0001343	163.483999968
1750.0	0.0001333	163.530999899
1750.0	0.0001325	163.562000036
1750.0	0.0001318	163.608999968
1750.0	0.0001315	163.655999899
1750.0	0.0001308	163.687000036
1750.0	0.0001308	163.733999968
1750.0	0.0001305	163.780999899
1750.0	0.0001305	163.812000036
1750.0	0.0001305	163.858999968
1750.0	0.0001303	163.905999899
1750.0	0.0001305	163.937000036
1750.0	0.0001305	163.983999968
1750.0	0.0001313	164.014999866
1750.0	0.0001313	164.062000036
1750.0	0.0001308	164.108999968
1750.0	0.0001305	164.139999866
1750.0	0.0001305	164.187000036
1750.0	0.0001303	164.233999968
1750.0	0.0001303	164.264999866
1750.0	0.0001303	164.312000036
1750.0	0.0001305	164.342999935
1750.0	0.0001305	164.389999866
1750.0	0.0001305	164.437000036
1750.0	0.0001305	164.467999935
1750.0	0.0001308	164.514999866
1750.0	0.0001308	164.562000036
1750.0	0.0001308	164.592999935
1750.0	0.0001305	164.639999866
1750.0	0.0001305	164.671000004
1750.0	0.0001305	164.717999935
1750.0	0.0001303	164.764999866
1760.0	0.0001255	165.062000036
1760.0	0.000124	165.108999968
1760.0	0.0001225	165.139999866
1760.0	0.0001215	165.187000036
1760.0	0.0001203	165.217999935
1760.0	0.0001193	165.264999866
1760.0	0.0001188	165.312000036
1760.0	0.0001183	165.342999935
1760.0	0.000118	165.389999866
1760.0	0.0001183	165.437000036
1760.0	0.000118	165.467999935
1760.0	0.0001183	165.514999866
1760.0	0.000118	165.562000036
1760.0	0.0001178	165.592999935
1760.0	0.000118	165.639999866
1760.0	0.0001178	165.671000004
1760.0	0.0001178	165.717999935
1760.0	0.0001178	165.764999866
1760.0	0.000118	165.796000004
1760.0	0.0001188	165.842999935
1760.0	0.0001188	165.889999866
1760.0	0.0001183	165.921000004
1760.0	0.0001183	165.967999935
1760.0	0.0001183	166.0
1760.0	0.000118	166.046000004
1760.0	0.0001183	166.092999935
1760.0	0.000118	166.125
1760.0	0.000118	166.171000004
1760.0	0.000118	166.217999935
1760.0	0.000118	166.25
1760.0	0.000118	166.296000004
1760.0	0.000118	166.32799983
1760.0	0.000118	166.375
1760.0	0.000118	166.421000004
1760.0	0.000118	166.45299983
1760.0	0.0001178	166.5
1760.0	0.000118	166.546000004
1770.0	0.0001133	166.842999935
1770.0	0.0001118	166.889999866
1770.0	0.0001105	166.921000004
1770.0	0.0001095	166.967999935
1770.0	0.0001088	167.014999866
1770.0	0.0001078	167.046000004
1770.0	0.0001075	167.092999935
1770.0	0.0001068	167.125
1770.0	0.0001065	167.171000004
1770.0	0.0001065	167.217999935
1770.0	0.0001058	167.25
1770.0	0.0001058	167.296000004
1770.0	0.0001058	167.342999935
1770.0	0.0001055	167.375
1770.0	0.0001055	167.421000004
1770.0	0.0001053	167.45299983
1770.0	0.0001053	167.5
1770.0	0.0001053	167.546000004
1770.0	0.0001055	167.57799983
1770.0	0.0001055	167.625
1770.0	0.0001058	167.671000004
1770.0	0.0001063	167.70299983
1770.0	0.0001063	167.75
1770.0	0.0001068	167.780999899
1770.0	0.000107	167.82799983
1770.0	0.000107	167.875
1770.0	0.0001068	167.905999899
1770.0	0.0001068	167.95299983
1770.0	0.0001065	168.0
1770.0	0.0001068	168.030999899
1770.0	0.0001068	168.07799983
1770.0	0.0001068	168.125
1770.0	0.0001065	168.155999899
1770.0	0.0001065	168.20299983
1770.0	0.0001063	168.233999968
1770.0	0.0001065	168.280999899
1770.0	0.0001065	168.32799983
1780.0	0.0001013	168.625
1780.0	9.93e-05	168.671000004
1780.0	9.8e-05	168.70299983
1780.0	9.7e-05	168.75
1780.0	9.65e-05	168.796000004
1780.0	9.63e-05	168.82799983
1780.0	9.58e-05	168.875
1780.0	9.55e-05	168.905999899
1780.0	9.53e-05	168.95299983
1780.0	9.53e-05	169.0
1780.0	9.53e-05	169.030999899
1780.0	9.53e-05	169.07799983
1780.0	9.5e-05	169.125
1780.0	9.5e-05	169.155999899
1780.0	9.5e-05	169.20299983
1780.0	9.5e-05	169.25
1780.0	9.53e-05	169.280999899
1780.0	9.55e-05	169.32799983
1780.0	9.55e-05	169.358999968
1780.0	9.55e-05	169.405999899
1780.0	9.55e-05	169.45299983
1780.0	9.58e-05	169.483999968
1780.0	9.53e-05	169.530999899
1780.0	9.55e-05	169.57799983
1780.0	9.53e-05	169.608999968
1780.0	9.53e-05	169.655999899
1780.0	9.5e-05	169.687000036
1780.0	9.45e-05	169.733999968
1780.0	9.45e-05	169.780999899
1780.0	9.5e-05	169.812000036
1780.0	9.45e-05	169.858999968
1780.0	9.45e-05	169.905999899
1780.0	9.45e-05	169.937000036
1780.0	9.45e-05	169.983999968
1780.0	9.5e-05	170.014999866
1780.0	9.53e-05	170.062000036
1780.0	9.53e-05	170.108999968
1790.0	9.03e-05	170.405999899
1790.0	8.9e-05	170.45299983
1790.0	8.8e-05	170.483999968
1790.0	8.68e-05	170.530999899
1790.0	8.63e-05	170.57799983
1790.0	8.55e-05	170.608999968
1790.0	8.53e-05	170.655999899
1790.0	8.45e-05	170.70299983
1790.0	8.45e-05	170.733999968
1790.0	8.43e-05	170.780999899
1790.0	8.4e-05	170.812000036
1790.0	8.4e-05	170.858999968
1790.0	8.38e-05	170.905999899
1790.0	8.43e-05	170.937000036
1790.0	8.43e-05	170.983999968
1790.0	8.43e-05	171.030999899
1790.0	8.45e-05	171.062000036
1790.0	8.45e-05	171.108999968
1790.0	8.45e-05	171.139999866
1790.0	8.43e-05	171.187000036
1790.0	8.38e-05	171.233999968
1790.0	8.38e-05	171.264999866
1790.0	8.33e-05	171.312000036
1790.0	8.3e-05	171.358999968
1790.0	8.33e-05	171.389999866
1790.0	8.38e-05	171.437000036
1790.0	8.4e-05	171.483999968
1790.0	8.43e-05	171.514999866
1790.0	8.45e-05	171.562000036
1790.0	8.45e-05	171.592999935
1790.0	8.43e-05	171.639999866
1790.0	8.43e-05	171.687000036
1790.0	8.43e-05	171.717999935
1790.0	8.4e-05	171.764999866
1790.0	8.38e-05	171.812000036
1790.0	8.4e-05	171.842999935
1790.0	8.4e-05	171.889999866
1800.0	7.93e-05	172.187000036
1800.0	7.83e-05	172.233999968
1800.0	7.7e-05	172.280999899
1800.0	7.65e-05	172.312000036
1800.0	7.5e-05	172.358999968
1800.0	7.43e-05	172.389999866
1800.0	7.43e-05	172.437000036
1800.0	7.38e-05	172.483999968
1800.0	7.38e-05	172.514999866
1800.0	7.3e-05	172.562000036
1800.0	7.28e-05	172.608999968
1800.0	7.28e-05	172.639999866
1800.0	7.28e-05	172.687000036
1800.0	7.25e-05	172.717999935
1800.0	7.2e-05	172.764999866
1800.0	7.18e-05	172.812000036
1800.0	7.25e-05	172.842999935
1800.0	7.25e-05	172.889999866
1800.0	7.25e-05	172.937000036
1800.0	7.28e-05	172.967999935
1800.0	7.28e-05	173.014999866
1800.0	7.3e-05	173.062000036
1800.0	7.3e-05	173.092999935
1800.0	7.3e-05	173.139999866
1800.0	7.3e-05	173.187000036
1800.0	7.3e-05	173.217999935
1800.0	7.28e-05	173.264999866
1800.0	7.28e-05	173.312000036
1800.0	7.28e-05	173.342999935
1800.0	7.28e-05	173.389999866
1800.0	7.28e-05	173.421000004
1800.0	7.28e-05	173.467999935
1800.0	7.3e-05	173.514999866
1800.0	7.3e-05	173.562000036
1800.0	7.28e-05	173.592999935
1800.0	7.28e-05	173.639999866
1800.0	7.28e-05	173.671000004
