Your edit line - do NOT delete this line
Wavelength [nm], Voltage [V], Elapsed time [s]
900.0	0.0002375	6.32800006866
900.0	0.000233	6.375
900.0	0.0002293	6.42100000381
900.0	0.0002265	6.45300006866
900.0	0.0002245	6.5
900.0	0.0002228	6.54600000381
900.0	0.0002218	6.59299993515
900.0	0.0002205	6.625
900.0	0.00022	6.67100000381
900.0	0.0002193	6.70300006866
900.0	0.000219	6.75
900.0	0.0002193	6.79600000381
900.0	0.0002193	6.82800006866
900.0	0.0002193	6.875
900.0	0.0002193	6.92100000381
900.0	0.0002195	6.95300006866
900.0	0.0002195	7.0
900.0	0.00022	7.03099989891
900.0	0.00022	7.07800006866
900.0	0.0002203	7.125
900.0	0.0002205	7.15599989891
900.0	0.0002205	7.20300006866
900.0	0.0002205	7.25
900.0	0.0002205	7.28099989891
900.0	0.0002205	7.32800006866
900.0	0.0002205	7.35899996758
900.0	0.0002203	7.40599989891
900.0	0.0002203	7.45300006866
900.0	0.0002205	7.48399996758
900.0	0.0002203	7.53099989891
900.0	0.0002203	7.57800006866
900.0	0.0002203	7.60899996758
900.0	0.0002203	7.65599989891
900.0	0.0002205	7.70300006866
900.0	0.0002205	7.73399996758
900.0	0.0002205	7.78099989891
900.0	0.0002205	7.81200003624
910.0	0.0002305	8.125
910.0	0.000233	8.17100000381
910.0	0.0002353	8.20300006866
910.0	0.0002375	8.25
910.0	0.0002388	8.29600000381
910.0	0.0002403	8.34299993515
910.0	0.0002413	8.375
910.0	0.0002415	8.42100000381
910.0	0.0002418	8.45300006866
910.0	0.000242	8.5
910.0	0.0002425	8.54600000381
910.0	0.0002428	8.57800006866
910.0	0.000243	8.625
910.0	0.0002428	8.67100000381
910.0	0.0002428	8.70300006866
910.0	0.0002425	8.75
910.0	0.0002425	8.78099989891
910.0	0.000242	8.82800006866
910.0	0.000242	8.875
910.0	0.000242	8.90599989891
910.0	0.000242	8.95300006866
910.0	0.0002418	9.0
910.0	0.0002418	9.03099989891
910.0	0.0002418	9.07800006866
910.0	0.0002418	9.10899996758
910.0	0.0002418	9.15599989891
910.0	0.0002415	9.20300006866
910.0	0.0002415	9.23399996758
910.0	0.0002415	9.28099989891
910.0	0.0002418	9.32800006866
910.0	0.0002415	9.35899996758
910.0	0.0002413	9.40599989891
910.0	0.0002413	9.43700003624
910.0	0.0002413	9.48399996758
910.0	0.0002418	9.53099989891
910.0	0.0002425	9.56200003624
910.0	0.0002428	9.60899996758
920.0	0.000255	9.90599989891
920.0	0.000258	9.95300006866
920.0	0.0002613	10.0
920.0	0.0002638	10.0309998989
920.0	0.0002658	10.0780000687
920.0	0.000267	10.125
920.0	0.0002683	10.1559998989
920.0	0.0002693	10.2030000687
920.0	0.00027	10.2339999676
920.0	0.0002705	10.2809998989
920.0	0.0002705	10.3280000687
920.0	0.0002708	10.3589999676
920.0	0.0002705	10.4059998989
920.0	0.0002705	10.4530000687
920.0	0.0002708	10.4839999676
920.0	0.0002708	10.5309998989
920.0	0.0002713	10.5620000362
920.0	0.0002715	10.6089999676
920.0	0.0002713	10.6559998989
920.0	0.0002713	10.6870000362
920.0	0.0002713	10.7339999676
920.0	0.0002705	10.7809998989
920.0	0.0002708	10.8120000362
920.0	0.0002705	10.8589999676
920.0	0.0002705	10.9059998989
920.0	0.0002705	10.9370000362
920.0	0.0002705	10.9839999676
920.0	0.0002705	11.0149998665
920.0	0.0002703	11.0620000362
920.0	0.0002705	11.1089999676
920.0	0.0002708	11.1399998665
920.0	0.0002708	11.1870000362
920.0	0.0002705	11.2339999676
920.0	0.0002703	11.2649998665
920.0	0.00027	11.3120000362
920.0	0.00027	11.3429999352
920.0	0.0002695	11.3899998665
930.0	0.000282	11.7030000687
930.0	0.0002855	11.7339999676
930.0	0.0002888	11.7809998989
930.0	0.0002913	11.8120000362
930.0	0.000293	11.8589999676
930.0	0.0002945	11.9059998989
930.0	0.0002955	11.9370000362
930.0	0.0002958	11.9839999676
930.0	0.0002963	12.0309998989
930.0	0.0002963	12.0620000362
930.0	0.0002963	12.1089999676
930.0	0.0002963	12.1399998665
930.0	0.0002958	12.1870000362
930.0	0.0002958	12.2339999676
930.0	0.0002963	12.2649998665
930.0	0.0002963	12.3120000362
930.0	0.0002965	12.3589999676
930.0	0.0002965	12.3899998665
930.0	0.0002968	12.4370000362
930.0	0.0002975	12.4679999352
930.0	0.0002978	12.5149998665
930.0	0.000298	12.5620000362
930.0	0.000298	12.5929999352
930.0	0.000298	12.6399998665
930.0	0.0002983	12.6870000362
930.0	0.0002983	12.7179999352
930.0	0.000298	12.7649998665
930.0	0.000298	12.8120000362
930.0	0.000298	12.8429999352
930.0	0.0002978	12.8899998665
930.0	0.0002978	12.9210000038
930.0	0.000298	12.9679999352
930.0	0.000298	13.0149998665
930.0	0.0002983	13.0460000038
930.0	0.0002988	13.0929999352
930.0	0.0002993	13.1399998665
930.0	0.0002993	13.1710000038
940.0	0.0003118	13.4679999352
940.0	0.0003153	13.5
940.0	0.0003183	13.5460000038
940.0	0.0003208	13.5929999352
940.0	0.0003228	13.6399998665
940.0	0.0003245	13.6710000038
940.0	0.0003255	13.7179999352
940.0	0.0003263	13.75
940.0	0.0003268	13.7960000038
940.0	0.0003275	13.8429999352
940.0	0.000328	13.875
940.0	0.0003283	13.9210000038
940.0	0.000328	13.9679999352
940.0	0.000328	14.0
940.0	0.000328	14.0460000038
940.0	0.000328	14.0929999352
940.0	0.0003283	14.125
940.0	0.0003288	14.1710000038
940.0	0.0003288	14.2030000687
940.0	0.0003288	14.25
940.0	0.0003288	14.2960000038
940.0	0.0003288	14.3280000687
940.0	0.000329	14.375
940.0	0.000329	14.4210000038
940.0	0.0003293	14.4530000687
940.0	0.0003293	14.5
940.0	0.0003293	14.5460000038
940.0	0.0003293	14.5780000687
940.0	0.0003293	14.625
940.0	0.000329	14.6710000038
940.0	0.0003288	14.7030000687
940.0	0.0003288	14.75
940.0	0.0003288	14.7809998989
940.0	0.0003288	14.8280000687
940.0	0.0003288	14.875
940.0	0.000329	14.9059998989
940.0	0.0003288	14.9530000687
950.0	0.0003393	15.25
950.0	0.000343	15.2809998989
950.0	0.0003463	15.3280000687
950.0	0.0003488	15.375
950.0	0.0003508	15.4059998989
950.0	0.0003525	15.4530000687
950.0	0.000354	15.4839999676
950.0	0.000355	15.5309998989
950.0	0.0003553	15.5780000687
950.0	0.0003555	15.6089999676
950.0	0.0003558	15.6559998989
950.0	0.0003563	15.7030000687
950.0	0.0003563	15.7339999676
950.0	0.0003563	15.7809998989
950.0	0.0003568	15.8120000362
950.0	0.0003565	15.8589999676
950.0	0.0003568	15.9059998989
950.0	0.0003568	15.9370000362
950.0	0.0003568	15.9839999676
950.0	0.0003568	16.0309998989
950.0	0.0003568	16.0620000362
950.0	0.0003568	16.1089999676
950.0	0.0003568	16.1399998665
950.0	0.0003568	16.1870000362
950.0	0.000357	16.2339999676
950.0	0.0003568	16.2649998665
950.0	0.0003568	16.3120000362
950.0	0.0003565	16.3589999676
950.0	0.0003563	16.3899998665
950.0	0.0003565	16.4370000362
950.0	0.000357	16.4839999676
950.0	0.000357	16.5149998665
950.0	0.0003575	16.5620000362
950.0	0.0003578	16.5929999352
950.0	0.0003578	16.6399998665
950.0	0.0003578	16.6870000362
950.0	0.0003578	16.7179999352
960.0	0.00037	17.0149998665
960.0	0.0003743	17.0460000038
960.0	0.0003775	17.0929999352
960.0	0.00038	17.1399998665
960.0	0.0003815	17.1710000038
960.0	0.0003833	17.2179999352
960.0	0.0003845	17.25
960.0	0.0003853	17.2960000038
960.0	0.0003863	17.3429999352
960.0	0.0003865	17.375
960.0	0.000387	17.4210000038
960.0	0.0003875	17.4679999352
960.0	0.0003875	17.5
960.0	0.0003878	17.5460000038
960.0	0.000388	17.5780000687
960.0	0.000388	17.625
960.0	0.000388	17.6710000038
960.0	0.000388	17.7030000687
960.0	0.0003883	17.75
960.0	0.000389	17.7960000038
960.0	0.0003888	17.8429999352
960.0	0.000388	17.875
960.0	0.0003878	17.9210000038
960.0	0.0003875	17.9530000687
960.0	0.000387	18.0
960.0	0.000387	18.0460000038
960.0	0.000387	18.0780000687
960.0	0.0003875	18.125
960.0	0.000387	18.1710000038
960.0	0.000387	18.2030000687
960.0	0.0003875	18.25
960.0	0.0003875	18.2809998989
960.0	0.0003875	18.3280000687
960.0	0.0003875	18.375
960.0	0.0003875	18.4059998989
960.0	0.0003875	18.4530000687
960.0	0.0003875	18.5
970.0	0.0003993	18.7809998989
970.0	0.000403	18.8280000687
970.0	0.0004063	18.8589999676
970.0	0.0004088	18.9059998989
970.0	0.0004103	18.9370000362
970.0	0.0004113	18.9839999676
970.0	0.000412	19.0309998989
970.0	0.0004128	19.0620000362
970.0	0.0004133	19.1089999676
970.0	0.0004143	19.1559998989
970.0	0.0004145	19.1870000362
970.0	0.000415	19.2339999676
970.0	0.0004153	19.2809998989
970.0	0.0004158	19.3120000362
970.0	0.0004163	19.3589999676
970.0	0.0004165	19.3899998665
970.0	0.0004165	19.4370000362
970.0	0.0004163	19.4839999676
970.0	0.0004158	19.5149998665
970.0	0.0004158	19.5620000362
970.0	0.0004158	19.6089999676
970.0	0.0004155	19.6399998665
970.0	0.0004155	19.6870000362
970.0	0.0004155	19.7179999352
970.0	0.0004158	19.7649998665
970.0	0.0004163	19.8120000362
970.0	0.0004158	19.8429999352
970.0	0.0004158	19.8899998665
970.0	0.0004163	19.9370000362
970.0	0.0004158	19.9679999352
970.0	0.0004163	20.0149998665
970.0	0.0004158	20.0460000038
970.0	0.0004158	20.0929999352
970.0	0.0004155	20.1399998665
970.0	0.0004153	20.1710000038
970.0	0.0004145	20.2179999352
970.0	0.0004145	20.2649998665
980.0	0.0004275	20.5309998989
980.0	0.0004318	20.5780000687
980.0	0.0004353	20.625
980.0	0.0004378	20.6559998989
980.0	0.0004395	20.7030000687
980.0	0.0004408	20.75
980.0	0.000442	20.7809998989
980.0	0.000443	20.8280000687
980.0	0.0004438	20.8589999676
980.0	0.000444	20.9059998989
980.0	0.0004443	20.9530000687
980.0	0.0004445	20.9839999676
980.0	0.0004445	21.0309998989
980.0	0.000445	21.0780000687
980.0	0.0004453	21.1089999676
980.0	0.0004455	21.1559998989
980.0	0.0004453	21.2030000687
980.0	0.0004453	21.2339999676
980.0	0.0004453	21.2809998989
980.0	0.000445	21.3120000362
980.0	0.0004453	21.3589999676
980.0	0.0004455	21.4059998989
980.0	0.0004458	21.4370000362
980.0	0.0004458	21.4839999676
980.0	0.0004455	21.5309998989
980.0	0.0004463	21.5780000687
980.0	0.0004463	21.625
980.0	0.0004458	21.6559998989
980.0	0.0004463	21.7030000687
980.0	0.0004465	21.7339999676
980.0	0.0004463	21.7809998989
980.0	0.0004463	21.8280000687
980.0	0.0004458	21.875
980.0	0.0004463	21.9210000038
980.0	0.0004465	21.9530000687
980.0	0.0004468	22.0
990.0	0.000459	22.2809998989
990.0	0.0004628	22.3280000687
990.0	0.0004663	22.3589999676
990.0	0.0004683	22.4059998989
990.0	0.0004705	22.4530000687
990.0	0.0004718	22.4839999676
990.0	0.0004725	22.5309998989
990.0	0.0004733	22.5780000687
990.0	0.000474	22.6089999676
990.0	0.0004745	22.6559998989
990.0	0.0004745	22.6870000362
990.0	0.000475	22.7339999676
990.0	0.000475	22.7809998989
990.0	0.0004753	22.8120000362
990.0	0.0004753	22.8589999676
990.0	0.0004753	22.9059998989
990.0	0.0004753	22.9370000362
990.0	0.0004753	22.9839999676
990.0	0.0004753	23.0149998665
990.0	0.000475	23.0620000362
990.0	0.000475	23.1089999676
990.0	0.000475	23.1399998665
990.0	0.0004753	23.1870000362
990.0	0.0004753	23.2339999676
990.0	0.0004753	23.2649998665
990.0	0.0004753	23.3120000362
990.0	0.0004755	23.3589999676
990.0	0.0004758	23.3899998665
990.0	0.0004755	23.4370000362
990.0	0.0004755	23.4679999352
990.0	0.0004753	23.5149998665
990.0	0.0004753	23.5620000362
990.0	0.0004753	23.5929999352
990.0	0.0004753	23.6399998665
990.0	0.0004755	23.6870000362
990.0	0.0004753	23.7179999352
990.0	0.000475	23.7649998665
1000.0	0.0004863	24.0460000038
1000.0	0.00049	24.0780000687
1000.0	0.000493	24.125
1000.0	0.0004955	24.1710000038
1000.0	0.0004978	24.2030000687
1000.0	0.0004993	24.25
1000.0	0.0005005	24.2960000038
1000.0	0.0005013	24.3280000687
1000.0	0.0005018	24.375
1000.0	0.000502	24.4210000038
1000.0	0.0005028	24.4530000687
1000.0	0.000503	24.5
1000.0	0.000503	24.5309998989
1000.0	0.000503	24.5780000687
1000.0	0.0005028	24.625
1000.0	0.0005025	24.6559998989
1000.0	0.000502	24.7030000687
1000.0	0.0005018	24.75
1000.0	0.0005018	24.7809998989
1000.0	0.000502	24.8280000687
1000.0	0.000502	24.8589999676
1000.0	0.000502	24.9059998989
1000.0	0.000502	24.9530000687
1000.0	0.0005018	24.9839999676
1000.0	0.0005025	25.0309998989
1000.0	0.000502	25.0780000687
1000.0	0.0005025	25.1089999676
1000.0	0.0005025	25.1559998989
1000.0	0.0005028	25.2030000687
1000.0	0.000503	25.2339999676
1000.0	0.0005028	25.2809998989
1000.0	0.0005025	25.3120000362
1000.0	0.0005028	25.3589999676
1000.0	0.0005028	25.4059998989
1000.0	0.0005028	25.4370000362
1000.0	0.000503	25.4839999676
1000.0	0.000503	25.5309998989
1010.0	0.0005145	25.7960000038
1010.0	0.000518	25.8429999352
1010.0	0.0005215	25.8899998665
1010.0	0.0005243	25.9210000038
1010.0	0.0005263	25.9679999352
1010.0	0.000528	26.0149998665
1010.0	0.0005295	26.0460000038
1010.0	0.0005305	26.0929999352
1010.0	0.0005313	26.1399998665
1010.0	0.0005318	26.1710000038
1010.0	0.000532	26.2179999352
1010.0	0.000532	26.25
1010.0	0.000532	26.2960000038
1010.0	0.000532	26.3429999352
1010.0	0.0005325	26.3899998665
1010.0	0.0005325	26.4210000038
1010.0	0.0005328	26.4679999352
1010.0	0.000533	26.5
1010.0	0.0005333	26.5460000038
1010.0	0.0005333	26.5929999352
1010.0	0.000533	26.625
1010.0	0.0005333	26.6710000038
1010.0	0.0005333	26.7179999352
1010.0	0.000533	26.75
1010.0	0.000533	26.7960000038
1010.0	0.000533	26.8280000687
1010.0	0.000533	26.875
1010.0	0.000533	26.9210000038
1010.0	0.0005328	26.9530000687
1010.0	0.000533	27.0
1010.0	0.0005333	27.0460000038
1010.0	0.000533	27.0780000687
1010.0	0.0005333	27.125
1010.0	0.0005338	27.1559998989
1010.0	0.0005338	27.2030000687
1010.0	0.000534	27.25
1010.0	0.0005343	27.2809998989
1020.0	0.0005463	27.5620000362
1020.0	0.00055	27.6089999676
1020.0	0.0005533	27.6559998989
1020.0	0.0005558	27.6870000362
1020.0	0.0005578	27.7339999676
1020.0	0.0005593	27.7809998989
1020.0	0.0005605	27.8120000362
1020.0	0.0005613	27.8589999676
1020.0	0.0005618	27.9059998989
1020.0	0.0005618	27.9370000362
1020.0	0.000562	27.9839999676
1020.0	0.0005628	28.0149998665
1020.0	0.000563	28.0620000362
1020.0	0.000563	28.1089999676
1020.0	0.0005633	28.1399998665
1020.0	0.0005633	28.1870000362
1020.0	0.0005633	28.2339999676
1020.0	0.0005638	28.2649998665
1020.0	0.0005638	28.3120000362
1020.0	0.0005638	28.3589999676
1020.0	0.0005633	28.3899998665
1020.0	0.0005633	28.4370000362
1020.0	0.000563	28.4839999676
1020.0	0.0005628	28.5149998665
1020.0	0.000563	28.5620000362
1020.0	0.0005633	28.5929999352
1020.0	0.000563	28.6399998665
1020.0	0.0005628	28.6870000362
1020.0	0.0005628	28.7179999352
1020.0	0.0005628	28.7649998665
1020.0	0.000563	28.8120000362
1020.0	0.0005628	28.8429999352
1020.0	0.000562	28.8899998665
1020.0	0.0005618	28.9370000362
1020.0	0.0005615	28.9679999352
1020.0	0.0005615	29.0149998665
1020.0	0.0005613	29.0460000038
1030.0	0.0005743	29.3429999352
1030.0	0.000578	29.375
1030.0	0.0005813	29.4210000038
1030.0	0.0005838	29.4530000687
1030.0	0.0005855	29.5
1030.0	0.000587	29.5460000038
1030.0	0.000588	29.5780000687
1030.0	0.0005883	29.625
1030.0	0.000589	29.6710000038
1030.0	0.0005895	29.7030000687
1030.0	0.0005895	29.75
1030.0	0.00059	29.7960000038
1030.0	0.0005903	29.8280000687
1030.0	0.00059	29.875
1030.0	0.00059	29.9210000038
1030.0	0.00059	29.9530000687
1030.0	0.00059	30.0
1030.0	0.0005903	30.0309998989
1030.0	0.0005903	30.0780000687
1030.0	0.0005903	30.125
1030.0	0.0005903	30.1559998989
1030.0	0.00059	30.2030000687
1030.0	0.00059	30.25
1030.0	0.0005903	30.2809998989
1030.0	0.0005905	30.3280000687
1030.0	0.0005908	30.3589999676
1030.0	0.0005908	30.4059998989
1030.0	0.0005913	30.4530000687
1030.0	0.0005913	30.4839999676
1030.0	0.0005908	30.5309998989
1030.0	0.0005908	30.5780000687
1030.0	0.0005908	30.6089999676
1030.0	0.0005913	30.6559998989
1030.0	0.0005913	30.7030000687
1030.0	0.0005915	30.7339999676
1030.0	0.0005915	30.7809998989
1030.0	0.0005918	30.8120000362
1040.0	0.000604	31.1089999676
1040.0	0.000608	31.1399998665
1040.0	0.0006115	31.1870000362
1040.0	0.000614	31.2179999352
1040.0	0.0006158	31.2649998665
1040.0	0.0006168	31.3120000362
1040.0	0.0006183	31.3429999352
1040.0	0.0006193	31.3899998665
1040.0	0.0006203	31.4370000362
1040.0	0.0006205	31.4679999352
1040.0	0.0006213	31.5149998665
1040.0	0.0006215	31.5460000038
1040.0	0.0006215	31.5929999352
1040.0	0.0006218	31.6399998665
1040.0	0.0006218	31.6710000038
1040.0	0.0006218	31.7179999352
1040.0	0.0006218	31.7649998665
1040.0	0.000622	31.7960000038
1040.0	0.000622	31.8429999352
1040.0	0.0006225	31.8899998665
1040.0	0.0006228	31.9210000038
1040.0	0.0006228	31.9679999352
1040.0	0.000623	32.0
1040.0	0.000623	32.0460000038
1040.0	0.000623	32.0929999352
1040.0	0.0006238	32.125
1040.0	0.0006238	32.1710000038
1040.0	0.0006233	32.2179999352
1040.0	0.0006238	32.25
1040.0	0.0006238	32.2960000038
1040.0	0.000624	32.3429999352
1040.0	0.000624	32.375
1040.0	0.000624	32.4210000038
1040.0	0.0006243	32.4679999352
1040.0	0.0006243	32.5
1040.0	0.0006243	32.5460000038
1040.0	0.0006243	32.5780000687
1050.0	0.0006353	32.875
1050.0	0.0006398	32.9059998989
1050.0	0.0006428	32.9530000687
1050.0	0.000646	32.9839999676
1050.0	0.0006485	33.0309998989
1050.0	0.00065	33.0780000687
1050.0	0.000651	33.1089999676
1050.0	0.0006515	33.1559998989
1050.0	0.0006525	33.2030000687
1050.0	0.0006528	33.2339999676
1050.0	0.000653	33.2809998989
1050.0	0.0006535	33.3120000362
1050.0	0.0006538	33.3589999676
1050.0	0.0006535	33.4059998989
1050.0	0.0006535	33.4370000362
1050.0	0.0006538	33.4839999676
1050.0	0.0006538	33.5309998989
1050.0	0.000654	33.5780000687
1050.0	0.000654	33.6089999676
1050.0	0.000654	33.6559998989
1050.0	0.000654	33.6870000362
1050.0	0.0006538	33.7339999676
1050.0	0.000654	33.7809998989
1050.0	0.000654	33.8120000362
1050.0	0.000654	33.8589999676
1050.0	0.000654	33.9059998989
1050.0	0.000654	33.9370000362
1050.0	0.000654	33.9839999676
1050.0	0.0006543	34.0149998665
1050.0	0.0006543	34.0620000362
1050.0	0.000654	34.1089999676
1050.0	0.000654	34.1399998665
1050.0	0.000654	34.1870000362
1050.0	0.0006538	34.2339999676
1050.0	0.0006535	34.2649998665
1050.0	0.000653	34.3120000362
1050.0	0.000653	34.3429999352
1060.0	0.0006648	34.6399998665
1060.0	0.0006685	34.6710000038
1060.0	0.0006718	34.7179999352
1060.0	0.000674	34.7649998665
1060.0	0.000676	34.7960000038
1060.0	0.0006775	34.8429999352
1060.0	0.0006785	34.8899998665
1060.0	0.000679	34.9210000038
1060.0	0.0006798	34.9679999352
1060.0	0.00068	35.0149998665
1060.0	0.0006805	35.0460000038
1060.0	0.0006803	35.0929999352
1060.0	0.0006805	35.125
1060.0	0.0006805	35.1710000038
1060.0	0.0006803	35.2179999352
1060.0	0.0006805	35.25
1060.0	0.000681	35.2960000038
1060.0	0.0006813	35.3429999352
1060.0	0.0006813	35.375
1060.0	0.000681	35.4210000038
1060.0	0.0006813	35.4530000687
1060.0	0.0006813	35.5
1060.0	0.000681	35.5460000038
1060.0	0.000681	35.5780000687
1060.0	0.000681	35.625
1060.0	0.0006813	35.6710000038
1060.0	0.0006813	35.7179999352
1060.0	0.0006813	35.75
1060.0	0.0006813	35.7960000038
1060.0	0.0006813	35.8280000687
1060.0	0.0006813	35.875
1060.0	0.000681	35.9210000038
1060.0	0.000681	35.9530000687
1060.0	0.0006813	36.0
1060.0	0.0006813	36.0309998989
1060.0	0.0006813	36.0780000687
1060.0	0.0006813	36.125
1070.0	0.0006923	36.4059998989
1070.0	0.000696	36.4530000687
1070.0	0.0006988	36.4839999676
1070.0	0.0007013	36.5309998989
1070.0	0.0007028	36.5620000362
1070.0	0.0007043	36.6089999676
1070.0	0.000706	36.6559998989
1070.0	0.0007073	36.6870000362
1070.0	0.000708	36.7339999676
1070.0	0.0007085	36.7809998989
1070.0	0.0007088	36.8120000362
1070.0	0.0007088	36.8589999676
1070.0	0.0007093	36.8899998665
1070.0	0.0007098	36.9370000362
1070.0	0.0007103	36.9839999676
1070.0	0.0007103	37.0149998665
1070.0	0.0007103	37.0620000362
1070.0	0.0007103	37.1089999676
1070.0	0.0007105	37.1399998665
1070.0	0.0007103	37.1870000362
1070.0	0.0007105	37.2179999352
1070.0	0.0007105	37.2649998665
1070.0	0.0007103	37.3120000362
1070.0	0.0007103	37.3429999352
1070.0	0.0007103	37.3899998665
1070.0	0.0007103	37.4370000362
1070.0	0.0007103	37.4679999352
1070.0	0.0007105	37.5149998665
1070.0	0.000711	37.5620000362
1070.0	0.000711	37.5929999352
1070.0	0.000711	37.6399998665
1070.0	0.0007113	37.6870000362
1070.0	0.0007113	37.7179999352
1070.0	0.000711	37.7649998665
1070.0	0.000711	37.8120000362
1070.0	0.0007105	37.8429999352
1070.0	0.0007105	37.8899998665
1080.0	0.000723	38.1710000038
1080.0	0.0007265	38.2179999352
1080.0	0.00073	38.25
1080.0	0.0007323	38.2960000038
1080.0	0.0007338	38.3280000687
1080.0	0.0007353	38.375
1080.0	0.0007363	38.4210000038
1080.0	0.0007375	38.4530000687
1080.0	0.0007385	38.5
1080.0	0.000739	38.5460000038
1080.0	0.0007398	38.5780000687
1080.0	0.0007403	38.625
1080.0	0.0007403	38.6559998989
1080.0	0.0007403	38.7030000687
1080.0	0.00074	38.75
1080.0	0.00074	38.7809998989
1080.0	0.00074	38.8280000687
1080.0	0.00074	38.875
1080.0	0.00074	38.9059998989
1080.0	0.0007398	38.9530000687
1080.0	0.0007393	38.9839999676
1080.0	0.000739	39.0309998989
1080.0	0.0007388	39.0780000687
1080.0	0.0007388	39.1089999676
1080.0	0.000739	39.1559998989
1080.0	0.0007393	39.2030000687
1080.0	0.0007398	39.2339999676
1080.0	0.0007398	39.2809998989
1080.0	0.0007398	39.3280000687
1080.0	0.0007398	39.3589999676
1080.0	0.00074	39.4059998989
1080.0	0.0007398	39.4370000362
1080.0	0.0007398	39.4839999676
1080.0	0.0007398	39.5309998989
1080.0	0.0007398	39.5780000687
1080.0	0.0007393	39.6089999676
1090.0	0.0007488	39.9059998989
1090.0	0.0007515	39.9370000362
1090.0	0.000754	39.9839999676
1090.0	0.0007555	40.0149998665
1090.0	0.0007568	40.0620000362
1090.0	0.0007578	40.1089999676
1090.0	0.0007585	40.1399998665
1090.0	0.000759	40.1870000362
1090.0	0.0007598	40.2339999676
1090.0	0.00076	40.2649998665
1090.0	0.0007603	40.3120000362
1090.0	0.0007603	40.3589999676
1090.0	0.0007603	40.3899998665
1090.0	0.0007603	40.4370000362
1090.0	0.0007605	40.4679999352
1090.0	0.0007605	40.5149998665
1090.0	0.0007605	40.5620000362
1090.0	0.000761	40.5929999352
1090.0	0.000761	40.6399998665
1090.0	0.0007613	40.6870000362
1090.0	0.0007613	40.7179999352
1090.0	0.000761	40.7649998665
1090.0	0.000761	40.7960000038
1090.0	0.0007603	40.8429999352
1090.0	0.0007598	40.8899998665
1090.0	0.0007593	40.9210000038
1090.0	0.0007588	40.9679999352
1090.0	0.0007588	41.0149998665
1090.0	0.0007588	41.0460000038
1090.0	0.0007588	41.0929999352
1090.0	0.000759	41.125
1090.0	0.000759	41.1710000038
1090.0	0.0007588	41.2179999352
1090.0	0.000759	41.25
1090.0	0.000759	41.2960000038
1090.0	0.0007598	41.3429999352
1090.0	0.0007598	41.375
1100.0	0.0007678	41.6559998989
1100.0	0.00077	41.7030000687
1100.0	0.0007723	41.75
1100.0	0.000774	41.7809998989
1100.0	0.0007753	41.8280000687
1100.0	0.0007763	41.8589999676
1100.0	0.0007773	41.9059998989
1100.0	0.0007778	41.9530000687
1100.0	0.0007778	41.9839999676
1100.0	0.000778	42.0309998989
1100.0	0.0007785	42.0780000687
1100.0	0.000779	42.1089999676
1100.0	0.0007793	42.1559998989
1100.0	0.000779	42.2030000687
1100.0	0.0007793	42.2339999676
1100.0	0.0007793	42.2809998989
1100.0	0.0007793	42.3280000687
1100.0	0.0007798	42.3589999676
1100.0	0.0007798	42.4059998989
1100.0	0.00078	42.4530000687
1100.0	0.0007803	42.4839999676
1100.0	0.0007803	42.5309998989
1100.0	0.0007805	42.5620000362
1100.0	0.0007813	42.6089999676
1100.0	0.0007813	42.6559998989
1100.0	0.0007815	42.6870000362
1100.0	0.0007813	42.7339999676
1100.0	0.0007813	42.7809998989
1100.0	0.0007815	42.8120000362
1100.0	0.0007815	42.8589999676
1100.0	0.0007815	42.8899998665
1100.0	0.0007815	42.9370000362
1100.0	0.0007815	42.9839999676
1100.0	0.0007818	43.0149998665
1100.0	0.0007818	43.0620000362
1100.0	0.0007818	43.1089999676
1100.0	0.0007815	43.1399998665
1110.0	0.0007873	43.4210000038
1110.0	0.000789	43.4679999352
1110.0	0.0007903	43.5
1110.0	0.0007913	43.5460000038
1110.0	0.0007923	43.5929999352
1110.0	0.0007925	43.6399998665
1110.0	0.000793	43.6710000038
1110.0	0.0007938	43.7179999352
1110.0	0.0007938	43.75
1110.0	0.000794	43.7960000038
1110.0	0.000794	43.8429999352
1110.0	0.000794	43.875
1110.0	0.000794	43.9210000038
1110.0	0.000794	43.9679999352
1110.0	0.000794	44.0
1110.0	0.0007938	44.0460000038
1110.0	0.0007938	44.0780000687
1110.0	0.0007938	44.125
1110.0	0.0007938	44.1710000038
1110.0	0.0007935	44.2030000687
1110.0	0.0007938	44.25
1110.0	0.0007935	44.2960000038
1110.0	0.0007935	44.3280000687
1110.0	0.000793	44.375
1110.0	0.0007928	44.4059998989
1110.0	0.0007925	44.4530000687
1110.0	0.0007925	44.5
1110.0	0.0007918	44.5309998989
1110.0	0.0007915	44.5780000687
1110.0	0.0007915	44.625
1110.0	0.0007918	44.6559998989
1110.0	0.0007915	44.7030000687
1110.0	0.000791	44.75
1110.0	0.0007913	44.7809998989
1110.0	0.0007913	44.8280000687
1110.0	0.0007913	44.875
1120.0	0.0007948	45.1559998989
1120.0	0.000795	45.1870000362
1120.0	0.0007955	45.2339999676
1120.0	0.000796	45.2809998989
1120.0	0.0007963	45.3120000362
1120.0	0.0007963	45.3589999676
1120.0	0.0007965	45.4059998989
1120.0	0.0007973	45.4370000362
1120.0	0.0007978	45.4839999676
1120.0	0.000798	45.5309998989
1120.0	0.000798	45.5620000362
1120.0	0.000798	45.6089999676
1120.0	0.0007978	45.6559998989
1120.0	0.0007985	45.6870000362
1120.0	0.0007985	45.7339999676
1120.0	0.0007985	45.7809998989
1120.0	0.0007985	45.8120000362
1120.0	0.000798	45.8589999676
1120.0	0.000798	45.8899998665
1120.0	0.000798	45.9370000362
1120.0	0.000798	45.9839999676
1120.0	0.0007985	46.0149998665
1120.0	0.0007985	46.0620000362
1120.0	0.0007985	46.1089999676
1120.0	0.000799	46.1399998665
1120.0	0.0007993	46.1870000362
1120.0	0.0007993	46.2339999676
1120.0	0.0007993	46.2649998665
1120.0	0.0007998	46.3120000362
1120.0	0.0008	46.3589999676
1120.0	0.0008	46.3899998665
1120.0	0.0008	46.4370000362
1120.0	0.0008003	46.4679999352
1120.0	0.0008003	46.5149998665
1120.0	0.0008005	46.5620000362
1120.0	0.000801	46.5929999352
1120.0	0.0008013	46.6399998665
1130.0	0.0008025	46.9210000038
1130.0	0.0008028	46.9530000687
1130.0	0.0008028	47.0
1130.0	0.000803	47.0309998989
1130.0	0.000803	47.0780000687
1130.0	0.000803	47.125
1130.0	0.0008028	47.1559998989
1130.0	0.0008025	47.2030000687
1130.0	0.0008028	47.25
1130.0	0.0008025	47.2809998989
1130.0	0.0008025	47.3280000687
1130.0	0.0008025	47.3589999676
1130.0	0.0008025	47.4059998989
1130.0	0.0008028	47.4530000687
1130.0	0.000803	47.4839999676
1130.0	0.000803	47.5309998989
1130.0	0.000803	47.5780000687
1130.0	0.0008028	47.6089999676
1130.0	0.0008028	47.6559998989
1130.0	0.0008028	47.7030000687
1130.0	0.0008023	47.7339999676
1130.0	0.0008023	47.7809998989
1130.0	0.0008023	47.8120000362
1130.0	0.0008023	47.8589999676
1130.0	0.0008018	47.9059998989
1130.0	0.0008018	47.9370000362
1130.0	0.0008015	47.9839999676
1130.0	0.0008018	48.0309998989
1130.0	0.0008018	48.0620000362
1130.0	0.0008018	48.1089999676
1130.0	0.0008023	48.1559998989
1130.0	0.0008015	48.1870000362
1130.0	0.0008015	48.2339999676
1130.0	0.0008013	48.2809998989
1130.0	0.000801	48.3120000362
1130.0	0.000801	48.3589999676
1130.0	0.0008005	48.3899998665
1140.0	0.0007978	48.6710000038
1140.0	0.0007975	48.7030000687
1140.0	0.0007968	48.75
1140.0	0.0007965	48.7960000038
1140.0	0.0007963	48.8280000687
1140.0	0.0007963	48.875
1140.0	0.0007963	48.9210000038
1140.0	0.0007963	48.9530000687
1140.0	0.0007965	49.0
1140.0	0.0007965	49.0309998989
1140.0	0.0007965	49.0780000687
1140.0	0.0007963	49.125
1140.0	0.0007963	49.1559998989
1140.0	0.0007963	49.2030000687
1140.0	0.0007963	49.25
1140.0	0.0007965	49.2809998989
1140.0	0.0007963	49.3280000687
1140.0	0.0007965	49.3589999676
1140.0	0.0007963	49.4059998989
1140.0	0.0007965	49.4530000687
1140.0	0.0007968	49.4839999676
1140.0	0.0007968	49.5309998989
1140.0	0.0007968	49.5780000687
1140.0	0.0007965	49.6089999676
1140.0	0.0007965	49.6559998989
1140.0	0.0007965	49.7030000687
1140.0	0.0007968	49.7339999676
1140.0	0.0007973	49.7809998989
1140.0	0.0007975	49.8120000362
1140.0	0.0007978	49.8589999676
1140.0	0.0007978	49.9059998989
1140.0	0.000798	49.9370000362
1140.0	0.000798	49.9839999676
1140.0	0.0007985	50.0309998989
1140.0	0.0007985	50.0620000362
1140.0	0.0007985	50.1089999676
1140.0	0.0007985	50.1399998665
1150.0	0.000796	50.4210000038
1150.0	0.000795	50.4530000687
1150.0	0.0007943	50.5
1150.0	0.0007938	50.5309998989
1150.0	0.0007935	50.5780000687
1150.0	0.0007935	50.625
1150.0	0.000793	50.6559998989
1150.0	0.000793	50.7030000687
1150.0	0.0007928	50.75
1150.0	0.0007928	50.7809998989
1150.0	0.000793	50.8280000687
1150.0	0.0007928	50.8589999676
1150.0	0.0007928	50.9059998989
1150.0	0.0007925	50.9530000687
1150.0	0.0007925	50.9839999676
1150.0	0.0007925	51.0309998989
1150.0	0.0007928	51.0780000687
1150.0	0.0007925	51.1089999676
1150.0	0.0007925	51.1559998989
1150.0	0.0007923	51.1870000362
1150.0	0.0007918	51.2339999676
1150.0	0.0007915	51.2809998989
1150.0	0.0007913	51.3120000362
1150.0	0.0007913	51.3589999676
1150.0	0.0007913	51.4059998989
1150.0	0.000791	51.4530000687
1150.0	0.0007913	51.4839999676
1150.0	0.000791	51.5309998989
1150.0	0.000791	51.5620000362
1150.0	0.0007913	51.6089999676
1150.0	0.000791	51.6559998989
1150.0	0.0007905	51.6870000362
1150.0	0.0007903	51.7339999676
1150.0	0.00079	51.7809998989
1150.0	0.00079	51.8120000362
1150.0	0.0007898	51.8589999676
1150.0	0.00079	51.8899998665
1160.0	0.0007865	52.1559998989
1160.0	0.0007853	52.2030000687
1160.0	0.0007843	52.2339999676
1160.0	0.0007835	52.2809998989
1160.0	0.0007825	52.3280000687
1160.0	0.0007823	52.3589999676
1160.0	0.0007818	52.4059998989
1160.0	0.0007815	52.4530000687
1160.0	0.0007813	52.4839999676
1160.0	0.000781	52.5309998989
1160.0	0.0007805	52.5780000687
1160.0	0.0007803	52.6089999676
1160.0	0.0007803	52.6559998989
1160.0	0.0007803	52.6870000362
1160.0	0.0007803	52.7339999676
1160.0	0.0007803	52.7809998989
1160.0	0.0007803	52.8120000362
1160.0	0.0007805	52.8589999676
1160.0	0.0007805	52.9059998989
1160.0	0.0007805	52.9370000362
1160.0	0.0007805	52.9839999676
1160.0	0.000781	53.0149998665
1160.0	0.000781	53.0620000362
1160.0	0.000781	53.1089999676
1160.0	0.0007813	53.1399998665
1160.0	0.0007815	53.1870000362
1160.0	0.0007815	53.2339999676
1160.0	0.0007823	53.2649998665
1160.0	0.0007823	53.3120000362
1160.0	0.0007823	53.3429999352
1160.0	0.0007823	53.3899998665
1160.0	0.0007818	53.4370000362
1160.0	0.0007823	53.4679999352
1160.0	0.0007818	53.5149998665
1160.0	0.0007823	53.5620000362
1160.0	0.0007825	53.5929999352
1160.0	0.0007825	53.6399998665
1170.0	0.0007805	53.9059998989
1170.0	0.0007798	53.9370000362
1170.0	0.0007785	53.9839999676
1170.0	0.0007775	54.0309998989
1170.0	0.0007768	54.0620000362
1170.0	0.000776	54.1089999676
1170.0	0.000776	54.1559998989
1170.0	0.0007753	54.1870000362
1170.0	0.0007755	54.2339999676
1170.0	0.0007755	54.2809998989
1170.0	0.0007753	54.3120000362
1170.0	0.0007755	54.3589999676
1170.0	0.0007753	54.4059998989
1170.0	0.0007753	54.4370000362
1170.0	0.0007753	54.4839999676
1170.0	0.000775	54.5309998989
1170.0	0.000775	54.5620000362
1170.0	0.000775	54.6089999676
1170.0	0.0007743	54.6559998989
1170.0	0.0007743	54.6870000362
1170.0	0.0007748	54.7339999676
1170.0	0.0007748	54.7649998665
1170.0	0.000775	54.8120000362
1170.0	0.0007753	54.8589999676
1170.0	0.0007753	54.8899998665
1170.0	0.000775	54.9370000362
1170.0	0.0007748	54.9839999676
1170.0	0.0007743	55.0149998665
1170.0	0.000774	55.0620000362
1170.0	0.000774	55.0929999352
1170.0	0.0007738	55.1399998665
1170.0	0.0007738	55.1870000362
1170.0	0.0007735	55.2179999352
1170.0	0.000773	55.2649998665
1170.0	0.0007725	55.3120000362
1170.0	0.0007725	55.3429999352
1170.0	0.0007725	55.3899998665
1180.0	0.0007685	55.6559998989
1180.0	0.0007675	55.6870000362
1180.0	0.0007665	55.7339999676
1180.0	0.000766	55.7809998989
1180.0	0.0007653	55.8120000362
1180.0	0.0007648	55.8589999676
1180.0	0.0007643	55.8899998665
1180.0	0.0007638	55.9370000362
1180.0	0.0007635	55.9839999676
1180.0	0.0007635	56.0149998665
1180.0	0.0007635	56.0620000362
1180.0	0.0007635	56.1089999676
1180.0	0.0007638	56.1399998665
1180.0	0.000764	56.1870000362
1180.0	0.000764	56.2179999352
1180.0	0.000764	56.2649998665
1180.0	0.0007638	56.3120000362
1180.0	0.0007638	56.3429999352
1180.0	0.0007638	56.3899998665
1180.0	0.0007638	56.4370000362
1180.0	0.0007638	56.4839999676
1180.0	0.0007638	56.5149998665
1180.0	0.0007638	56.5620000362
1180.0	0.0007638	56.5929999352
1180.0	0.000764	56.6399998665
1180.0	0.000764	56.6870000362
1180.0	0.0007638	56.7179999352
1180.0	0.0007635	56.7649998665
1180.0	0.0007635	56.8120000362
1180.0	0.0007638	56.8429999352
1180.0	0.000764	56.8899998665
1180.0	0.0007643	56.9210000038
1180.0	0.0007643	56.9679999352
1180.0	0.0007648	57.0149998665
1180.0	0.000765	57.0460000038
1180.0	0.0007653	57.0929999352
1180.0	0.000766	57.1399998665
1190.0	0.000764	57.3899998665
1190.0	0.000763	57.4370000362
1190.0	0.0007628	57.4679999352
1190.0	0.0007623	57.5149998665
1190.0	0.0007623	57.5620000362
1190.0	0.0007618	57.5929999352
1190.0	0.0007615	57.6399998665
1190.0	0.0007613	57.6870000362
1190.0	0.0007605	57.7179999352
1190.0	0.0007603	57.7649998665
1190.0	0.00076	57.7960000038
1190.0	0.00076	57.8429999352
1190.0	0.00076	57.8899998665
1190.0	0.00076	57.9210000038
1190.0	0.00076	57.9679999352
1190.0	0.00076	58.0149998665
1190.0	0.00076	58.0460000038
1190.0	0.00076	58.0929999352
1190.0	0.00076	58.125
1190.0	0.0007603	58.1710000038
1190.0	0.0007603	58.2179999352
1190.0	0.0007603	58.25
1190.0	0.00076	58.2960000038
1190.0	0.0007603	58.3429999352
1190.0	0.0007603	58.375
1190.0	0.00076	58.4210000038
1190.0	0.00076	58.4530000687
1190.0	0.0007598	58.5
1190.0	0.0007593	58.5460000038
1190.0	0.000759	58.5780000687
1190.0	0.0007588	58.625
1190.0	0.0007588	58.6710000038
1190.0	0.0007588	58.7030000687
1190.0	0.0007588	58.75
1190.0	0.0007585	58.7809998989
1190.0	0.0007585	58.8280000687
1190.0	0.0007588	58.875
1200.0	0.000756	59.1399998665
1200.0	0.0007553	59.1710000038
1200.0	0.0007548	59.2179999352
1200.0	0.000754	59.2649998665
1200.0	0.000754	59.2960000038
1200.0	0.0007538	59.3429999352
1200.0	0.0007535	59.375
1200.0	0.0007535	59.4210000038
1200.0	0.0007535	59.4679999352
1200.0	0.0007535	59.5
1200.0	0.0007535	59.5460000038
1200.0	0.0007535	59.5780000687
1200.0	0.0007535	59.625
1200.0	0.000753	59.6710000038
1200.0	0.000753	59.7030000687
1200.0	0.000753	59.75
1200.0	0.0007528	59.7960000038
1200.0	0.0007528	59.8280000687
1200.0	0.0007528	59.875
1200.0	0.0007528	59.9210000038
1200.0	0.0007525	59.9530000687
1200.0	0.0007528	60.0
1200.0	0.0007528	60.0309998989
1200.0	0.000753	60.0780000687
1200.0	0.000753	60.125
1200.0	0.0007535	60.1559998989
1200.0	0.0007535	60.2030000687
1200.0	0.0007538	60.25
1200.0	0.000754	60.2809998989
1200.0	0.0007543	60.3280000687
1200.0	0.0007543	60.3589999676
1200.0	0.0007543	60.4059998989
1200.0	0.0007543	60.4530000687
1200.0	0.0007548	60.4839999676
1200.0	0.000755	60.5309998989
1200.0	0.0007553	60.5780000687
1200.0	0.0007553	60.6089999676
1210.0	0.000756	60.875
1210.0	0.000756	60.9210000038
1210.0	0.0007563	60.9679999352
1210.0	0.0007563	61.0
1210.0	0.0007563	61.0460000038
1210.0	0.0007563	61.0780000687
1210.0	0.0007563	61.125
1210.0	0.0007565	61.1710000038
1210.0	0.0007568	61.2030000687
1210.0	0.0007573	61.25
1210.0	0.0007573	61.2960000038
1210.0	0.0007568	61.3280000687
1210.0	0.0007568	61.375
1210.0	0.0007568	61.4059998989
1210.0	0.0007568	61.4530000687
1210.0	0.0007568	61.5
1210.0	0.0007573	61.5309998989
1210.0	0.0007565	61.5780000687
1210.0	0.0007565	61.625
1210.0	0.0007563	61.6559998989
1210.0	0.0007565	61.7030000687
1210.0	0.0007563	61.7339999676
1210.0	0.000756	61.7809998989
1210.0	0.0007555	61.8280000687
1210.0	0.0007553	61.8589999676
1210.0	0.0007553	61.9059998989
1210.0	0.000755	61.9530000687
1210.0	0.000755	61.9839999676
1210.0	0.0007553	62.0309998989
1210.0	0.0007553	62.0780000687
1210.0	0.0007553	62.1089999676
1210.0	0.0007553	62.1559998989
1210.0	0.0007553	62.1870000362
1210.0	0.0007553	62.2339999676
1210.0	0.000755	62.2809998989
1210.0	0.000755	62.3120000362
1210.0	0.0007548	62.3589999676
1220.0	0.0007555	62.625
1220.0	0.000756	62.6710000038
1220.0	0.0007568	62.7030000687
1220.0	0.0007573	62.75
1220.0	0.0007578	62.7960000038
1220.0	0.000758	62.8280000687
1220.0	0.000758	62.875
1220.0	0.0007585	62.9059998989
1220.0	0.0007588	62.9530000687
1220.0	0.0007588	63.0
1220.0	0.000759	63.0309998989
1220.0	0.000759	63.0780000687
1220.0	0.0007593	63.125
1220.0	0.0007598	63.1559998989
1220.0	0.00076	63.2030000687
1220.0	0.0007603	63.2339999676
1220.0	0.0007605	63.2809998989
1220.0	0.0007603	63.3280000687
1220.0	0.0007603	63.3589999676
1220.0	0.0007605	63.4059998989
1220.0	0.0007603	63.4530000687
1220.0	0.0007603	63.4839999676
1220.0	0.0007603	63.5309998989
1220.0	0.0007603	63.5620000362
1220.0	0.00076	63.6089999676
1220.0	0.00076	63.6559998989
1220.0	0.0007603	63.6870000362
1220.0	0.0007605	63.7339999676
1220.0	0.0007613	63.7809998989
1220.0	0.0007615	63.8120000362
1220.0	0.0007618	63.8589999676
1220.0	0.0007618	63.9059998989
1220.0	0.0007618	63.9370000362
1220.0	0.0007618	63.9839999676
1220.0	0.0007615	64.0149998665
1220.0	0.0007618	64.0620000362
1220.0	0.0007615	64.1089999676
1230.0	0.0007653	64.375
1230.0	0.0007665	64.4210000038
1230.0	0.0007678	64.4530000687
1230.0	0.0007688	64.5
1230.0	0.0007698	64.5309998989
1230.0	0.0007705	64.5780000687
1230.0	0.0007713	64.625
1230.0	0.0007715	64.6710000038
1230.0	0.0007718	64.7030000687
1230.0	0.0007718	64.75
1230.0	0.0007718	64.7960000038
1230.0	0.0007718	64.8280000687
1230.0	0.0007715	64.875
1230.0	0.0007715	64.9059998989
1230.0	0.0007713	64.9530000687
1230.0	0.000771	65.0
1230.0	0.000771	65.0309998989
1230.0	0.000771	65.0780000687
1230.0	0.0007705	65.125
1230.0	0.000771	65.1559998989
1230.0	0.000771	65.2030000687
1230.0	0.000771	65.2339999676
1230.0	0.000771	65.2809998989
1230.0	0.000771	65.3280000687
1230.0	0.0007703	65.3589999676
1230.0	0.00077	65.4059998989
1230.0	0.0007698	65.4530000687
1230.0	0.0007698	65.4839999676
1230.0	0.0007693	65.5309998989
1230.0	0.000769	65.5780000687
1230.0	0.0007693	65.6089999676
1230.0	0.0007698	65.6559998989
1230.0	0.0007698	65.6870000362
1230.0	0.00077	65.7339999676
1230.0	0.00077	65.7809998989
1230.0	0.0007703	65.8120000362
1230.0	0.00077	65.8589999676
1240.0	0.000775	66.125
1240.0	0.0007775	66.1710000038
1240.0	0.000779	66.2030000687
1240.0	0.000781	66.25
1240.0	0.0007823	66.2960000038
1240.0	0.000783	66.3280000687
1240.0	0.0007838	66.375
1240.0	0.000784	66.4210000038
1240.0	0.0007843	66.4530000687
1240.0	0.0007848	66.5
1240.0	0.000785	66.5460000038
1240.0	0.0007853	66.5780000687
1240.0	0.000786	66.625
1240.0	0.000786	66.6559998989
1240.0	0.0007863	66.7030000687
1240.0	0.0007863	66.75
1240.0	0.0007863	66.7809998989
1240.0	0.0007865	66.8280000687
1240.0	0.0007865	66.875
1240.0	0.0007868	66.9059998989
1240.0	0.0007868	66.9530000687
1240.0	0.0007868	66.9839999676
1240.0	0.0007868	67.0309998989
1240.0	0.0007868	67.0780000687
1240.0	0.0007865	67.1089999676
1240.0	0.0007873	67.1559998989
1240.0	0.0007875	67.2030000687
1240.0	0.0007873	67.2339999676
1240.0	0.0007875	67.2809998989
1240.0	0.0007878	67.3120000362
1240.0	0.0007878	67.3589999676
1240.0	0.0007878	67.4059998989
1240.0	0.000788	67.4370000362
1240.0	0.000788	67.4839999676
1240.0	0.000788	67.5309998989
1240.0	0.000788	67.5620000362
1240.0	0.000788	67.6089999676
1250.0	0.0007943	67.875
1250.0	0.0007968	67.9210000038
1250.0	0.0007988	67.9530000687
1250.0	0.0008005	68.0
1250.0	0.0008018	68.0460000038
1250.0	0.0008028	68.0780000687
1250.0	0.0008035	68.125
1250.0	0.000804	68.1710000038
1250.0	0.0008048	68.2030000687
1250.0	0.0008048	68.25
1250.0	0.0008048	68.2809998989
1250.0	0.0008048	68.3280000687
1250.0	0.0008048	68.375
1250.0	0.0008048	68.4059998989
1250.0	0.0008048	68.4530000687
1250.0	0.0008048	68.5
1250.0	0.0008048	68.5309998989
1250.0	0.0008043	68.5780000687
1250.0	0.0008048	68.625
1250.0	0.0008048	68.6559998989
1250.0	0.0008048	68.7030000687
1250.0	0.0008043	68.7339999676
1250.0	0.0008043	68.7809998989
1250.0	0.000804	68.8280000687
1250.0	0.000804	68.8589999676
1250.0	0.000804	68.9059998989
1250.0	0.000804	68.9530000687
1250.0	0.0008043	68.9839999676
1250.0	0.000804	69.0309998989
1250.0	0.0008043	69.0620000362
1250.0	0.000804	69.1089999676
1250.0	0.0008043	69.1559998989
1250.0	0.0008043	69.1870000362
1250.0	0.0008043	69.2339999676
1250.0	0.0008043	69.2809998989
1250.0	0.0008043	69.3120000362
1250.0	0.000804	69.3589999676
1260.0	0.000811	69.625
1260.0	0.0008135	69.6710000038
1260.0	0.000816	69.7179999352
1260.0	0.0008178	69.75
1260.0	0.0008193	69.7960000038
1260.0	0.000821	69.8429999352
1260.0	0.0008215	69.8899998665
1260.0	0.0008218	69.9210000038
1260.0	0.0008225	69.9679999352
1260.0	0.0008228	70.0
1260.0	0.0008235	70.0460000038
1260.0	0.0008235	70.0929999352
1260.0	0.000824	70.1399998665
1260.0	0.0008243	70.1710000038
1260.0	0.0008248	70.2179999352
1260.0	0.000825	70.25
1260.0	0.000825	70.2960000038
1260.0	0.000825	70.3429999352
1260.0	0.000825	70.375
1260.0	0.000825	70.4210000038
1260.0	0.000825	70.4679999352
1260.0	0.0008253	70.5
1260.0	0.0008253	70.5460000038
1260.0	0.0008255	70.5780000687
1260.0	0.000826	70.625
1260.0	0.0008263	70.6710000038
1260.0	0.0008263	70.7030000687
1260.0	0.0008263	70.75
1260.0	0.0008265	70.7960000038
1260.0	0.0008265	70.8280000687
1260.0	0.0008265	70.875
1260.0	0.0008265	70.9059998989
1260.0	0.0008265	70.9530000687
1260.0	0.0008265	71.0
1260.0	0.0008268	71.0309998989
1260.0	0.0008265	71.0780000687
1260.0	0.0008265	71.125
1270.0	0.0008338	71.3899998665
1270.0	0.0008365	71.4210000038
1270.0	0.0008388	71.4679999352
1270.0	0.000841	71.5149998665
1270.0	0.0008425	71.5460000038
1270.0	0.000844	71.5929999352
1270.0	0.000845	71.6399998665
1270.0	0.0008455	71.6710000038
1270.0	0.0008463	71.7179999352
1270.0	0.0008465	71.7649998665
1270.0	0.0008468	71.7960000038
1270.0	0.0008473	71.8429999352
1270.0	0.0008473	71.8899998665
1270.0	0.0008473	71.9210000038
1270.0	0.0008475	71.9679999352
1270.0	0.0008475	72.0
1270.0	0.0008478	72.0460000038
1270.0	0.0008478	72.0929999352
1270.0	0.0008478	72.125
1270.0	0.0008478	72.1710000038
1270.0	0.0008478	72.2179999352
1270.0	0.0008485	72.25
1270.0	0.0008488	72.2960000038
1270.0	0.0008488	72.3280000687
1270.0	0.0008488	72.375
1270.0	0.0008485	72.4210000038
1270.0	0.000848	72.4530000687
1270.0	0.0008478	72.5
1270.0	0.0008478	72.5460000038
1270.0	0.0008475	72.5780000687
1270.0	0.0008473	72.625
1270.0	0.0008473	72.6710000038
1270.0	0.0008473	72.7030000687
1270.0	0.0008473	72.75
1270.0	0.0008473	72.7960000038
1270.0	0.0008473	72.8280000687
1270.0	0.0008473	72.875
1280.0	0.0008535	73.1399998665
1280.0	0.0008555	73.1870000362
1280.0	0.0008573	73.2179999352
1280.0	0.0008588	73.2649998665
1280.0	0.00086	73.2960000038
1280.0	0.000861	73.3429999352
1280.0	0.0008613	73.3899998665
1280.0	0.0008615	73.4210000038
1280.0	0.0008618	73.4679999352
1280.0	0.0008623	73.5149998665
1280.0	0.0008623	73.5460000038
1280.0	0.0008623	73.5929999352
1280.0	0.0008623	73.6399998665
1280.0	0.0008618	73.6710000038
1280.0	0.0008623	73.7179999352
1280.0	0.0008623	73.75
1280.0	0.0008625	73.7960000038
1280.0	0.0008623	73.8429999352
1280.0	0.0008623	73.8899998665
1280.0	0.0008618	73.9210000038
1280.0	0.0008623	73.9679999352
1280.0	0.0008623	74.0
1280.0	0.0008625	74.0460000038
1280.0	0.0008628	74.0929999352
1280.0	0.0008625	74.125
1280.0	0.0008625	74.1710000038
1280.0	0.0008623	74.2179999352
1280.0	0.0008618	74.25
1280.0	0.0008615	74.2960000038
1280.0	0.0008613	74.3280000687
1280.0	0.000861	74.375
1280.0	0.0008613	74.4210000038
1280.0	0.0008613	74.4530000687
1280.0	0.0008615	74.5
1280.0	0.0008613	74.5460000038
1280.0	0.000861	74.5780000687
1280.0	0.000861	74.625
1290.0	0.0008655	74.8899998665
1290.0	0.0008673	74.9370000362
1290.0	0.0008685	74.9679999352
1290.0	0.0008698	75.0149998665
1290.0	0.0008705	75.0460000038
1290.0	0.0008713	75.0929999352
1290.0	0.0008718	75.1399998665
1290.0	0.0008718	75.1710000038
1290.0	0.0008718	75.2179999352
1290.0	0.0008718	75.2649998665
1290.0	0.0008718	75.2960000038
1290.0	0.0008715	75.3429999352
1290.0	0.0008715	75.375
1290.0	0.0008713	75.4210000038
1290.0	0.0008715	75.4679999352
1290.0	0.0008715	75.5
1290.0	0.0008715	75.5460000038
1290.0	0.0008715	75.5929999352
1290.0	0.0008715	75.625
1290.0	0.0008715	75.6710000038
1290.0	0.0008718	75.7030000687
1290.0	0.0008723	75.75
1290.0	0.0008718	75.7960000038
1290.0	0.0008725	75.8280000687
1290.0	0.0008728	75.875
1290.0	0.0008735	75.9210000038
1290.0	0.0008735	75.9679999352
1290.0	0.0008725	76.0
1290.0	0.0008725	76.0460000038
1290.0	0.0008725	76.0780000687
1290.0	0.0008728	76.125
1290.0	0.0008728	76.1710000038
1290.0	0.000873	76.2030000687
1290.0	0.000873	76.25
1290.0	0.0008735	76.2960000038
1290.0	0.0008735	76.3280000687
1290.0	0.0008735	76.375
1300.0	0.000876	76.6399998665
1300.0	0.000876	76.6710000038
1300.0	0.000876	76.7179999352
1300.0	0.000876	76.7649998665
1300.0	0.0008763	76.7960000038
1300.0	0.0008765	76.8429999352
1300.0	0.0008773	76.875
1300.0	0.0008773	76.9210000038
1300.0	0.0008775	76.9679999352
1300.0	0.0008778	77.0
1300.0	0.0008778	77.0460000038
1300.0	0.0008778	77.0929999352
1300.0	0.0008778	77.125
1300.0	0.0008778	77.1710000038
1300.0	0.0008778	77.2030000687
1300.0	0.0008785	77.25
1300.0	0.0008785	77.2960000038
1300.0	0.0008785	77.3280000687
1300.0	0.0008785	77.375
1300.0	0.0008785	77.4210000038
1300.0	0.0008788	77.4530000687
1300.0	0.000879	77.5
1300.0	0.000879	77.5309998989
1300.0	0.0008798	77.5780000687
1300.0	0.0008803	77.625
1300.0	0.0008803	77.6559998989
1300.0	0.0008803	77.7030000687
1300.0	0.00088	77.75
1300.0	0.0008798	77.7809998989
1300.0	0.0008793	77.8280000687
1300.0	0.0008798	77.8589999676
1300.0	0.0008798	77.9059998989
1300.0	0.00088	77.9530000687
1300.0	0.00088	78.0
1300.0	0.00088	78.0309998989
1300.0	0.00088	78.0780000687
1300.0	0.0008798	78.125
1310.0	0.0008785	78.375
1310.0	0.0008778	78.4210000038
1310.0	0.0008773	78.4679999352
1310.0	0.0008773	78.5
1310.0	0.0008768	78.5460000038
1310.0	0.0008763	78.5780000687
1310.0	0.000876	78.625
1310.0	0.0008753	78.6710000038
1310.0	0.0008753	78.7030000687
1310.0	0.0008753	78.75
1310.0	0.000875	78.7960000038
1310.0	0.000875	78.8280000687
1310.0	0.000875	78.875
1310.0	0.000875	78.9210000038
1310.0	0.000875	78.9530000687
1310.0	0.000875	79.0
1310.0	0.0008753	79.0460000038
1310.0	0.0008753	79.0780000687
1310.0	0.0008753	79.125
1310.0	0.0008753	79.1710000038
1310.0	0.0008755	79.2030000687
1310.0	0.000876	79.25
1310.0	0.000876	79.2809998989
1310.0	0.000876	79.3280000687
1310.0	0.0008763	79.375
1310.0	0.0008763	79.4059998989
1310.0	0.000876	79.4530000687
1310.0	0.0008755	79.5
1310.0	0.0008755	79.5309998989
1310.0	0.0008755	79.5780000687
1310.0	0.0008755	79.6089999676
1310.0	0.0008755	79.6559998989
1310.0	0.0008755	79.7030000687
1310.0	0.0008753	79.7339999676
1310.0	0.0008755	79.7809998989
1310.0	0.0008763	79.8280000687
1310.0	0.000876	79.8589999676
1320.0	0.0008703	80.125
1320.0	0.0008685	80.1710000038
1320.0	0.0008663	80.2179999352
1320.0	0.000865	80.25
1320.0	0.000864	80.2960000038
1320.0	0.0008635	80.3280000687
1320.0	0.0008625	80.375
1320.0	0.0008618	80.4210000038
1320.0	0.0008613	80.4530000687
1320.0	0.0008605	80.5
1320.0	0.000861	80.5460000038
1320.0	0.000861	80.5780000687
1320.0	0.0008605	80.625
1320.0	0.0008605	80.6710000038
1320.0	0.0008605	80.7030000687
1320.0	0.0008605	80.75
1320.0	0.0008603	80.7809998989
1320.0	0.00086	80.8280000687
1320.0	0.0008603	80.875
1320.0	0.0008603	80.9059998989
1320.0	0.00086	80.9530000687
1320.0	0.0008598	81.0
1320.0	0.0008598	81.0309998989
1320.0	0.00086	81.0780000687
1320.0	0.00086	81.1089999676
1320.0	0.0008603	81.1559998989
1320.0	0.0008603	81.2030000687
1320.0	0.0008603	81.2339999676
1320.0	0.0008605	81.2809998989
1320.0	0.000861	81.3280000687
1320.0	0.0008613	81.3589999676
1320.0	0.0008618	81.4059998989
1320.0	0.0008618	81.4370000362
1320.0	0.0008615	81.4839999676
1320.0	0.0008613	81.5309998989
1320.0	0.0008605	81.5620000362
1320.0	0.0008605	81.6089999676
1330.0	0.0008515	81.875
1330.0	0.0008485	81.9059998989
1330.0	0.000846	81.9530000687
1330.0	0.0008435	82.0
1330.0	0.0008415	82.0309998989
1330.0	0.00084	82.0780000687
1330.0	0.0008388	82.125
1330.0	0.0008378	82.1559998989
1330.0	0.0008368	82.2030000687
1330.0	0.000836	82.2339999676
1330.0	0.0008355	82.2809998989
1330.0	0.0008353	82.3280000687
1330.0	0.0008348	82.3589999676
1330.0	0.0008348	82.4059998989
1330.0	0.0008343	82.4530000687
1330.0	0.0008343	82.4839999676
1330.0	0.0008348	82.5309998989
1330.0	0.0008348	82.5620000362
1330.0	0.0008348	82.6089999676
1330.0	0.0008353	82.6559998989
1330.0	0.0008353	82.6870000362
1330.0	0.0008353	82.7339999676
1330.0	0.0008353	82.7809998989
1330.0	0.0008353	82.8120000362
1330.0	0.0008353	82.8589999676
1330.0	0.000835	82.9059998989
1330.0	0.0008348	82.9370000362
1330.0	0.0008348	82.9839999676
1330.0	0.000834	83.0309998989
1330.0	0.0008338	83.0620000362
1330.0	0.0008335	83.1089999676
1330.0	0.0008338	83.1559998989
1330.0	0.0008343	83.1870000362
1330.0	0.000835	83.2339999676
1330.0	0.000835	83.2649998665
1330.0	0.000835	83.3120000362
1330.0	0.0008343	83.3589999676
1340.0	0.0008228	83.6089999676
1340.0	0.0008178	83.6559998989
1340.0	0.0008138	83.6870000362
1340.0	0.0008105	83.7339999676
1340.0	0.000808	83.7809998989
1340.0	0.0008065	83.8120000362
1340.0	0.0008055	83.8589999676
1340.0	0.0008048	83.9059998989
1340.0	0.0008043	83.9370000362
1340.0	0.0008035	83.9839999676
1340.0	0.000803	84.0309998989
1340.0	0.0008028	84.0620000362
1340.0	0.0008028	84.1089999676
1340.0	0.000803	84.1399998665
1340.0	0.000803	84.1870000362
1340.0	0.0008028	84.2339999676
1340.0	0.0008023	84.2649998665
1340.0	0.0008023	84.3120000362
1340.0	0.0008018	84.3589999676
1340.0	0.0008023	84.3899998665
1340.0	0.0008018	84.4370000362
1340.0	0.0008018	84.4679999352
1340.0	0.0008023	84.5149998665
1340.0	0.0008023	84.5620000362
1340.0	0.0008023	84.5929999352
1340.0	0.0008023	84.6399998665
1340.0	0.0008023	84.6870000362
1340.0	0.0008023	84.7179999352
1340.0	0.0008023	84.7649998665
1340.0	0.0008025	84.7960000038
1340.0	0.0008025	84.8429999352
1340.0	0.0008018	84.8899998665
1340.0	0.0008015	84.9210000038
1340.0	0.0008018	84.9679999352
1340.0	0.0008018	85.0149998665
1340.0	0.0008018	85.0460000038
1340.0	0.0008018	85.0929999352
1350.0	0.0007888	85.3589999676
1350.0	0.0007838	85.3899998665
1350.0	0.0007798	85.4370000362
1350.0	0.0007755	85.4839999676
1350.0	0.0007728	85.5149998665
1350.0	0.0007703	85.5620000362
1350.0	0.0007685	85.5929999352
1350.0	0.0007673	85.6399998665
1350.0	0.0007663	85.6870000362
1350.0	0.0007655	85.7179999352
1350.0	0.0007653	85.7649998665
1350.0	0.000765	85.8120000362
1350.0	0.000765	85.8429999352
1350.0	0.0007648	85.8899998665
1350.0	0.0007648	85.9370000362
1350.0	0.0007643	85.9679999352
1350.0	0.0007643	86.0149998665
1350.0	0.000764	86.0460000038
1350.0	0.000764	86.0929999352
1350.0	0.000764	86.1399998665
1350.0	0.000764	86.1710000038
1350.0	0.0007643	86.2179999352
1350.0	0.0007643	86.2649998665
1350.0	0.0007648	86.2960000038
1350.0	0.000765	86.3429999352
1350.0	0.000765	86.375
1350.0	0.0007653	86.4210000038
1350.0	0.0007653	86.4679999352
1350.0	0.0007653	86.5
1350.0	0.0007653	86.5460000038
1350.0	0.0007655	86.5929999352
1350.0	0.0007655	86.625
1350.0	0.0007653	86.6710000038
1350.0	0.0007655	86.7030000687
1350.0	0.000766	86.75
1350.0	0.0007655	86.7960000038
1350.0	0.000766	86.8429999352
1360.0	0.0007515	87.0929999352
1360.0	0.0007455	87.1399998665
1360.0	0.000741	87.1870000362
1360.0	0.0007373	87.2179999352
1360.0	0.0007343	87.2649998665
1360.0	0.0007318	87.3120000362
1360.0	0.00073	87.3429999352
1360.0	0.0007288	87.3899998665
1360.0	0.0007278	87.4210000038
1360.0	0.0007265	87.4679999352
1360.0	0.0007263	87.5149998665
1360.0	0.000726	87.5460000038
1360.0	0.000726	87.5929999352
1360.0	0.0007255	87.6399998665
1360.0	0.0007253	87.6710000038
1360.0	0.0007253	87.7179999352
1360.0	0.000725	87.7649998665
1360.0	0.0007248	87.7960000038
1360.0	0.0007248	87.8429999352
1360.0	0.0007248	87.875
1360.0	0.0007248	87.9210000038
1360.0	0.0007248	87.9679999352
1360.0	0.000725	88.0
1360.0	0.0007253	88.0460000038
1360.0	0.0007253	88.0780000687
1360.0	0.0007253	88.125
1360.0	0.0007255	88.1710000038
1360.0	0.0007255	88.2030000687
1360.0	0.0007255	88.25
1360.0	0.000726	88.2960000038
1360.0	0.000726	88.3280000687
1360.0	0.000726	88.375
1360.0	0.0007265	88.4210000038
1360.0	0.0007265	88.4530000687
1360.0	0.0007265	88.5
1360.0	0.0007265	88.5309998989
1360.0	0.0007263	88.5780000687
1370.0	0.0007105	88.8429999352
1370.0	0.0007048	88.8899998665
1370.0	0.0006998	88.9210000038
1370.0	0.0006955	88.9679999352
1370.0	0.0006925	89.0
1370.0	0.00069	89.0460000038
1370.0	0.0006885	89.0929999352
1370.0	0.0006868	89.125
1370.0	0.000686	89.1710000038
1370.0	0.000685	89.2030000687
1370.0	0.000684	89.25
1370.0	0.000684	89.2960000038
1370.0	0.0006838	89.3429999352
1370.0	0.0006835	89.375
1370.0	0.0006835	89.4210000038
1370.0	0.0006835	89.4679999352
1370.0	0.0006828	89.5
1370.0	0.0006828	89.5460000038
1370.0	0.0006825	89.5780000687
1370.0	0.0006825	89.625
1370.0	0.0006828	89.6710000038
1370.0	0.0006828	89.7030000687
1370.0	0.0006828	89.75
1370.0	0.0006825	89.7960000038
1370.0	0.0006823	89.8280000687
1370.0	0.0006818	89.875
1370.0	0.0006815	89.9059998989
1370.0	0.0006818	89.9530000687
1370.0	0.0006818	90.0
1370.0	0.0006818	90.0309998989
1370.0	0.0006815	90.0780000687
1370.0	0.0006813	90.125
1370.0	0.0006813	90.1710000038
1370.0	0.0006813	90.2030000687
1370.0	0.0006813	90.25
1370.0	0.0006815	90.2809998989
1370.0	0.0006815	90.3280000687
1380.0	0.0006653	90.5929999352
1380.0	0.000659	90.6399998665
1380.0	0.000654	90.6710000038
1380.0	0.00065	90.7179999352
1380.0	0.0006468	90.75
1380.0	0.0006438	90.7960000038
1380.0	0.0006415	90.8429999352
1380.0	0.00064	90.875
1380.0	0.0006393	90.9210000038
1380.0	0.0006388	90.9530000687
1380.0	0.0006383	91.0
1380.0	0.0006375	91.0460000038
1380.0	0.0006375	91.0780000687
1380.0	0.000637	91.125
1380.0	0.0006375	91.1710000038
1380.0	0.000637	91.2030000687
1380.0	0.000637	91.25
1380.0	0.000637	91.2960000038
1380.0	0.000637	91.3280000687
1380.0	0.0006365	91.375
1380.0	0.0006365	91.4059998989
1380.0	0.0006365	91.4530000687
1380.0	0.0006363	91.5
1380.0	0.0006363	91.5309998989
1380.0	0.0006363	91.5780000687
1380.0	0.0006363	91.625
1380.0	0.0006363	91.6559998989
1380.0	0.0006358	91.7030000687
1380.0	0.0006363	91.7339999676
1380.0	0.0006363	91.7809998989
1380.0	0.0006363	91.8280000687
1380.0	0.0006365	91.8589999676
1380.0	0.0006363	91.9059998989
1380.0	0.0006358	91.9530000687
1380.0	0.0006355	91.9839999676
1380.0	0.0006355	92.0309998989
1380.0	0.0006355	92.0620000362
1390.0	0.0006193	92.3429999352
1390.0	0.0006133	92.375
1390.0	0.0006088	92.4210000038
1390.0	0.0006053	92.4530000687
1390.0	0.0006018	92.5
1390.0	0.0005993	92.5460000038
1390.0	0.0005978	92.5780000687
1390.0	0.0005968	92.625
1390.0	0.0005958	92.6710000038
1390.0	0.000595	92.7030000687
1390.0	0.0005945	92.75
1390.0	0.0005938	92.7960000038
1390.0	0.0005933	92.8280000687
1390.0	0.000593	92.875
1390.0	0.0005928	92.9210000038
1390.0	0.0005928	92.9530000687
1390.0	0.0005928	93.0
1390.0	0.0005928	93.0309998989
1390.0	0.0005928	93.0780000687
1390.0	0.000593	93.125
1390.0	0.000593	93.1559998989
1390.0	0.000593	93.2030000687
1390.0	0.000593	93.25
1390.0	0.0005928	93.2809998989
1390.0	0.000593	93.3280000687
1390.0	0.000593	93.375
1390.0	0.000593	93.4059998989
1390.0	0.0005933	93.4530000687
1390.0	0.0005933	93.4839999676
1390.0	0.0005938	93.5309998989
1390.0	0.0005938	93.5780000687
1390.0	0.0005938	93.6089999676
1390.0	0.0005938	93.6559998989
1390.0	0.000594	93.7030000687
1390.0	0.0005943	93.7339999676
1390.0	0.0005943	93.7809998989
1390.0	0.0005943	93.8120000362
1400.0	0.0005803	94.0929999352
1400.0	0.0005745	94.125
1400.0	0.0005705	94.1710000038
1400.0	0.0005675	94.2030000687
1400.0	0.0005643	94.25
1400.0	0.0005625	94.2960000038
1400.0	0.0005613	94.3280000687
1400.0	0.0005593	94.375
1400.0	0.000559	94.4210000038
1400.0	0.0005583	94.4530000687
1400.0	0.0005578	94.5
1400.0	0.0005575	94.5309998989
1400.0	0.000557	94.5780000687
1400.0	0.0005568	94.625
1400.0	0.0005568	94.6559998989
1400.0	0.0005565	94.7030000687
1400.0	0.0005565	94.75
1400.0	0.0005565	94.7809998989
1400.0	0.0005565	94.8280000687
1400.0	0.0005565	94.8589999676
1400.0	0.0005565	94.9059998989
1400.0	0.0005565	94.9530000687
1400.0	0.0005568	94.9839999676
1400.0	0.0005568	95.0309998989
1400.0	0.0005565	95.0780000687
1400.0	0.0005563	95.1089999676
1400.0	0.0005563	95.1559998989
1400.0	0.0005563	95.2030000687
1400.0	0.0005563	95.2339999676
1400.0	0.0005563	95.2809998989
1400.0	0.0005565	95.3280000687
1400.0	0.0005563	95.3589999676
1400.0	0.0005563	95.4059998989
1400.0	0.0005565	95.4530000687
1400.0	0.000557	95.4839999676
1400.0	0.0005575	95.5309998989
1400.0	0.0005575	95.5780000687
1410.0	0.0005443	95.8280000687
1410.0	0.00054	95.875
1410.0	0.0005355	95.9210000038
1410.0	0.0005328	95.9530000687
1410.0	0.0005305	96.0
1410.0	0.0005288	96.0460000038
1410.0	0.000527	96.0780000687
1410.0	0.0005258	96.125
1410.0	0.000525	96.1710000038
1410.0	0.0005243	96.2030000687
1410.0	0.0005238	96.25
1410.0	0.0005233	96.2960000038
1410.0	0.000523	96.3280000687
1410.0	0.0005228	96.375
1410.0	0.000523	96.4210000038
1410.0	0.000523	96.4530000687
1410.0	0.0005228	96.5
1410.0	0.0005225	96.5460000038
1410.0	0.0005225	96.5780000687
1410.0	0.0005225	96.625
1410.0	0.0005228	96.6710000038
1410.0	0.0005228	96.7030000687
1410.0	0.0005225	96.75
1410.0	0.0005225	96.7960000038
1410.0	0.000522	96.8280000687
1410.0	0.000522	96.875
1410.0	0.0005218	96.9210000038
1410.0	0.0005218	96.9530000687
1410.0	0.0005218	97.0
1410.0	0.0005215	97.0460000038
1410.0	0.0005218	97.0780000687
1410.0	0.0005218	97.125
1410.0	0.0005215	97.1559998989
1410.0	0.0005218	97.2030000687
1410.0	0.0005215	97.25
1410.0	0.0005215	97.2809998989
1410.0	0.0005208	97.3280000687
1420.0	0.000509	97.5929999352
1420.0	0.000505	97.6399998665
1420.0	0.0005018	97.6710000038
1420.0	0.0004993	97.7179999352
1420.0	0.0004975	97.7649998665
1420.0	0.0004958	97.7960000038
1420.0	0.000495	97.8429999352
1420.0	0.0004943	97.875
1420.0	0.0004938	97.9210000038
1420.0	0.0004933	97.9679999352
1420.0	0.0004933	98.0
1420.0	0.0004928	98.0460000038
1420.0	0.0004928	98.0929999352
1420.0	0.0004925	98.125
1420.0	0.0004925	98.1710000038
1420.0	0.0004925	98.2179999352
1420.0	0.0004925	98.25
1420.0	0.0004918	98.2960000038
1420.0	0.0004918	98.3429999352
1420.0	0.0004915	98.375
1420.0	0.0004918	98.4210000038
1420.0	0.0004918	98.4530000687
1420.0	0.0004918	98.5
1420.0	0.0004918	98.5460000038
1420.0	0.0004918	98.5780000687
1420.0	0.0004918	98.625
1420.0	0.0004918	98.6710000038
1420.0	0.0004918	98.7030000687
1420.0	0.0004918	98.75
1420.0	0.0004918	98.7960000038
1420.0	0.0004918	98.8280000687
1420.0	0.0004918	98.875
1420.0	0.0004915	98.9059998989
1420.0	0.0004915	98.9530000687
1420.0	0.0004915	99.0
1420.0	0.0004913	99.0309998989
1420.0	0.0004913	99.0780000687
1430.0	0.000483	99.3429999352
1430.0	0.00048	99.3899998665
1430.0	0.0004778	99.4210000038
1430.0	0.0004758	99.4679999352
1430.0	0.0004743	99.5149998665
1430.0	0.0004733	99.5460000038
1430.0	0.0004725	99.5929999352
1430.0	0.0004718	99.625
1430.0	0.0004715	99.6710000038
1430.0	0.0004713	99.7179999352
1430.0	0.0004713	99.75
1430.0	0.0004705	99.7960000038
1430.0	0.0004703	99.8429999352
1430.0	0.00047	99.875
1430.0	0.00047	99.9210000038
1430.0	0.0004703	99.9530000687
1430.0	0.0004703	100.0
1430.0	0.0004703	100.046000004
1430.0	0.0004703	100.078000069
1430.0	0.0004705	100.125
1430.0	0.0004705	100.171000004
1430.0	0.0004703	100.203000069
1430.0	0.0004703	100.25
1430.0	0.0004703	100.280999899
1430.0	0.0004705	100.328000069
1430.0	0.0004705	100.375
1430.0	0.0004708	100.405999899
1430.0	0.0004708	100.453000069
1430.0	0.0004708	100.5
1430.0	0.0004708	100.530999899
1430.0	0.0004713	100.578000069
1430.0	0.0004713	100.608999968
1430.0	0.0004715	100.655999899
1430.0	0.0004715	100.703000069
1430.0	0.0004715	100.733999968
1430.0	0.0004718	100.780999899
1430.0	0.0004715	100.828000069
1440.0	0.0004665	101.092999935
1440.0	0.000465	101.125
1440.0	0.0004633	101.171000004
1440.0	0.000462	101.217999935
1440.0	0.0004613	101.25
1440.0	0.0004605	101.296000004
1440.0	0.0004603	101.328000069
1440.0	0.0004595	101.375
1440.0	0.0004593	101.421000004
1440.0	0.000459	101.453000069
1440.0	0.0004588	101.5
1440.0	0.000459	101.546000004
1440.0	0.000459	101.578000069
1440.0	0.0004588	101.625
1440.0	0.0004588	101.671000004
1440.0	0.0004588	101.703000069
1440.0	0.0004588	101.75
1440.0	0.0004583	101.780999899
1440.0	0.0004583	101.828000069
1440.0	0.0004583	101.875
1440.0	0.0004583	101.905999899
1440.0	0.000458	101.953000069
1440.0	0.000458	102.0
1440.0	0.0004578	102.030999899
1440.0	0.0004575	102.078000069
1440.0	0.0004575	102.108999968
1440.0	0.0004578	102.155999899
1440.0	0.000458	102.203000069
1440.0	0.000458	102.233999968
1440.0	0.000458	102.280999899
1440.0	0.000458	102.328000069
1440.0	0.000458	102.358999968
1440.0	0.000458	102.405999899
1440.0	0.0004583	102.437000036
1440.0	0.0004583	102.483999968
1440.0	0.0004583	102.530999899
1440.0	0.0004583	102.562000036
1450.0	0.0004545	102.828000069
1450.0	0.0004538	102.875
1450.0	0.0004528	102.921000004
1450.0	0.0004518	102.953000069
1450.0	0.0004513	103.0
1450.0	0.0004513	103.046000004
1450.0	0.0004508	103.078000069
1450.0	0.0004508	103.125
1450.0	0.0004505	103.155999899
1450.0	0.0004505	103.203000069
1450.0	0.0004505	103.25
1450.0	0.0004503	103.280999899
1450.0	0.00045	103.328000069
1450.0	0.0004495	103.375
1450.0	0.0004495	103.405999899
1450.0	0.00045	103.453000069
1450.0	0.0004495	103.5
1450.0	0.00045	103.530999899
1450.0	0.0004495	103.578000069
1450.0	0.0004493	103.608999968
1450.0	0.0004493	103.655999899
1450.0	0.000449	103.703000069
1450.0	0.0004493	103.733999968
1450.0	0.0004493	103.780999899
1450.0	0.0004495	103.828000069
1450.0	0.0004495	103.858999968
1450.0	0.0004493	103.905999899
1450.0	0.0004493	103.937000036
1450.0	0.0004493	103.983999968
1450.0	0.0004493	104.030999899
1450.0	0.000449	104.062000036
1450.0	0.000449	104.108999968
1450.0	0.0004488	104.155999899
1450.0	0.000449	104.187000036
1450.0	0.000449	104.233999968
1450.0	0.0004488	104.280999899
1450.0	0.0004488	104.312000036
1460.0	0.0004478	104.578000069
1460.0	0.0004475	104.625
1460.0	0.000447	104.655999899
1460.0	0.0004468	104.703000069
1460.0	0.0004465	104.75
1460.0	0.0004465	104.780999899
1460.0	0.0004465	104.828000069
1460.0	0.0004468	104.875
1460.0	0.0004465	104.905999899
1460.0	0.0004463	104.953000069
1460.0	0.0004458	104.983999968
1460.0	0.0004458	105.030999899
1460.0	0.0004455	105.078000069
1460.0	0.0004455	105.108999968
1460.0	0.0004453	105.155999899
1460.0	0.0004455	105.203000069
1460.0	0.0004455	105.233999968
1460.0	0.0004453	105.280999899
1460.0	0.000445	105.312000036
1460.0	0.0004445	105.358999968
1460.0	0.000445	105.405999899
1460.0	0.000445	105.437000036
1460.0	0.0004453	105.483999968
1460.0	0.0004455	105.530999899
1460.0	0.0004458	105.578000069
1460.0	0.0004458	105.608999968
1460.0	0.0004463	105.655999899
1460.0	0.0004463	105.687000036
1460.0	0.0004458	105.733999968
1460.0	0.0004458	105.780999899
1460.0	0.0004455	105.812000036
1460.0	0.0004455	105.858999968
1460.0	0.0004455	105.905999899
1460.0	0.0004453	105.937000036
1460.0	0.0004453	105.983999968
1460.0	0.000445	106.014999866
1460.0	0.000445	106.062000036
1470.0	0.0004463	106.328000069
1470.0	0.0004463	106.375
1470.0	0.0004465	106.405999899
1470.0	0.0004468	106.453000069
1470.0	0.0004468	106.5
1470.0	0.0004468	106.530999899
1470.0	0.0004468	106.578000069
1470.0	0.0004468	106.625
1470.0	0.000447	106.655999899
1470.0	0.0004468	106.703000069
1470.0	0.000447	106.733999968
1470.0	0.000447	106.780999899
1470.0	0.000447	106.828000069
1470.0	0.0004475	106.858999968
1470.0	0.0004478	106.905999899
1470.0	0.0004475	106.953000069
1470.0	0.000447	106.983999968
1470.0	0.000447	107.030999899
1470.0	0.0004468	107.078000069
1470.0	0.0004468	107.108999968
1470.0	0.000447	107.155999899
1470.0	0.0004475	107.203000069
1470.0	0.0004475	107.233999968
1470.0	0.000447	107.280999899
1470.0	0.0004475	107.312000036
1470.0	0.0004475	107.358999968
1470.0	0.0004475	107.405999899
1470.0	0.0004475	107.437000036
1470.0	0.0004475	107.483999968
1470.0	0.0004475	107.530999899
1470.0	0.0004475	107.562000036
1470.0	0.0004475	107.608999968
1470.0	0.0004475	107.655999899
1470.0	0.0004475	107.687000036
1470.0	0.0004475	107.733999968
1470.0	0.0004475	107.764999866
1470.0	0.000447	107.812000036
1480.0	0.0004495	108.078000069
1480.0	0.0004505	108.125
1480.0	0.0004513	108.155999899
1480.0	0.0004515	108.203000069
1480.0	0.0004515	108.25
1480.0	0.0004513	108.280999899
1480.0	0.0004513	108.328000069
1480.0	0.0004513	108.375
1480.0	0.0004508	108.405999899
1480.0	0.0004513	108.453000069
1480.0	0.0004513	108.483999968
1480.0	0.0004513	108.530999899
1480.0	0.0004513	108.578000069
1480.0	0.0004513	108.608999968
1480.0	0.0004513	108.655999899
1480.0	0.0004513	108.703000069
1480.0	0.0004513	108.733999968
1480.0	0.0004518	108.780999899
1480.0	0.0004518	108.812000036
1480.0	0.0004518	108.858999968
1480.0	0.0004518	108.905999899
1480.0	0.0004518	108.937000036
1480.0	0.0004518	108.983999968
1480.0	0.0004518	109.030999899
1480.0	0.0004518	109.062000036
1480.0	0.000452	109.108999968
1480.0	0.000452	109.139999866
1480.0	0.0004518	109.187000036
1480.0	0.0004515	109.233999968
1480.0	0.0004515	109.264999866
1480.0	0.0004515	109.312000036
1480.0	0.0004518	109.358999968
1480.0	0.0004518	109.389999866
1480.0	0.0004518	109.437000036
1480.0	0.0004518	109.483999968
1480.0	0.0004518	109.514999866
1480.0	0.000452	109.562000036
1490.0	0.0004538	109.828000069
1490.0	0.0004543	109.875
1490.0	0.000455	109.905999899
1490.0	0.000455	109.953000069
1490.0	0.0004553	110.0
1490.0	0.0004553	110.030999899
1490.0	0.0004553	110.078000069
1490.0	0.0004555	110.108999968
1490.0	0.0004555	110.155999899
1490.0	0.0004555	110.203000069
1490.0	0.0004563	110.233999968
1490.0	0.0004555	110.280999899
1490.0	0.0004555	110.328000069
1490.0	0.0004555	110.358999968
1490.0	0.0004555	110.405999899
1490.0	0.0004555	110.453000069
1490.0	0.000455	110.483999968
1490.0	0.000455	110.530999899
1490.0	0.000455	110.578000069
1490.0	0.0004553	110.608999968
1490.0	0.0004553	110.655999899
1490.0	0.0004553	110.703000069
1490.0	0.0004553	110.733999968
1490.0	0.0004555	110.780999899
1490.0	0.0004555	110.812000036
1490.0	0.0004553	110.858999968
1490.0	0.0004553	110.905999899
1490.0	0.0004553	110.937000036
1490.0	0.0004555	110.983999968
1490.0	0.0004555	111.030999899
1490.0	0.0004555	111.062000036
1490.0	0.0004555	111.108999968
1490.0	0.0004555	111.139999866
1490.0	0.0004555	111.187000036
1490.0	0.0004553	111.233999968
1490.0	0.0004555	111.264999866
1490.0	0.0004555	111.312000036
1500.0	0.0004563	111.578000069
1500.0	0.0004565	111.625
1500.0	0.000457	111.671000004
1500.0	0.0004575	111.703000069
1500.0	0.000458	111.75
1500.0	0.0004583	111.780999899
1500.0	0.0004583	111.828000069
1500.0	0.0004583	111.875
1500.0	0.0004588	111.905999899
1500.0	0.0004588	111.953000069
1500.0	0.000459	112.0
1500.0	0.0004588	112.030999899
1500.0	0.000458	112.078000069
1500.0	0.000458	112.125
1500.0	0.0004578	112.155999899
1500.0	0.0004578	112.203000069
1500.0	0.0004578	112.25
1500.0	0.0004575	112.280999899
1500.0	0.0004578	112.328000069
1500.0	0.0004575	112.375
1500.0	0.0004575	112.405999899
1500.0	0.0004578	112.453000069
1500.0	0.0004578	112.483999968
1500.0	0.0004578	112.530999899
1500.0	0.000458	112.578000069
1500.0	0.0004578	112.608999968
1500.0	0.0004578	112.655999899
1500.0	0.0004575	112.703000069
1500.0	0.000457	112.733999968
1500.0	0.0004568	112.780999899
1500.0	0.0004568	112.812000036
1500.0	0.0004568	112.858999968
1500.0	0.0004568	112.905999899
1500.0	0.0004565	112.937000036
1500.0	0.0004565	112.983999968
1500.0	0.0004568	113.030999899
1500.0	0.000457	113.062000036
1510.0	0.000459	113.342999935
1510.0	0.0004593	113.375
1510.0	0.0004595	113.421000004
1510.0	0.0004595	113.453000069
1510.0	0.0004593	113.5
1510.0	0.0004593	113.546000004
1510.0	0.0004593	113.578000069
1510.0	0.0004593	113.625
1510.0	0.00046	113.671000004
1510.0	0.00046	113.703000069
1510.0	0.0004603	113.75
1510.0	0.0004603	113.780999899
1510.0	0.00046	113.828000069
1510.0	0.0004603	113.875
1510.0	0.0004605	113.905999899
1510.0	0.0004605	113.953000069
1510.0	0.0004608	114.0
1510.0	0.0004608	114.030999899
1510.0	0.0004605	114.078000069
1510.0	0.0004605	114.108999968
1510.0	0.0004605	114.155999899
1510.0	0.0004605	114.203000069
1510.0	0.0004608	114.233999968
1510.0	0.0004608	114.280999899
1510.0	0.0004608	114.328000069
1510.0	0.0004608	114.358999968
1510.0	0.0004608	114.405999899
1510.0	0.0004613	114.453000069
1510.0	0.0004608	114.483999968
1510.0	0.0004605	114.530999899
1510.0	0.0004605	114.562000036
1510.0	0.0004605	114.608999968
1510.0	0.0004603	114.655999899
1510.0	0.0004603	114.687000036
1510.0	0.0004603	114.733999968
1510.0	0.0004605	114.780999899
1510.0	0.0004613	114.812000036
1520.0	0.0004625	115.092999935
1520.0	0.0004633	115.125
1520.0	0.0004638	115.171000004
1520.0	0.000464	115.203000069
1520.0	0.0004645	115.25
1520.0	0.0004645	115.296000004
1520.0	0.000465	115.328000069
1520.0	0.000465	115.375
1520.0	0.0004653	115.421000004
1520.0	0.0004653	115.453000069
1520.0	0.0004645	115.5
1520.0	0.0004643	115.530999899
1520.0	0.0004643	115.578000069
1520.0	0.0004643	115.625
1520.0	0.0004643	115.655999899
1520.0	0.0004643	115.703000069
1520.0	0.0004643	115.75
1520.0	0.0004645	115.780999899
1520.0	0.0004645	115.828000069
1520.0	0.000465	115.858999968
1520.0	0.000465	115.905999899
1520.0	0.0004653	115.953000069
1520.0	0.0004653	115.983999968
1520.0	0.0004653	116.030999899
1520.0	0.0004653	116.078000069
1520.0	0.0004653	116.108999968
1520.0	0.0004653	116.155999899
1520.0	0.0004653	116.203000069
1520.0	0.0004655	116.233999968
1520.0	0.0004655	116.280999899
1520.0	0.0004658	116.312000036
1520.0	0.0004658	116.358999968
1520.0	0.0004658	116.405999899
1520.0	0.0004658	116.437000036
1520.0	0.0004658	116.483999968
1520.0	0.0004658	116.530999899
1520.0	0.0004658	116.562000036
1530.0	0.0004665	116.842999935
1530.0	0.0004665	116.875
1530.0	0.0004665	116.921000004
1530.0	0.0004668	116.967999935
1530.0	0.0004668	117.0
1530.0	0.0004668	117.046000004
1530.0	0.0004668	117.092999935
1530.0	0.0004668	117.125
1530.0	0.0004668	117.171000004
1530.0	0.0004668	117.203000069
1530.0	0.0004668	117.25
1530.0	0.000467	117.296000004
1530.0	0.000467	117.328000069
1530.0	0.000467	117.375
1530.0	0.000467	117.421000004
1530.0	0.0004668	117.453000069
1530.0	0.0004668	117.5
1530.0	0.0004665	117.546000004
1530.0	0.0004668	117.578000069
1530.0	0.0004668	117.625
1530.0	0.000467	117.671000004
1530.0	0.0004668	117.703000069
1530.0	0.0004668	117.75
1530.0	0.0004668	117.796000004
1530.0	0.0004668	117.828000069
1530.0	0.0004668	117.875
1530.0	0.000467	117.905999899
1530.0	0.000467	117.953000069
1530.0	0.000467	118.0
1530.0	0.0004668	118.030999899
1530.0	0.0004668	118.078000069
1530.0	0.000467	118.125
1530.0	0.000467	118.155999899
1530.0	0.0004668	118.203000069
1530.0	0.0004668	118.25
1530.0	0.0004665	118.296000004
1540.0	0.0004663	118.562000036
1540.0	0.0004663	118.608999968
1540.0	0.0004663	118.639999866
1540.0	0.0004665	118.687000036
1540.0	0.0004665	118.733999968
1540.0	0.0004665	118.764999866
1540.0	0.0004665	118.812000036
1540.0	0.0004663	118.858999968
1540.0	0.0004663	118.889999866
1540.0	0.0004658	118.937000036
1540.0	0.0004658	118.983999968
1540.0	0.0004658	119.014999866
1540.0	0.0004658	119.062000036
1540.0	0.0004658	119.092999935
1540.0	0.0004658	119.139999866
1540.0	0.0004655	119.187000036
1540.0	0.0004653	119.217999935
1540.0	0.000465	119.264999866
1540.0	0.000465	119.312000036
1540.0	0.000465	119.342999935
1540.0	0.000465	119.389999866
1540.0	0.000465	119.421000004
1540.0	0.0004645	119.467999935
1540.0	0.0004645	119.514999866
1540.0	0.0004645	119.546000004
1540.0	0.0004645	119.592999935
1540.0	0.0004645	119.639999866
1540.0	0.0004645	119.671000004
1540.0	0.0004645	119.717999935
1540.0	0.0004645	119.75
1540.0	0.0004645	119.796000004
1540.0	0.000465	119.842999935
1540.0	0.000465	119.875
1540.0	0.000465	119.921000004
1540.0	0.0004645	119.967999935
1540.0	0.0004645	120.0
1540.0	0.0004645	120.046000004
1550.0	0.0004628	120.328000069
1550.0	0.0004625	120.358999968
1550.0	0.0004618	120.405999899
1550.0	0.0004615	120.453000069
1550.0	0.0004613	120.483999968
1550.0	0.0004608	120.530999899
1550.0	0.0004605	120.562000036
1550.0	0.0004605	120.608999968
1550.0	0.0004603	120.655999899
1550.0	0.00046	120.687000036
1550.0	0.0004595	120.733999968
1550.0	0.0004595	120.780999899
1550.0	0.00046	120.812000036
1550.0	0.00046	120.858999968
1550.0	0.0004603	120.905999899
1550.0	0.0004605	120.937000036
1550.0	0.0004605	120.983999968
1550.0	0.0004608	121.014999866
1550.0	0.0004605	121.062000036
1550.0	0.0004608	121.108999968
1550.0	0.0004608	121.139999866
1550.0	0.0004605	121.187000036
1550.0	0.0004608	121.233999968
1550.0	0.0004608	121.264999866
1550.0	0.0004608	121.312000036
1550.0	0.0004613	121.342999935
1550.0	0.0004605	121.389999866
1550.0	0.0004603	121.437000036
1550.0	0.00046	121.467999935
1550.0	0.00046	121.514999866
1550.0	0.0004595	121.562000036
1550.0	0.00046	121.592999935
1550.0	0.00046	121.639999866
1550.0	0.00046	121.671000004
1550.0	0.0004593	121.717999935
1550.0	0.0004593	121.764999866
1550.0	0.0004593	121.796000004
1560.0	0.0004578	122.078000069
1560.0	0.0004568	122.108999968
1560.0	0.0004558	122.155999899
1560.0	0.0004553	122.203000069
1560.0	0.000455	122.233999968
1560.0	0.0004545	122.280999899
1560.0	0.0004545	122.312000036
1560.0	0.0004543	122.358999968
1560.0	0.0004543	122.405999899
1560.0	0.000454	122.437000036
1560.0	0.0004538	122.483999968
1560.0	0.0004533	122.530999899
1560.0	0.000453	122.562000036
1560.0	0.000453	122.608999968
1560.0	0.0004533	122.639999866
1560.0	0.0004538	122.687000036
1560.0	0.0004538	122.733999968
1560.0	0.0004538	122.764999866
1560.0	0.0004533	122.812000036
1560.0	0.000453	122.858999968
1560.0	0.0004533	122.889999866
1560.0	0.0004538	122.937000036
1560.0	0.0004538	122.983999968
1560.0	0.0004538	123.014999866
1560.0	0.0004538	123.062000036
1560.0	0.000454	123.108999968
1560.0	0.0004543	123.139999866
1560.0	0.0004543	123.187000036
1560.0	0.000454	123.233999968
1560.0	0.0004538	123.264999866
1560.0	0.0004538	123.312000036
1560.0	0.0004538	123.342999935
1560.0	0.000454	123.389999866
1560.0	0.000454	123.437000036
1560.0	0.000454	123.467999935
1560.0	0.000454	123.514999866
1560.0	0.0004543	123.562000036
1570.0	0.0004505	123.828000069
1570.0	0.0004493	123.875
1570.0	0.000448	123.905999899
1570.0	0.0004468	123.953000069
1570.0	0.0004463	124.0
1570.0	0.0004455	124.030999899
1570.0	0.000445	124.078000069
1570.0	0.000445	124.125
1570.0	0.0004445	124.155999899
1570.0	0.0004445	124.203000069
1570.0	0.0004445	124.233999968
1570.0	0.0004443	124.280999899
1570.0	0.0004443	124.328000069
1570.0	0.000445	124.358999968
1570.0	0.0004445	124.405999899
1570.0	0.000445	124.453000069
1570.0	0.0004445	124.483999968
1570.0	0.000445	124.530999899
1570.0	0.000445	124.578000069
1570.0	0.0004443	124.608999968
1570.0	0.0004438	124.655999899
1570.0	0.0004433	124.687000036
1570.0	0.0004433	124.733999968
1570.0	0.0004433	124.780999899
1570.0	0.0004438	124.828000069
1570.0	0.0004438	124.858999968
1570.0	0.0004433	124.905999899
1570.0	0.000443	124.937000036
1570.0	0.000443	124.983999968
1570.0	0.0004433	125.030999899
1570.0	0.0004433	125.062000036
1570.0	0.0004438	125.108999968
1570.0	0.0004443	125.155999899
1570.0	0.0004445	125.187000036
1570.0	0.000445	125.233999968
1570.0	0.0004453	125.264999866
1570.0	0.000445	125.312000036
1580.0	0.0004388	125.578000069
1580.0	0.0004363	125.625
1580.0	0.0004345	125.671000004
1580.0	0.0004333	125.703000069
1580.0	0.000432	125.75
1580.0	0.0004315	125.796000004
1580.0	0.0004305	125.828000069
1580.0	0.0004303	125.875
1580.0	0.0004303	125.905999899
1580.0	0.0004295	125.953000069
1580.0	0.0004295	126.0
1580.0	0.0004293	126.030999899
1580.0	0.0004288	126.078000069
1580.0	0.0004283	126.125
1580.0	0.0004283	126.155999899
1580.0	0.0004283	126.203000069
1580.0	0.0004283	126.233999968
1580.0	0.000428	126.280999899
1580.0	0.0004278	126.328000069
1580.0	0.000428	126.358999968
1580.0	0.000428	126.405999899
1580.0	0.0004283	126.453000069
1580.0	0.000428	126.483999968
1580.0	0.000428	126.530999899
1580.0	0.000428	126.578000069
1580.0	0.0004278	126.608999968
1580.0	0.0004278	126.655999899
1580.0	0.0004275	126.687000036
1580.0	0.000427	126.733999968
1580.0	0.000427	126.780999899
1580.0	0.000427	126.812000036
1580.0	0.0004268	126.858999968
1580.0	0.0004268	126.905999899
1580.0	0.000427	126.937000036
1580.0	0.0004275	126.983999968
1580.0	0.0004275	127.014999866
1580.0	0.0004278	127.062000036
1590.0	0.0004203	127.342999935
1590.0	0.000418	127.375
1590.0	0.0004158	127.421000004
1590.0	0.000414	127.467999935
1590.0	0.0004128	127.5
1590.0	0.0004118	127.546000004
1590.0	0.0004108	127.578000069
1590.0	0.0004103	127.625
1590.0	0.0004103	127.671000004
1590.0	0.0004095	127.703000069
1590.0	0.0004093	127.75
1590.0	0.000409	127.796000004
1590.0	0.0004088	127.828000069
1590.0	0.0004088	127.875
1590.0	0.0004088	127.905999899
1590.0	0.0004088	127.953000069
1590.0	0.0004083	128.0
1590.0	0.000408	128.030999899
1590.0	0.000408	128.078000069
1590.0	0.000408	128.125
1590.0	0.0004088	128.155999899
1590.0	0.0004088	128.203000069
1590.0	0.000409	128.25
1590.0	0.000409	128.280999899
1590.0	0.000409	128.328000069
1590.0	0.000409	128.375
1590.0	0.0004088	128.405999899
1590.0	0.0004088	128.453000069
1590.0	0.0004088	128.5
1590.0	0.0004083	128.530999899
1590.0	0.0004083	128.578000069
1590.0	0.0004088	128.608999968
1590.0	0.0004083	128.655999899
1590.0	0.0004088	128.703000069
1590.0	0.0004088	128.733999968
1590.0	0.0004088	128.780999899
1590.0	0.0004088	128.828000069
1600.0	0.0004015	129.092999935
1600.0	0.000399	129.139999866
1600.0	0.0003968	129.171000004
1600.0	0.0003953	129.217999935
1600.0	0.0003938	129.264999866
1600.0	0.0003925	129.312000036
1600.0	0.0003918	129.342999935
1600.0	0.0003913	129.389999866
1600.0	0.0003905	129.437000036
1600.0	0.0003905	129.467999935
1600.0	0.0003903	129.514999866
1600.0	0.00039	129.562000036
1600.0	0.00039	129.592999935
1600.0	0.0003895	129.639999866
1600.0	0.00039	129.687000036
1600.0	0.00039	129.717999935
1600.0	0.00039	129.764999866
1600.0	0.0003903	129.796000004
1600.0	0.0003905	129.842999935
1600.0	0.0003905	129.889999866
1600.0	0.0003905	129.921000004
1600.0	0.0003903	129.967999935
1600.0	0.0003903	130.014999866
1600.0	0.0003905	130.046000004
1600.0	0.0003905	130.092999935
1600.0	0.0003905	130.125
1600.0	0.0003905	130.171000004
1600.0	0.0003905	130.217999935
1600.0	0.0003905	130.25
1600.0	0.0003905	130.296000004
1600.0	0.0003908	130.342999935
1600.0	0.0003913	130.375
1600.0	0.0003913	130.421000004
1600.0	0.0003913	130.453000069
1600.0	0.0003915	130.5
1600.0	0.0003913	130.546000004
1610.0	0.0003828	130.812000036
1610.0	0.000379	130.858999968
1610.0	0.0003765	130.905999899
1610.0	0.0003745	130.937000036
1610.0	0.000373	130.983999968
1610.0	0.0003718	131.014999866
1610.0	0.0003708	131.062000036
1610.0	0.00037	131.108999968
1610.0	0.000369	131.139999866
1610.0	0.0003683	131.187000036
1610.0	0.0003678	131.233999968
1610.0	0.0003678	131.264999866
1610.0	0.0003675	131.312000036
1610.0	0.0003675	131.358999968
1610.0	0.000367	131.389999866
1610.0	0.000367	131.437000036
1610.0	0.0003675	131.483999968
1610.0	0.0003675	131.514999866
1610.0	0.0003675	131.562000036
1610.0	0.0003675	131.608999968
1610.0	0.000367	131.639999866
1610.0	0.000367	131.687000036
1610.0	0.0003675	131.717999935
1610.0	0.0003675	131.764999866
1610.0	0.0003675	131.812000036
1610.0	0.000367	131.842999935
1610.0	0.000367	131.889999866
1610.0	0.000367	131.937000036
1610.0	0.000367	131.967999935
1610.0	0.0003665	132.014999866
1610.0	0.0003665	132.062000036
1610.0	0.0003665	132.092999935
1610.0	0.0003663	132.139999866
1610.0	0.0003663	132.187000036
1610.0	0.0003655	132.217999935
1610.0	0.0003655	132.264999866
1610.0	0.0003653	132.296000004
1620.0	0.0003553	132.578000069
1620.0	0.0003515	132.625
1620.0	0.0003483	132.671000004
1620.0	0.0003455	132.717999935
1620.0	0.0003433	132.75
1620.0	0.000342	132.796000004
1620.0	0.0003415	132.828000069
1620.0	0.0003405	132.875
1620.0	0.0003403	132.921000004
1620.0	0.00034	132.953000069
1620.0	0.00034	133.0
1620.0	0.0003403	133.046000004
1620.0	0.0003403	133.078000069
1620.0	0.00034	133.125
1620.0	0.0003395	133.155999899
1620.0	0.0003395	133.203000069
1620.0	0.0003395	133.25
1620.0	0.0003393	133.280999899
1620.0	0.000339	133.328000069
1620.0	0.0003388	133.375
1620.0	0.0003388	133.405999899
1620.0	0.0003388	133.453000069
1620.0	0.0003388	133.483999968
1620.0	0.0003388	133.530999899
1620.0	0.0003388	133.578000069
1620.0	0.0003393	133.608999968
1620.0	0.0003393	133.655999899
1620.0	0.0003393	133.703000069
1620.0	0.0003393	133.733999968
1620.0	0.000339	133.780999899
1620.0	0.0003388	133.812000036
1620.0	0.0003383	133.858999968
1620.0	0.000338	133.905999899
1620.0	0.0003383	133.937000036
1620.0	0.0003383	133.983999968
1620.0	0.0003383	134.030999899
1620.0	0.0003388	134.062000036
1630.0	0.0003288	134.342999935
1630.0	0.000325	134.389999866
1630.0	0.0003218	134.421000004
1630.0	0.0003195	134.467999935
1630.0	0.0003178	134.514999866
1630.0	0.0003165	134.546000004
1630.0	0.0003158	134.592999935
1630.0	0.0003153	134.625
1630.0	0.000315	134.671000004
1630.0	0.0003145	134.717999935
1630.0	0.0003145	134.75
1630.0	0.000315	134.796000004
1630.0	0.000315	134.842999935
1630.0	0.0003143	134.875
1630.0	0.000314	134.921000004
1630.0	0.0003138	134.967999935
1630.0	0.0003133	135.0
1630.0	0.0003133	135.046000004
1630.0	0.0003138	135.078000069
1630.0	0.0003138	135.125
1630.0	0.0003138	135.171000004
1630.0	0.0003133	135.203000069
1630.0	0.0003138	135.25
1630.0	0.000314	135.296000004
1630.0	0.000314	135.328000069
1630.0	0.000314	135.375
1630.0	0.000314	135.421000004
1630.0	0.0003138	135.453000069
1630.0	0.0003138	135.5
1630.0	0.000314	135.546000004
1630.0	0.0003143	135.578000069
1630.0	0.0003143	135.625
1630.0	0.000314	135.655999899
1630.0	0.000314	135.703000069
1630.0	0.000314	135.75
1630.0	0.0003138	135.780999899
1630.0	0.000314	135.828000069
1640.0	0.000303	136.108999968
1640.0	0.0002993	136.155999899
1640.0	0.0002958	136.187000036
1640.0	0.0002933	136.233999968
1640.0	0.0002915	136.280999899
1640.0	0.0002895	136.312000036
1640.0	0.0002888	136.358999968
1640.0	0.000288	136.405999899
1640.0	0.0002875	136.437000036
1640.0	0.0002865	136.483999968
1640.0	0.0002858	136.514999866
1640.0	0.0002853	136.562000036
1640.0	0.000285	136.608999968
1640.0	0.0002845	136.655999899
1640.0	0.0002843	136.687000036
1640.0	0.0002843	136.733999968
1640.0	0.000284	136.764999866
1640.0	0.0002843	136.812000036
1640.0	0.0002843	136.858999968
1640.0	0.0002843	136.889999866
1640.0	0.0002843	136.937000036
1640.0	0.0002843	136.983999968
1640.0	0.000284	137.014999866
1640.0	0.0002838	137.062000036
1640.0	0.000283	137.108999968
1640.0	0.000283	137.139999866
1640.0	0.000283	137.187000036
1640.0	0.0002833	137.217999935
1640.0	0.0002838	137.264999866
1640.0	0.0002838	137.312000036
1640.0	0.0002838	137.342999935
1640.0	0.0002833	137.389999866
1640.0	0.0002833	137.437000036
1640.0	0.000283	137.467999935
1640.0	0.000283	137.514999866
1640.0	0.0002828	137.546000004
1640.0	0.0002828	137.592999935
1650.0	0.0002715	137.875
1650.0	0.0002675	137.921000004
1650.0	0.000264	137.967999935
1650.0	0.0002615	138.0
1650.0	0.0002593	138.046000004
1650.0	0.0002575	138.092999935
1650.0	0.0002558	138.125
1650.0	0.000255	138.171000004
1650.0	0.0002543	138.203000069
1650.0	0.0002538	138.25
1650.0	0.0002533	138.296000004
1650.0	0.000253	138.328000069
1650.0	0.000253	138.375
1650.0	0.000253	138.421000004
1650.0	0.000253	138.453000069
1650.0	0.000253	138.5
1650.0	0.000253	138.530999899
1650.0	0.000253	138.578000069
1650.0	0.0002533	138.625
1650.0	0.0002533	138.655999899
1650.0	0.0002533	138.703000069
1650.0	0.0002533	138.75
1650.0	0.000253	138.780999899
1650.0	0.000253	138.828000069
1650.0	0.000253	138.875
1650.0	0.000253	138.905999899
1650.0	0.0002533	138.953000069
1650.0	0.0002533	138.983999968
1650.0	0.0002533	139.030999899
1650.0	0.0002538	139.078000069
1650.0	0.000253	139.108999968
1650.0	0.000253	139.155999899
1650.0	0.0002528	139.203000069
1650.0	0.0002528	139.233999968
1650.0	0.000253	139.280999899
1650.0	0.0002538	139.312000036
1650.0	0.000254	139.358999968
1660.0	0.000244	139.639999866
1660.0	0.00024	139.687000036
1660.0	0.0002363	139.733999968
1660.0	0.0002338	139.764999866
1660.0	0.0002315	139.812000036
1660.0	0.0002303	139.858999968
1660.0	0.000229	139.889999866
1660.0	0.0002283	139.937000036
1660.0	0.000228	139.967999935
1660.0	0.0002278	140.014999866
1660.0	0.0002275	140.062000036
1660.0	0.0002278	140.092999935
1660.0	0.0002278	140.139999866
1660.0	0.0002278	140.187000036
1660.0	0.0002275	140.217999935
1660.0	0.0002278	140.264999866
1660.0	0.000228	140.312000036
1660.0	0.000228	140.342999935
1660.0	0.000228	140.389999866
1660.0	0.000228	140.421000004
1660.0	0.000228	140.467999935
1660.0	0.000228	140.514999866
1660.0	0.0002278	140.546000004
1660.0	0.0002275	140.592999935
1660.0	0.0002278	140.639999866
1660.0	0.0002278	140.687000036
1660.0	0.0002275	140.717999935
1660.0	0.0002275	140.764999866
1660.0	0.000227	140.796000004
1660.0	0.0002275	140.842999935
1660.0	0.000227	140.889999866
1660.0	0.000227	140.921000004
1660.0	0.0002275	140.967999935
1660.0	0.000227	141.0
1660.0	0.000227	141.046000004
1660.0	0.000227	141.092999935
1670.0	0.0002158	141.375
1670.0	0.0002125	141.405999899
1670.0	0.0002095	141.453000069
1670.0	0.0002075	141.5
1670.0	0.0002055	141.530999899
1670.0	0.000204	141.578000069
1670.0	0.000203	141.625
1670.0	0.000202	141.655999899
1670.0	0.0002015	141.703000069
1670.0	0.0002013	141.75
1670.0	0.0002008	141.780999899
1670.0	0.0002005	141.828000069
1670.0	0.0002005	141.858999968
1670.0	0.0002005	141.905999899
1670.0	0.0002005	141.953000069
1670.0	0.0002003	141.983999968
1670.0	0.0002	142.030999899
1670.0	0.0002	142.078000069
1670.0	0.0001993	142.108999968
1670.0	0.0001988	142.155999899
1670.0	0.0001988	142.187000036
1670.0	0.0001988	142.233999968
1670.0	0.0001988	142.280999899
1670.0	0.0001983	142.312000036
1670.0	0.0001983	142.358999968
1670.0	0.000198	142.405999899
1670.0	0.000198	142.437000036
1670.0	0.0001978	142.483999968
1670.0	0.0001978	142.514999866
1670.0	0.0001975	142.562000036
1670.0	0.0001975	142.608999968
1670.0	0.0001978	142.639999866
1670.0	0.0001978	142.687000036
1670.0	0.0001978	142.733999968
1670.0	0.0001978	142.764999866
1670.0	0.0001978	142.812000036
1670.0	0.0001975	142.858999968
1680.0	0.0001878	143.139999866
1680.0	0.0001843	143.187000036
1680.0	0.0001818	143.217999935
1680.0	0.0001795	143.264999866
1680.0	0.000178	143.296000004
1680.0	0.0001768	143.342999935
1680.0	0.0001763	143.389999866
1680.0	0.0001755	143.421000004
1680.0	0.000175	143.467999935
1680.0	0.0001745	143.514999866
1680.0	0.000174	143.546000004
1680.0	0.0001738	143.592999935
1680.0	0.0001733	143.625
1680.0	0.0001733	143.671000004
1680.0	0.0001738	143.717999935
1680.0	0.0001738	143.75
1680.0	0.000174	143.796000004
1680.0	0.000174	143.842999935
1680.0	0.000174	143.875
1680.0	0.000174	143.921000004
1680.0	0.0001743	143.953000069
1680.0	0.0001743	144.0
1680.0	0.0001743	144.046000004
1680.0	0.0001745	144.078000069
1680.0	0.0001745	144.125
1680.0	0.000175	144.171000004
1680.0	0.000175	144.203000069
1680.0	0.000175	144.25
1680.0	0.000175	144.296000004
1680.0	0.0001745	144.328000069
1680.0	0.0001743	144.375
1680.0	0.0001743	144.405999899
1680.0	0.0001745	144.453000069
1680.0	0.000175	144.5
1680.0	0.000175	144.546000004
1680.0	0.0001753	144.578000069
1680.0	0.0001755	144.625
1690.0	0.0001668	144.905999899
1690.0	0.000164	144.953000069
1690.0	0.0001613	144.983999968
1690.0	0.0001588	145.030999899
1690.0	0.000157	145.078000069
1690.0	0.0001555	145.108999968
1690.0	0.0001545	145.155999899
1690.0	0.000154	145.203000069
1690.0	0.0001538	145.233999968
1690.0	0.0001538	145.280999899
1690.0	0.0001533	145.312000036
1690.0	0.000153	145.358999968
1690.0	0.000153	145.405999899
1690.0	0.0001528	145.437000036
1690.0	0.0001525	145.483999968
1690.0	0.0001525	145.530999899
1690.0	0.0001518	145.562000036
1690.0	0.0001518	145.608999968
1690.0	0.0001518	145.655999899
1690.0	0.0001515	145.687000036
1690.0	0.0001515	145.733999968
1690.0	0.0001508	145.764999866
1690.0	0.0001505	145.812000036
1690.0	0.0001505	145.858999968
1690.0	0.0001505	145.889999866
1690.0	0.0001508	145.937000036
1690.0	0.0001513	145.983999968
1690.0	0.0001513	146.014999866
1690.0	0.0001513	146.062000036
1690.0	0.0001513	146.092999935
1690.0	0.0001508	146.139999866
1690.0	0.0001513	146.187000036
1690.0	0.0001508	146.217999935
1690.0	0.0001505	146.264999866
1690.0	0.0001505	146.312000036
1690.0	0.0001505	146.342999935
1690.0	0.0001505	146.389999866
1700.0	0.000142	146.671000004
1700.0	0.0001395	146.717999935
1700.0	0.0001375	146.75
1700.0	0.0001358	146.796000004
1700.0	0.0001345	146.842999935
1700.0	0.0001333	146.875
1700.0	0.0001325	146.921000004
1700.0	0.0001318	146.967999935
1700.0	0.0001308	147.0
1700.0	0.0001305	147.046000004
1700.0	0.0001305	147.092999935
1700.0	0.0001303	147.125
1700.0	0.0001303	147.171000004
1700.0	0.0001305	147.203000069
1700.0	0.0001305	147.25
1700.0	0.0001313	147.296000004
1700.0	0.0001315	147.328000069
1700.0	0.0001313	147.375
1700.0	0.0001313	147.421000004
1700.0	0.0001308	147.453000069
1700.0	0.0001308	147.5
1700.0	0.0001308	147.530999899
1700.0	0.0001308	147.578000069
1700.0	0.0001313	147.625
1700.0	0.0001313	147.655999899
1700.0	0.0001308	147.703000069
1700.0	0.0001313	147.75
1700.0	0.0001315	147.780999899
1700.0	0.0001318	147.828000069
1700.0	0.0001318	147.858999968
1700.0	0.0001318	147.905999899
1700.0	0.0001318	147.953000069
1700.0	0.0001318	148.0
1700.0	0.0001318	148.030999899
1700.0	0.0001318	148.078000069
1700.0	0.0001315	148.108999968
1700.0	0.0001315	148.155999899
1710.0	0.000123	148.453000069
1710.0	0.0001205	148.483999968
1710.0	0.000119	148.530999899
1710.0	0.000117	148.562000036
1710.0	0.0001158	148.608999968
1710.0	0.0001145	148.655999899
1710.0	0.000114	148.687000036
1710.0	0.0001133	148.733999968
1710.0	0.0001133	148.780999899
1710.0	0.000113	148.812000036
1710.0	0.0001128	148.858999968
1710.0	0.0001125	148.889999866
1710.0	0.000112	148.937000036
1710.0	0.0001125	148.983999968
1710.0	0.000112	149.014999866
1710.0	0.0001118	149.062000036
1710.0	0.0001118	149.108999968
1710.0	0.0001118	149.139999866
1710.0	0.0001115	149.187000036
1710.0	0.0001113	149.233999968
1710.0	0.0001113	149.264999866
1710.0	0.0001113	149.312000036
1710.0	0.0001113	149.342999935
1710.0	0.0001113	149.389999866
1710.0	0.0001115	149.437000036
1710.0	0.0001113	149.467999935
1710.0	0.0001115	149.514999866
1710.0	0.0001118	149.562000036
1710.0	0.0001118	149.592999935
1710.0	0.0001118	149.639999866
1710.0	0.0001118	149.671000004
1710.0	0.0001118	149.717999935
1710.0	0.0001118	149.764999866
1710.0	0.0001118	149.796000004
1710.0	0.000112	149.842999935
1710.0	0.000112	149.875
1710.0	0.0001118	149.921000004
1720.0	0.0001065	150.217999935
1720.0	0.000104	150.264999866
1720.0	0.0001028	150.296000004
1720.0	0.0001018	150.342999935
1720.0	0.0001008	150.375
1720.0	0.0001003	150.421000004
1720.0	9.95e-05	150.467999935
1720.0	9.93e-05	150.5
1720.0	9.93e-05	150.546000004
1720.0	9.93e-05	150.578000069
1720.0	9.93e-05	150.625
1720.0	9.93e-05	150.671000004
1720.0	9.9e-05	150.703000069
1720.0	9.9e-05	150.75
1720.0	9.9e-05	150.796000004
1720.0	9.88e-05	150.828000069
1720.0	9.88e-05	150.875
1720.0	9.83e-05	150.905999899
1720.0	9.83e-05	150.953000069
1720.0	9.78e-05	151.0
1720.0	9.75e-05	151.030999899
1720.0	9.75e-05	151.078000069
1720.0	9.8e-05	151.125
1720.0	9.78e-05	151.155999899
1720.0	9.8e-05	151.203000069
1720.0	9.78e-05	151.25
1720.0	9.75e-05	151.280999899
1720.0	9.75e-05	151.328000069
1720.0	9.7e-05	151.358999968
1720.0	9.68e-05	151.405999899
1720.0	9.68e-05	151.453000069
1720.0	9.68e-05	151.483999968
1720.0	9.7e-05	151.530999899
1720.0	9.68e-05	151.578000069
1720.0	9.68e-05	151.608999968
1720.0	9.68e-05	151.655999899
1720.0	9.68e-05	151.687000036
1730.0	9.13e-05	151.983999968
1730.0	8.93e-05	152.014999866
1730.0	8.8e-05	152.062000036
1730.0	8.7e-05	152.108999968
1730.0	8.58e-05	152.139999866
1730.0	8.5e-05	152.187000036
1730.0	8.45e-05	152.233999968
1730.0	8.43e-05	152.264999866
1730.0	8.43e-05	152.312000036
1730.0	8.4e-05	152.358999968
1730.0	8.38e-05	152.389999866
1730.0	8.38e-05	152.437000036
1730.0	8.4e-05	152.467999935
1730.0	8.43e-05	152.514999866
1730.0	8.43e-05	152.562000036
1730.0	8.4e-05	152.592999935
1730.0	8.4e-05	152.639999866
1730.0	8.4e-05	152.687000036
1730.0	8.4e-05	152.717999935
1730.0	8.38e-05	152.764999866
1730.0	8.38e-05	152.796000004
1730.0	8.38e-05	152.842999935
1730.0	8.33e-05	152.889999866
1730.0	8.33e-05	152.921000004
1730.0	8.38e-05	152.967999935
1730.0	8.38e-05	153.014999866
1730.0	8.4e-05	153.046000004
1730.0	8.4e-05	153.092999935
1730.0	8.43e-05	153.125
1730.0	8.43e-05	153.171000004
1730.0	8.45e-05	153.217999935
1730.0	8.5e-05	153.25
1730.0	8.5e-05	153.296000004
1730.0	8.53e-05	153.342999935
1730.0	8.55e-05	153.375
1730.0	8.55e-05	153.421000004
1730.0	8.58e-05	153.453000069
1740.0	8e-05	153.75
1740.0	7.88e-05	153.796000004
1740.0	7.78e-05	153.828000069
1740.0	7.68e-05	153.875
1740.0	7.58e-05	153.921000004
1740.0	7.53e-05	153.967999935
1740.0	7.5e-05	154.0
1740.0	7.45e-05	154.046000004
1740.0	7.5e-05	154.078000069
1740.0	7.45e-05	154.125
1740.0	7.43e-05	154.171000004
1740.0	7.43e-05	154.203000069
1740.0	7.4e-05	154.25
1740.0	7.38e-05	154.296000004
1740.0	7.38e-05	154.328000069
1740.0	7.33e-05	154.375
1740.0	7.3e-05	154.405999899
1740.0	7.3e-05	154.453000069
1740.0	7.33e-05	154.5
1740.0	7.33e-05	154.530999899
1740.0	7.33e-05	154.578000069
1740.0	7.33e-05	154.625
1740.0	7.33e-05	154.655999899
1740.0	7.33e-05	154.703000069
1740.0	7.3e-05	154.75
1740.0	7.33e-05	154.780999899
1740.0	7.3e-05	154.828000069
1740.0	7.25e-05	154.875
1740.0	7.25e-05	154.905999899
1740.0	7.2e-05	154.953000069
1740.0	7.25e-05	155.0
1740.0	7.25e-05	155.030999899
1740.0	7.25e-05	155.078000069
1740.0	7.25e-05	155.108999968
1740.0	7.25e-05	155.155999899
1740.0	7.25e-05	155.203000069
1750.0	6.93e-05	155.5
1750.0	6.8e-05	155.530999899
1750.0	6.7e-05	155.578000069
1750.0	6.63e-05	155.625
1750.0	6.53e-05	155.655999899
1750.0	6.45e-05	155.703000069
1750.0	6.45e-05	155.75
1750.0	6.45e-05	155.780999899
1750.0	6.43e-05	155.828000069
1750.0	6.43e-05	155.858999968
1750.0	6.43e-05	155.905999899
1750.0	6.45e-05	155.953000069
1750.0	6.5e-05	155.983999968
1750.0	6.5e-05	156.030999899
1750.0	6.5e-05	156.078000069
1750.0	6.5e-05	156.108999968
1750.0	6.53e-05	156.155999899
1750.0	6.53e-05	156.203000069
1750.0	6.53e-05	156.233999968
1750.0	6.53e-05	156.280999899
1750.0	6.53e-05	156.312000036
1750.0	6.53e-05	156.358999968
1750.0	6.53e-05	156.405999899
1750.0	6.55e-05	156.437000036
1750.0	6.53e-05	156.483999968
1750.0	6.53e-05	156.530999899
1750.0	6.53e-05	156.562000036
1750.0	6.53e-05	156.608999968
1750.0	6.53e-05	156.639999866
1750.0	6.53e-05	156.687000036
1750.0	6.53e-05	156.733999968
1750.0	6.53e-05	156.780999899
1750.0	6.5e-05	156.812000036
1750.0	6.5e-05	156.858999968
1750.0	6.5e-05	156.905999899
1750.0	6.53e-05	156.937000036
1750.0	6.53e-05	156.983999968
1760.0	6.15e-05	157.280999899
1760.0	6.08e-05	157.328000069
1760.0	6.03e-05	157.358999968
1760.0	5.95e-05	157.405999899
1760.0	5.93e-05	157.437000036
1760.0	5.88e-05	157.483999968
1760.0	5.8e-05	157.530999899
1760.0	5.8e-05	157.562000036
1760.0	5.75e-05	157.608999968
1760.0	5.7e-05	157.655999899
1760.0	5.65e-05	157.687000036
1760.0	5.63e-05	157.733999968
1760.0	5.58e-05	157.764999866
1760.0	5.55e-05	157.812000036
1760.0	5.58e-05	157.858999968
1760.0	5.63e-05	157.905999899
1760.0	5.63e-05	157.937000036
1760.0	5.63e-05	157.983999968
1760.0	5.58e-05	158.030999899
1760.0	5.55e-05	158.062000036
1760.0	5.55e-05	158.108999968
1760.0	5.55e-05	158.155999899
1760.0	5.53e-05	158.187000036
1760.0	5.53e-05	158.233999968
1760.0	5.55e-05	158.280999899
1760.0	5.55e-05	158.312000036
1760.0	5.58e-05	158.358999968
1760.0	5.58e-05	158.389999866
1760.0	5.58e-05	158.437000036
1760.0	5.63e-05	158.483999968
1760.0	5.63e-05	158.514999866
1760.0	5.63e-05	158.562000036
1760.0	5.65e-05	158.608999968
1760.0	5.7e-05	158.639999866
1760.0	5.7e-05	158.687000036
1760.0	5.68e-05	158.717999935
1760.0	5.7e-05	158.764999866
1770.0	5.5e-05	159.078000069
1770.0	5.43e-05	159.108999968
1770.0	5.38e-05	159.155999899
1770.0	5.33e-05	159.187000036
1770.0	5.3e-05	159.233999968
1770.0	5.3e-05	159.280999899
1770.0	5.28e-05	159.328000069
1770.0	5.28e-05	159.358999968
1770.0	5.3e-05	159.405999899
1770.0	5.28e-05	159.437000036
1770.0	5.25e-05	159.483999968
1770.0	5.25e-05	159.530999899
1770.0	5.25e-05	159.562000036
1770.0	5.2e-05	159.608999968
1770.0	5.25e-05	159.655999899
1770.0	5.25e-05	159.687000036
1770.0	5.2e-05	159.733999968
1770.0	5.2e-05	159.780999899
1770.0	5.2e-05	159.812000036
1770.0	5.25e-05	159.858999968
1770.0	5.25e-05	159.889999866
1770.0	5.2e-05	159.937000036
1770.0	5.2e-05	159.983999968
1770.0	5.18e-05	160.014999866
1770.0	5.18e-05	160.062000036
1770.0	5.15e-05	160.108999968
1770.0	5.18e-05	160.139999866
1770.0	5.18e-05	160.187000036
1770.0	5.15e-05	160.233999968
1770.0	5.15e-05	160.264999866
1770.0	5.13e-05	160.312000036
1770.0	5.08e-05	160.358999968
1770.0	5.08e-05	160.389999866
1770.0	5.05e-05	160.437000036
1770.0	5.05e-05	160.467999935
1770.0	5.03e-05	160.514999866
1770.0	5.03e-05	160.562000036
1780.0	4.68e-05	160.858999968
1780.0	4.65e-05	160.905999899
1780.0	4.63e-05	160.937000036
1780.0	4.63e-05	160.983999968
1780.0	4.63e-05	161.030999899
1780.0	4.58e-05	161.062000036
1780.0	4.58e-05	161.108999968
1780.0	4.63e-05	161.155999899
1780.0	4.58e-05	161.187000036
1780.0	4.58e-05	161.233999968
1780.0	4.55e-05	161.264999866
1780.0	4.53e-05	161.312000036
1780.0	4.55e-05	161.358999968
1780.0	4.53e-05	161.389999866
1780.0	4.55e-05	161.437000036
1780.0	4.58e-05	161.483999968
1780.0	4.58e-05	161.514999866
1780.0	4.63e-05	161.562000036
1780.0	4.58e-05	161.592999935
1780.0	4.55e-05	161.639999866
1780.0	4.53e-05	161.687000036
1780.0	4.5e-05	161.717999935
1780.0	4.5e-05	161.764999866
1780.0	4.53e-05	161.812000036
1780.0	4.55e-05	161.842999935
1780.0	4.58e-05	161.889999866
1780.0	4.58e-05	161.937000036
1780.0	4.63e-05	161.967999935
1780.0	4.65e-05	162.014999866
1780.0	4.65e-05	162.046000004
1780.0	4.65e-05	162.092999935
1780.0	4.68e-05	162.139999866
1780.0	4.68e-05	162.171000004
1780.0	4.68e-05	162.217999935
1780.0	4.68e-05	162.25
1780.0	4.7e-05	162.296000004
1780.0	4.7e-05	162.342999935
1790.0	4.4e-05	162.639999866
1790.0	4.38e-05	162.687000036
1790.0	4.3e-05	162.733999968
1790.0	4.28e-05	162.764999866
1790.0	4.25e-05	162.812000036
1790.0	4.25e-05	162.842999935
1790.0	4.25e-05	162.889999866
1790.0	4.25e-05	162.937000036
1790.0	4.2e-05	162.967999935
1790.0	4.18e-05	163.014999866
1790.0	4.15e-05	163.062000036
1790.0	4.13e-05	163.092999935
1790.0	4.13e-05	163.139999866
1790.0	4.13e-05	163.171000004
1790.0	4.13e-05	163.217999935
1790.0	4.13e-05	163.264999866
1790.0	4.05e-05	163.296000004
1790.0	4.05e-05	163.342999935
1790.0	4.05e-05	163.389999866
1790.0	4.03e-05	163.421000004
1790.0	4.03e-05	163.467999935
1790.0	4.05e-05	163.5
1790.0	4.05e-05	163.546000004
1790.0	4.05e-05	163.592999935
1790.0	4.03e-05	163.625
1790.0	3.95e-05	163.671000004
1790.0	3.95e-05	163.717999935
1790.0	3.95e-05	163.75
1790.0	4e-05	163.796000004
1790.0	4.03e-05	163.828000069
1790.0	4e-05	163.875
1790.0	4e-05	163.921000004
1790.0	4e-05	163.953000069
1790.0	4.03e-05	164.0
1790.0	4.03e-05	164.046000004
1790.0	4e-05	164.078000069
1790.0	4e-05	164.125
1800.0	3.88e-05	164.421000004
1800.0	3.83e-05	164.467999935
1800.0	3.8e-05	164.5
1800.0	3.78e-05	164.546000004
1800.0	3.75e-05	164.592999935
1800.0	3.68e-05	164.625
1800.0	3.65e-05	164.671000004
1800.0	3.65e-05	164.717999935
1800.0	3.63e-05	164.75
1800.0	3.63e-05	164.796000004
1800.0	3.63e-05	164.842999935
1800.0	3.65e-05	164.875
1800.0	3.68e-05	164.921000004
1800.0	3.68e-05	164.953000069
1800.0	3.68e-05	165.0
1800.0	3.75e-05	165.046000004
1800.0	3.75e-05	165.078000069
1800.0	3.78e-05	165.125
1800.0	3.83e-05	165.171000004
1800.0	3.83e-05	165.203000069
1800.0	3.88e-05	165.25
1800.0	3.83e-05	165.296000004
1800.0	3.83e-05	165.328000069
1800.0	3.83e-05	165.375
1800.0	3.8e-05	165.405999899
1800.0	3.8e-05	165.453000069
1800.0	3.8e-05	165.5
1800.0	3.78e-05	165.530999899
1800.0	3.78e-05	165.578000069
1800.0	3.78e-05	165.625
1800.0	3.78e-05	165.655999899
1800.0	3.8e-05	165.703000069
1800.0	3.78e-05	165.733999968
1800.0	3.78e-05	165.780999899
1800.0	3.8e-05	165.828000069
1800.0	3.8e-05	165.858999968
1800.0	3.8e-05	165.905999899
