Your edit line - do NOT delete this line
Wavelength [nm], Voltage [V], Elapsed time [s]
900.0	0.000183	14.0939998627
900.0	0.0001793	14.1410000324
900.0	0.0001768	14.1879999638
900.0	0.0001745	14.2349998951
900.0	0.0001733	14.2660000324
900.0	0.000172	14.3129999638
900.0	0.0001713	14.3599998951
900.0	0.0001705	14.3910000324
900.0	0.0001695	14.4379999638
900.0	0.0001695	14.4849998951
900.0	0.0001693	14.5160000324
900.0	0.0001688	14.5629999638
900.0	0.0001688	14.6099998951
900.0	0.0001688	14.6410000324
900.0	0.0001683	14.6879999638
900.0	0.0001688	14.7189998627
900.0	0.0001688	14.7660000324
900.0	0.0001683	14.8129999638
900.0	0.0001688	14.8439998627
900.0	0.0001683	14.8910000324
900.0	0.0001688	14.9379999638
900.0	0.0001688	14.9689998627
900.0	0.0001683	15.0160000324
900.0	0.0001683	15.0469999313
900.0	0.0001683	15.0939998627
900.0	0.0001683	15.1410000324
900.0	0.0001683	15.1719999313
900.0	0.000168	15.2189998627
900.0	0.000168	15.2660000324
900.0	0.000168	15.2969999313
900.0	0.000168	15.3439998627
900.0	0.0001678	15.375
900.0	0.0001675	15.4219999313
900.0	0.0001675	15.4689998627
900.0	0.0001675	15.5
900.0	0.0001675	15.5469999313
900.0	0.0001675	15.5939998627
910.0	0.000175	15.8910000324
910.0	0.000177	15.9379999638
910.0	0.0001793	15.9689998627
910.0	0.0001808	16.0160000324
910.0	0.0001818	16.0629999638
910.0	0.000183	16.0939998627
910.0	0.0001833	16.1410000324
910.0	0.000184	16.1719999313
910.0	0.0001843	16.2189998627
910.0	0.0001845	16.2660000324
910.0	0.000185	16.2969999313
910.0	0.0001853	16.3439998627
910.0	0.0001855	16.3910000324
910.0	0.0001855	16.4219999313
910.0	0.0001853	16.4689998627
910.0	0.0001853	16.5160000324
910.0	0.0001853	16.5469999313
910.0	0.0001853	16.5939998627
910.0	0.0001855	16.6410000324
910.0	0.0001855	16.6719999313
910.0	0.0001853	16.7189998627
910.0	0.0001855	16.7660000324
910.0	0.0001855	16.7969999313
910.0	0.0001858	16.8439998627
910.0	0.0001858	16.875
910.0	0.0001855	16.9219999313
910.0	0.0001858	16.9689998627
910.0	0.0001863	17.0
910.0	0.0001865	17.0469999313
910.0	0.0001865	17.0939998627
910.0	0.0001865	17.125
910.0	0.0001863	17.1719999313
910.0	0.0001865	17.2039999962
910.0	0.0001863	17.25
910.0	0.0001863	17.2969999313
910.0	0.0001863	17.3289999962
910.0	0.0001863	17.375
920.0	0.0001945	17.6719999313
920.0	0.000197	17.7189998627
920.0	0.0001993	17.7660000324
920.0	0.0002013	17.7969999313
920.0	0.0002025	17.8439998627
920.0	0.0002038	17.8910000324
920.0	0.000204	17.9219999313
920.0	0.0002045	17.9689998627
920.0	0.0002053	18.0
920.0	0.0002053	18.0469999313
920.0	0.0002055	18.0939998627
920.0	0.0002058	18.125
920.0	0.0002058	18.1719999313
920.0	0.0002058	18.2189998627
920.0	0.0002058	18.25
920.0	0.0002058	18.2969999313
920.0	0.0002063	18.3439998627
920.0	0.0002063	18.375
920.0	0.0002063	18.4219999313
920.0	0.0002063	18.4689998627
920.0	0.0002063	18.5
920.0	0.0002063	18.5469999313
920.0	0.0002063	18.5939998627
920.0	0.0002063	18.625
920.0	0.0002063	18.6719999313
920.0	0.0002065	18.7039999962
920.0	0.0002068	18.75
920.0	0.000207	18.7969999313
920.0	0.0002068	18.8289999962
920.0	0.0002065	18.875
920.0	0.0002063	18.9070000648
920.0	0.0002058	18.9539999962
920.0	0.0002055	19.0
920.0	0.0002053	19.0320000648
920.0	0.0002053	19.0789999962
920.0	0.0002055	19.125
920.0	0.0002055	19.1570000648
930.0	0.000214	19.4689998627
930.0	0.0002168	19.5
930.0	0.0002193	19.5469999313
930.0	0.0002215	19.5789999962
930.0	0.0002225	19.625
930.0	0.0002238	19.6719999313
930.0	0.0002245	19.7039999962
930.0	0.0002253	19.75
930.0	0.0002263	19.7820000648
930.0	0.0002265	19.8289999962
930.0	0.0002265	19.875
930.0	0.0002268	19.9070000648
930.0	0.000227	19.9539999962
930.0	0.000227	20.0
930.0	0.0002275	20.0320000648
930.0	0.000227	20.0789999962
930.0	0.0002275	20.125
930.0	0.0002278	20.1570000648
930.0	0.0002275	20.2039999962
930.0	0.000227	20.2349998951
930.0	0.0002268	20.2820000648
930.0	0.0002268	20.3289999962
930.0	0.0002268	20.3599998951
930.0	0.0002265	20.4070000648
930.0	0.0002265	20.4539999962
930.0	0.0002268	20.5
930.0	0.0002268	20.5469999313
930.0	0.000227	20.5789999962
930.0	0.000227	20.625
930.0	0.0002275	20.6570000648
930.0	0.0002275	20.7039999962
930.0	0.0002275	20.75
930.0	0.0002275	20.7820000648
930.0	0.0002275	20.8289999962
930.0	0.0002275	20.875
930.0	0.0002275	20.9070000648
930.0	0.000227	20.9539999962
940.0	0.0002365	21.25
940.0	0.00024	21.2969999313
940.0	0.0002428	21.3289999962
940.0	0.000245	21.375
940.0	0.0002465	21.4219999313
940.0	0.0002475	21.4539999962
940.0	0.0002483	21.5
940.0	0.0002488	21.5320000648
940.0	0.0002493	21.5789999962
940.0	0.0002495	21.625
940.0	0.0002495	21.6570000648
940.0	0.0002503	21.7039999962
940.0	0.0002505	21.75
940.0	0.0002505	21.7820000648
940.0	0.0002505	21.8289999962
940.0	0.0002505	21.8599998951
940.0	0.0002503	21.9070000648
940.0	0.0002503	21.9539999962
940.0	0.0002503	21.9849998951
940.0	0.0002503	22.0320000648
940.0	0.00025	22.0789999962
940.0	0.00025	22.1099998951
940.0	0.0002503	22.1570000648
940.0	0.0002503	22.2039999962
940.0	0.00025	22.2349998951
940.0	0.0002495	22.2820000648
940.0	0.0002493	22.3129999638
940.0	0.000249	22.3599998951
940.0	0.0002493	22.4070000648
940.0	0.000249	22.4379999638
940.0	0.0002493	22.4849998951
940.0	0.0002495	22.5320000648
940.0	0.0002495	22.5629999638
940.0	0.00025	22.6099998951
940.0	0.0002495	22.6410000324
940.0	0.0002493	22.6879999638
940.0	0.0002493	22.7349998951
950.0	0.000258	23.0160000324
950.0	0.0002608	23.0629999638
950.0	0.000263	23.1099998951
950.0	0.0002645	23.1410000324
950.0	0.0002663	23.1879999638
950.0	0.0002675	23.2349998951
950.0	0.0002683	23.2660000324
950.0	0.0002693	23.3129999638
950.0	0.0002695	23.3439998627
950.0	0.0002703	23.3910000324
950.0	0.0002703	23.4379999638
950.0	0.0002703	23.4689998627
950.0	0.00027	23.5160000324
950.0	0.0002695	23.5629999638
950.0	0.00027	23.5939998627
950.0	0.0002703	23.6410000324
950.0	0.0002705	23.6719999313
950.0	0.0002705	23.7189998627
950.0	0.0002705	23.7660000324
950.0	0.0002705	23.7969999313
950.0	0.0002705	23.8439998627
950.0	0.0002705	23.8910000324
950.0	0.0002705	23.9219999313
950.0	0.0002708	23.9689998627
950.0	0.0002708	24.0
950.0	0.0002708	24.0469999313
950.0	0.0002708	24.0939998627
950.0	0.0002705	24.125
950.0	0.0002703	24.1719999313
950.0	0.0002703	24.2189998627
950.0	0.0002703	24.25
950.0	0.0002708	24.2969999313
950.0	0.0002708	24.3289999962
950.0	0.0002708	24.375
950.0	0.0002708	24.4219999313
950.0	0.0002705	24.4539999962
950.0	0.0002708	24.5
960.0	0.0002793	24.7820000648
960.0	0.0002825	24.8289999962
960.0	0.0002853	24.875
960.0	0.0002875	24.9070000648
960.0	0.000289	24.9539999962
960.0	0.00029	25.0
960.0	0.0002908	25.0320000648
960.0	0.0002918	25.0789999962
960.0	0.0002925	25.1099998951
960.0	0.000293	25.1570000648
960.0	0.0002938	25.2039999962
960.0	0.0002938	25.2349998951
960.0	0.0002938	25.2820000648
960.0	0.0002938	25.3289999962
960.0	0.0002933	25.3599998951
960.0	0.0002933	25.4070000648
960.0	0.0002938	25.4379999638
960.0	0.0002938	25.4849998951
960.0	0.0002938	25.5320000648
960.0	0.0002938	25.5629999638
960.0	0.0002943	25.6099998951
960.0	0.0002945	25.6570000648
960.0	0.0002945	25.6879999638
960.0	0.0002943	25.7349998951
960.0	0.0002945	25.7660000324
960.0	0.000295	25.8129999638
960.0	0.0002953	25.8599998951
960.0	0.000295	25.8910000324
960.0	0.000295	25.9379999638
960.0	0.0002955	25.9849998951
960.0	0.0002953	26.0160000324
960.0	0.000295	26.0629999638
960.0	0.0002953	26.1099998951
960.0	0.0002945	26.1410000324
960.0	0.0002945	26.1879999638
960.0	0.000295	26.2189998627
960.0	0.0002945	26.2660000324
970.0	0.000303	26.5469999313
970.0	0.0003063	26.5939998627
970.0	0.0003088	26.625
970.0	0.0003108	26.6719999313
970.0	0.0003125	26.7189998627
970.0	0.000314	26.75
970.0	0.000315	26.7969999313
970.0	0.000315	26.8439998627
970.0	0.0003153	26.875
970.0	0.0003155	26.9219999313
970.0	0.0003158	26.9539999962
970.0	0.0003158	27.0
970.0	0.0003158	27.0469999313
970.0	0.0003158	27.0789999962
970.0	0.0003165	27.125
970.0	0.0003165	27.1719999313
970.0	0.0003165	27.2039999962
970.0	0.0003165	27.25
970.0	0.0003163	27.2820000648
970.0	0.0003163	27.3289999962
970.0	0.0003158	27.375
970.0	0.0003158	27.4070000648
970.0	0.0003158	27.4539999962
970.0	0.0003158	27.5
970.0	0.0003155	27.5320000648
970.0	0.0003158	27.5789999962
970.0	0.0003153	27.6099998951
970.0	0.0003153	27.6570000648
970.0	0.000315	27.7039999962
970.0	0.000315	27.7349998951
970.0	0.000315	27.7820000648
970.0	0.0003145	27.8289999962
970.0	0.0003143	27.8599998951
970.0	0.0003145	27.9070000648
970.0	0.0003145	27.9539999962
970.0	0.0003145	27.9849998951
970.0	0.0003145	28.0320000648
980.0	0.0003233	28.3129999638
980.0	0.0003265	28.3599998951
980.0	0.000329	28.3910000324
980.0	0.0003308	28.4379999638
980.0	0.0003325	28.4689998627
980.0	0.0003333	28.5160000324
980.0	0.0003343	28.5629999638
980.0	0.000335	28.5939998627
980.0	0.0003353	28.6410000324
980.0	0.0003355	28.6879999638
980.0	0.0003358	28.7189998627
980.0	0.0003363	28.7660000324
980.0	0.0003365	28.7969999313
980.0	0.0003368	28.8439998627
980.0	0.0003368	28.8910000324
980.0	0.0003368	28.9219999313
980.0	0.0003365	28.9689998627
980.0	0.0003365	29.0160000324
980.0	0.0003365	29.0469999313
980.0	0.0003358	29.0939998627
980.0	0.0003358	29.1410000324
980.0	0.0003355	29.1719999313
980.0	0.0003355	29.2189998627
980.0	0.0003355	29.25
980.0	0.0003355	29.2969999313
980.0	0.0003358	29.3439998627
980.0	0.0003358	29.375
980.0	0.0003355	29.4219999313
980.0	0.0003353	29.4689998627
980.0	0.000335	29.5
980.0	0.000335	29.5469999313
980.0	0.0003353	29.5789999962
980.0	0.0003355	29.625
980.0	0.0003358	29.6719999313
980.0	0.0003363	29.7039999962
980.0	0.0003365	29.75
980.0	0.0003368	29.7969999313
990.0	0.0003445	30.0629999638
990.0	0.0003475	30.1099998951
990.0	0.00035	30.1570000648
990.0	0.0003518	30.1879999638
990.0	0.0003533	30.2349998951
990.0	0.0003545	30.2820000648
990.0	0.0003553	30.3129999638
990.0	0.0003558	30.3599998951
990.0	0.0003563	30.3910000324
990.0	0.0003565	30.4379999638
990.0	0.000357	30.4849998951
990.0	0.0003575	30.5160000324
990.0	0.0003578	30.5629999638
990.0	0.000358	30.6099998951
990.0	0.0003583	30.6410000324
990.0	0.0003583	30.6879999638
990.0	0.0003588	30.7349998951
990.0	0.0003583	30.7660000324
990.0	0.0003588	30.8129999638
990.0	0.000359	30.8439998627
990.0	0.000359	30.8910000324
990.0	0.000359	30.9379999638
990.0	0.000359	30.9689998627
990.0	0.0003588	31.0160000324
990.0	0.0003588	31.0629999638
990.0	0.0003588	31.0939998627
990.0	0.0003588	31.1410000324
990.0	0.000359	31.1719999313
990.0	0.0003588	31.2189998627
990.0	0.0003588	31.2660000324
990.0	0.0003583	31.2969999313
990.0	0.000358	31.3439998627
990.0	0.000358	31.3910000324
990.0	0.000358	31.4219999313
990.0	0.0003583	31.4689998627
990.0	0.0003588	31.5
990.0	0.000359	31.5469999313
1000.0	0.0003678	31.8289999962
1000.0	0.0003703	31.875
1000.0	0.0003728	31.9070000648
1000.0	0.0003745	31.9539999962
1000.0	0.0003758	31.9849998951
1000.0	0.000377	32.0320000648
1000.0	0.0003783	32.0789999962
1000.0	0.0003788	32.1099998951
1000.0	0.0003795	32.1570000648
1000.0	0.00038	32.2039999962
1000.0	0.0003795	32.2349998951
1000.0	0.0003795	32.2820000648
1000.0	0.0003795	32.3129999638
1000.0	0.0003793	32.3599998951
1000.0	0.0003795	32.4070000648
1000.0	0.0003793	32.4379999638
1000.0	0.00038	32.4849998951
1000.0	0.0003803	32.5320000648
1000.0	0.0003805	32.5629999638
1000.0	0.0003805	32.6099998951
1000.0	0.0003803	32.6570000648
1000.0	0.00038	32.6879999638
1000.0	0.00038	32.7349998951
1000.0	0.0003795	32.7820000648
1000.0	0.0003795	32.8129999638
1000.0	0.00038	32.8599998951
1000.0	0.0003795	32.9070000648
1000.0	0.0003795	32.9379999638
1000.0	0.00038	32.9849998951
1000.0	0.0003793	33.0160000324
1000.0	0.00038	33.0629999638
1000.0	0.0003795	33.1099998951
1000.0	0.0003795	33.1410000324
1000.0	0.00038	33.1879999638
1000.0	0.00038	33.2349998951
1000.0	0.0003803	33.2660000324
1000.0	0.00038	33.3129999638
1010.0	0.000387	33.5939998627
1010.0	0.00039	33.625
1010.0	0.000392	33.6719999313
1010.0	0.0003938	33.7189998627
1010.0	0.0003955	33.75
1010.0	0.000397	33.7969999313
1010.0	0.0003988	33.8289999962
1010.0	0.0003995	33.875
1010.0	0.0004	33.9219999313
1010.0	0.0004005	33.9539999962
1010.0	0.0004005	34.0
1010.0	0.0004005	34.0469999313
1010.0	0.0004005	34.0789999962
1010.0	0.0004003	34.125
1010.0	0.0004	34.1570000648
1010.0	0.0004	34.2039999962
1010.0	0.0004	34.25
1010.0	0.0004	34.2969999313
1010.0	0.0004005	34.3289999962
1010.0	0.0004003	34.375
1010.0	0.0004003	34.4219999313
1010.0	0.0004003	34.4539999962
1010.0	0.0004003	34.5
1010.0	0.0004005	34.5320000648
1010.0	0.0004005	34.5789999962
1010.0	0.0004005	34.625
1010.0	0.0004005	34.6570000648
1010.0	0.0004003	34.7039999962
1010.0	0.0004005	34.75
1010.0	0.0004005	34.7820000648
1010.0	0.0004008	34.8289999962
1010.0	0.0004008	34.8599998951
1010.0	0.0004005	34.9070000648
1010.0	0.0004005	34.9539999962
1010.0	0.0004005	34.9849998951
1010.0	0.0004005	35.0320000648
1010.0	0.0004008	35.0789999962
1020.0	0.00041	35.3439998627
1020.0	0.0004128	35.3910000324
1020.0	0.0004153	35.4379999638
1020.0	0.0004168	35.4689998627
1020.0	0.0004183	35.5160000324
1020.0	0.0004193	35.5629999638
1020.0	0.00042	35.6099998951
1020.0	0.0004205	35.6410000324
1020.0	0.0004213	35.6879999638
1020.0	0.0004215	35.7189998627
1020.0	0.000422	35.7660000324
1020.0	0.0004225	35.8129999638
1020.0	0.0004225	35.8439998627
1020.0	0.000423	35.8910000324
1020.0	0.0004233	35.9379999638
1020.0	0.0004233	35.9689998627
1020.0	0.0004233	36.0160000324
1020.0	0.0004233	36.0469999313
1020.0	0.0004233	36.0939998627
1020.0	0.0004233	36.1410000324
1020.0	0.000423	36.1719999313
1020.0	0.000423	36.2189998627
1020.0	0.0004228	36.2660000324
1020.0	0.0004225	36.2969999313
1020.0	0.000423	36.3439998627
1020.0	0.0004228	36.375
1020.0	0.000423	36.4219999313
1020.0	0.000423	36.4689998627
1020.0	0.0004228	36.5
1020.0	0.0004228	36.5469999313
1020.0	0.000423	36.5939998627
1020.0	0.0004228	36.625
1020.0	0.000423	36.6719999313
1020.0	0.000423	36.7039999962
1020.0	0.000423	36.75
1020.0	0.000423	36.7969999313
1020.0	0.0004228	36.8289999962
1030.0	0.0004318	37.125
1030.0	0.000435	37.1570000648
1030.0	0.0004375	37.2039999962
1030.0	0.000439	37.2349998951
1030.0	0.0004403	37.2820000648
1030.0	0.0004415	37.3289999962
1030.0	0.0004428	37.3599998951
1030.0	0.0004433	37.4070000648
1030.0	0.0004443	37.4539999962
1030.0	0.0004445	37.4849998951
1030.0	0.000445	37.5320000648
1030.0	0.0004453	37.5629999638
1030.0	0.0004455	37.6099998951
1030.0	0.0004455	37.6570000648
1030.0	0.0004455	37.6879999638
1030.0	0.0004455	37.7349998951
1030.0	0.0004455	37.7820000648
1030.0	0.0004455	37.8129999638
1030.0	0.0004455	37.8599998951
1030.0	0.0004458	37.8910000324
1030.0	0.0004458	37.9379999638
1030.0	0.0004458	37.9849998951
1030.0	0.0004463	38.0160000324
1030.0	0.0004458	38.0629999638
1030.0	0.0004458	38.1099998951
1030.0	0.0004458	38.1410000324
1030.0	0.0004455	38.1879999638
1030.0	0.0004455	38.2349998951
1030.0	0.0004458	38.2660000324
1030.0	0.0004455	38.3129999638
1030.0	0.0004458	38.3599998951
1030.0	0.0004458	38.3910000324
1030.0	0.0004463	38.4379999638
1030.0	0.0004463	38.4849998951
1030.0	0.0004465	38.5160000324
1030.0	0.0004465	38.5629999638
1030.0	0.0004465	38.5939998627
1040.0	0.0004555	38.8910000324
1040.0	0.0004588	38.9219999313
1040.0	0.0004608	38.9689998627
1040.0	0.0004625	39.0
1040.0	0.000464	39.0469999313
1040.0	0.000465	39.0939998627
1040.0	0.0004655	39.125
1040.0	0.0004665	39.1719999313
1040.0	0.0004668	39.2189998627
1040.0	0.000467	39.25
1040.0	0.0004675	39.2969999313
1040.0	0.0004675	39.3289999962
1040.0	0.0004675	39.375
1040.0	0.0004678	39.4219999313
1040.0	0.000468	39.4539999962
1040.0	0.000468	39.5
1040.0	0.000468	39.5469999313
1040.0	0.0004683	39.5789999962
1040.0	0.0004688	39.625
1040.0	0.000469	39.6570000648
1040.0	0.0004693	39.7039999962
1040.0	0.000469	39.75
1040.0	0.0004688	39.7820000648
1040.0	0.0004693	39.8289999962
1040.0	0.0004693	39.875
1040.0	0.0004693	39.9070000648
1040.0	0.0004695	39.9539999962
1040.0	0.0004693	39.9849998951
1040.0	0.000469	40.0320000648
1040.0	0.000469	40.0789999962
1040.0	0.0004688	40.1099998951
1040.0	0.0004688	40.1570000648
1040.0	0.0004688	40.2039999962
1040.0	0.0004688	40.2349998951
1040.0	0.000469	40.2820000648
1040.0	0.000469	40.3289999962
1040.0	0.000469	40.3599998951
1050.0	0.0004775	40.6410000324
1050.0	0.0004803	40.6879999638
1050.0	0.0004828	40.7349998951
1050.0	0.0004845	40.7660000324
1050.0	0.0004863	40.8129999638
1050.0	0.000487	40.8439998627
1050.0	0.000488	40.8910000324
1050.0	0.000489	40.9379999638
1050.0	0.0004895	40.9689998627
1050.0	0.00049	41.0160000324
1050.0	0.0004905	41.0629999638
1050.0	0.0004905	41.0939998627
1050.0	0.0004913	41.1410000324
1050.0	0.0004915	41.1879999638
1050.0	0.0004915	41.2189998627
1050.0	0.0004913	41.2660000324
1050.0	0.0004915	41.3129999638
1050.0	0.0004913	41.3439998627
1050.0	0.0004915	41.3910000324
1050.0	0.0004913	41.4379999638
1050.0	0.0004908	41.4689998627
1050.0	0.0004913	41.5160000324
1050.0	0.0004913	41.5469999313
1050.0	0.0004913	41.5939998627
1050.0	0.0004915	41.6410000324
1050.0	0.0004913	41.6719999313
1050.0	0.0004915	41.7189998627
1050.0	0.0004915	41.7660000324
1050.0	0.0004913	41.7969999313
1050.0	0.0004913	41.8439998627
1050.0	0.0004908	41.875
1050.0	0.0004905	41.9219999313
1050.0	0.0004908	41.9689998627
1050.0	0.0004908	42.0
1050.0	0.0004913	42.0469999313
1050.0	0.0004913	42.0939998627
1050.0	0.0004913	42.125
1060.0	0.0005008	42.4070000648
1060.0	0.0005043	42.4539999962
1060.0	0.0005068	42.5
1060.0	0.0005088	42.5320000648
1060.0	0.00051	42.5789999962
1060.0	0.0005108	42.625
1060.0	0.0005118	42.6570000648
1060.0	0.000512	42.7039999962
1060.0	0.0005128	42.75
1060.0	0.0005128	42.7820000648
1060.0	0.000513	42.8289999962
1060.0	0.0005133	42.875
1060.0	0.0005133	42.9070000648
1060.0	0.0005138	42.9539999962
1060.0	0.0005138	42.9849998951
1060.0	0.0005138	43.0320000648
1060.0	0.0005138	43.0789999962
1060.0	0.000514	43.1099998951
1060.0	0.0005138	43.1570000648
1060.0	0.0005143	43.2039999962
1060.0	0.000514	43.2349998951
1060.0	0.000514	43.2820000648
1060.0	0.0005138	43.3129999638
1060.0	0.0005133	43.3599998951
1060.0	0.0005133	43.4070000648
1060.0	0.0005138	43.4539999962
1060.0	0.0005133	43.4849998951
1060.0	0.0005138	43.5320000648
1060.0	0.0005138	43.5629999638
1060.0	0.0005133	43.6099998951
1060.0	0.0005133	43.6570000648
1060.0	0.0005133	43.6879999638
1060.0	0.0005133	43.7349998951
1060.0	0.0005138	43.7820000648
1060.0	0.000514	43.8129999638
1060.0	0.0005143	43.8599998951
1060.0	0.0005143	43.9070000648
1070.0	0.0005225	44.1879999638
1070.0	0.0005255	44.2189998627
1070.0	0.0005275	44.2660000324
1070.0	0.0005293	44.3129999638
1070.0	0.0005305	44.3439998627
1070.0	0.0005315	44.3910000324
1070.0	0.0005325	44.4219999313
1070.0	0.000533	44.4689998627
1070.0	0.0005333	44.5160000324
1070.0	0.000534	44.5469999313
1070.0	0.000534	44.5939998627
1070.0	0.0005343	44.6410000324
1070.0	0.0005345	44.6719999313
1070.0	0.0005345	44.7189998627
1070.0	0.000535	44.75
1070.0	0.0005353	44.7969999313
1070.0	0.0005355	44.8439998627
1070.0	0.0005358	44.875
1070.0	0.0005358	44.9219999313
1070.0	0.0005363	44.9689998627
1070.0	0.0005363	45.0
1070.0	0.0005363	45.0469999313
1070.0	0.0005358	45.0789999962
1070.0	0.0005358	45.125
1070.0	0.0005355	45.1719999313
1070.0	0.0005358	45.2039999962
1070.0	0.0005363	45.25
1070.0	0.0005363	45.2969999313
1070.0	0.0005358	45.3289999962
1070.0	0.0005358	45.375
1070.0	0.0005355	45.4070000648
1070.0	0.0005363	45.4539999962
1070.0	0.0005355	45.5
1070.0	0.0005355	45.5320000648
1070.0	0.0005355	45.5789999962
1070.0	0.0005355	45.625
1070.0	0.0005355	45.6570000648
1080.0	0.0005433	45.9379999638
1080.0	0.0005458	45.9849998951
1080.0	0.000548	46.0320000648
1080.0	0.0005495	46.0629999638
1080.0	0.0005513	46.1099998951
1080.0	0.000552	46.1570000648
1080.0	0.0005525	46.1879999638
1080.0	0.000553	46.2349998951
1080.0	0.0005533	46.2660000324
1080.0	0.0005538	46.3129999638
1080.0	0.000554	46.3599998951
1080.0	0.000554	46.3910000324
1080.0	0.000554	46.4379999638
1080.0	0.000554	46.4849998951
1080.0	0.000554	46.5160000324
1080.0	0.000554	46.5629999638
1080.0	0.000554	46.5939998627
1080.0	0.000554	46.6410000324
1080.0	0.0005545	46.6879999638
1080.0	0.0005545	46.7189998627
1080.0	0.0005545	46.7660000324
1080.0	0.0005553	46.8129999638
1080.0	0.0005545	46.8439998627
1080.0	0.0005545	46.8910000324
1080.0	0.0005545	46.9379999638
1080.0	0.0005545	46.9689998627
1080.0	0.0005545	47.0160000324
1080.0	0.000555	47.0469999313
1080.0	0.000555	47.0939998627
1080.0	0.0005553	47.1410000324
1080.0	0.0005555	47.1719999313
1080.0	0.0005558	47.2189998627
1080.0	0.0005558	47.2660000324
1080.0	0.0005555	47.2969999313
1080.0	0.0005555	47.3439998627
1080.0	0.0005558	47.375
1080.0	0.0005553	47.4219999313
1090.0	0.0005618	47.7039999962
1090.0	0.000564	47.75
1090.0	0.0005658	47.7820000648
1090.0	0.0005675	47.8289999962
1090.0	0.0005683	47.875
1090.0	0.0005693	47.9070000648
1090.0	0.00057	47.9539999962
1090.0	0.00057	48.0
1090.0	0.0005705	48.0320000648
1090.0	0.0005705	48.0789999962
1090.0	0.0005705	48.1099998951
1090.0	0.0005708	48.1570000648
1090.0	0.0005708	48.2039999962
1090.0	0.0005713	48.2349998951
1090.0	0.0005713	48.2820000648
1090.0	0.0005708	48.3289999962
1090.0	0.0005708	48.3599998951
1090.0	0.0005708	48.4070000648
1090.0	0.0005705	48.4379999638
1090.0	0.0005705	48.4849998951
1090.0	0.0005705	48.5320000648
1090.0	0.0005705	48.5629999638
1090.0	0.0005708	48.6099998951
1090.0	0.0005713	48.6570000648
1090.0	0.0005713	48.6879999638
1090.0	0.0005713	48.7349998951
1090.0	0.0005708	48.7820000648
1090.0	0.0005713	48.8129999638
1090.0	0.0005708	48.8599998951
1090.0	0.0005708	48.8910000324
1090.0	0.0005713	48.9379999638
1090.0	0.0005713	48.9849998951
1090.0	0.0005708	49.0160000324
1090.0	0.0005713	49.0629999638
1090.0	0.0005708	49.1099998951
1090.0	0.0005708	49.1410000324
1090.0	0.0005713	49.1879999638
1100.0	0.0005758	49.4689998627
1100.0	0.0005778	49.5160000324
1100.0	0.0005788	49.5469999313
1100.0	0.00058	49.5939998627
1100.0	0.0005808	49.6410000324
1100.0	0.0005813	49.6719999313
1100.0	0.0005825	49.7189998627
1100.0	0.000583	49.7660000324
1100.0	0.000583	49.7969999313
1100.0	0.0005828	49.8439998627
1100.0	0.0005825	49.8910000324
1100.0	0.000582	49.9219999313
1100.0	0.000582	49.9689998627
1100.0	0.000582	50.0
1100.0	0.0005825	50.0469999313
1100.0	0.0005825	50.0939998627
1100.0	0.0005825	50.125
1100.0	0.0005825	50.1719999313
1100.0	0.000582	50.2039999962
1100.0	0.0005825	50.25
1100.0	0.0005828	50.2969999313
1100.0	0.0005825	50.3289999962
1100.0	0.0005825	50.375
1100.0	0.0005825	50.4219999313
1100.0	0.0005828	50.4539999962
1100.0	0.000583	50.5
1100.0	0.000583	50.5469999313
1100.0	0.0005828	50.5939998627
1100.0	0.000583	50.625
1100.0	0.0005828	50.6719999313
1100.0	0.0005825	50.7189998627
1100.0	0.0005818	50.75
1100.0	0.0005815	50.7969999313
1100.0	0.0005813	50.8289999962
1100.0	0.0005813	50.875
1100.0	0.0005815	50.9219999313
1110.0	0.0005853	51.2039999962
1110.0	0.0005863	51.2349998951
1110.0	0.000587	51.2820000648
1110.0	0.0005878	51.3129999638
1110.0	0.000588	51.3599998951
1110.0	0.0005888	51.4070000648
1110.0	0.000589	51.4379999638
1110.0	0.0005893	51.4849998951
1110.0	0.0005895	51.5320000648
1110.0	0.0005895	51.5629999638
1110.0	0.0005895	51.6099998951
1110.0	0.0005893	51.6570000648
1110.0	0.0005893	51.6879999638
1110.0	0.0005893	51.7349998951
1110.0	0.000589	51.7660000324
1110.0	0.000589	51.8129999638
1110.0	0.0005893	51.8599998951
1110.0	0.0005893	51.8910000324
1110.0	0.0005893	51.9379999638
1110.0	0.0005893	51.9849998951
1110.0	0.000589	52.0160000324
1110.0	0.000589	52.0629999638
1110.0	0.0005893	52.0939998627
1110.0	0.0005888	52.1410000324
1110.0	0.0005888	52.1879999638
1110.0	0.0005888	52.2189998627
1110.0	0.0005888	52.2660000324
1110.0	0.000589	52.3129999638
1110.0	0.0005888	52.3439998627
1110.0	0.0005883	52.3910000324
1110.0	0.0005888	52.4219999313
1110.0	0.0005888	52.4689998627
1110.0	0.0005888	52.5160000324
1110.0	0.0005888	52.5469999313
1110.0	0.0005888	52.5939998627
1110.0	0.0005888	52.6410000324
1110.0	0.000589	52.6719999313
1120.0	0.00059	52.9539999962
1120.0	0.0005905	53.0
1120.0	0.0005908	53.0320000648
1120.0	0.0005913	53.0789999962
1120.0	0.0005913	53.125
1120.0	0.0005913	53.1570000648
1120.0	0.0005913	53.2039999962
1120.0	0.0005913	53.25
1120.0	0.0005913	53.2820000648
1120.0	0.0005918	53.3289999962
1120.0	0.0005918	53.3599998951
1120.0	0.0005915	53.4070000648
1120.0	0.0005915	53.4539999962
1120.0	0.0005913	53.4849998951
1120.0	0.0005913	53.5320000648
1120.0	0.0005913	53.5789999962
1120.0	0.0005913	53.6099998951
1120.0	0.0005913	53.6570000648
1120.0	0.0005908	53.6879999638
1120.0	0.0005905	53.7349998951
1120.0	0.0005905	53.7820000648
1120.0	0.0005905	53.8289999962
1120.0	0.0005908	53.8599998951
1120.0	0.0005908	53.9070000648
1120.0	0.0005908	53.9379999638
1120.0	0.0005913	53.9849998951
1120.0	0.0005913	54.0320000648
1120.0	0.0005908	54.0629999638
1120.0	0.0005913	54.1099998951
1120.0	0.0005913	54.1570000648
1120.0	0.0005908	54.1879999638
1120.0	0.0005908	54.2349998951
1120.0	0.0005913	54.2660000324
1120.0	0.0005913	54.3129999638
1120.0	0.0005915	54.3599998951
1120.0	0.0005918	54.3910000324
1120.0	0.000592	54.4379999638
1130.0	0.0005913	54.7189998627
1130.0	0.0005905	54.75
1130.0	0.0005903	54.7969999313
1130.0	0.00059	54.8289999962
1130.0	0.0005895	54.875
1130.0	0.00059	54.9219999313
1130.0	0.0005893	54.9689998627
1130.0	0.0005895	55.0
1130.0	0.00059	55.0469999313
1130.0	0.0005895	55.0939998627
1130.0	0.0005895	55.125
1130.0	0.0005893	55.1719999313
1130.0	0.000589	55.2039999962
1130.0	0.0005893	55.25
1130.0	0.0005893	55.2969999313
1130.0	0.0005893	55.3289999962
1130.0	0.0005895	55.375
1130.0	0.0005895	55.4219999313
1130.0	0.0005895	55.4539999962
1130.0	0.000589	55.5
1130.0	0.000589	55.5320000648
1130.0	0.000589	55.5789999962
1130.0	0.0005888	55.625
1130.0	0.000589	55.6570000648
1130.0	0.0005895	55.7039999962
1130.0	0.0005895	55.75
1130.0	0.00059	55.7820000648
1130.0	0.0005903	55.8289999962
1130.0	0.00059	55.8599998951
1130.0	0.0005905	55.9070000648
1130.0	0.0005905	55.9539999962
1130.0	0.0005905	56.0
1130.0	0.0005913	56.0320000648
1130.0	0.0005913	56.0789999962
1130.0	0.0005913	56.125
1130.0	0.0005913	56.1570000648
1130.0	0.0005913	56.2039999962
1140.0	0.0005875	56.4689998627
1140.0	0.0005868	56.5160000324
1140.0	0.0005865	56.5629999638
1140.0	0.0005858	56.6099998951
1140.0	0.0005855	56.6410000324
1140.0	0.000585	56.6879999638
1140.0	0.0005845	56.7189998627
1140.0	0.000584	56.7660000324
1140.0	0.0005843	56.8129999638
1140.0	0.0005843	56.8599998951
1140.0	0.0005843	56.8910000324
1140.0	0.0005845	56.9379999638
1140.0	0.0005845	56.9689998627
1140.0	0.000585	57.0160000324
1140.0	0.000585	57.0629999638
1140.0	0.000585	57.0939998627
1140.0	0.000585	57.1410000324
1140.0	0.0005853	57.1879999638
1140.0	0.0005853	57.2189998627
1140.0	0.000585	57.2660000324
1140.0	0.0005853	57.2969999313
1140.0	0.0005853	57.3439998627
1140.0	0.0005855	57.3910000324
1140.0	0.0005855	57.4219999313
1140.0	0.0005855	57.4689998627
1140.0	0.0005863	57.5160000324
1140.0	0.0005863	57.5469999313
1140.0	0.0005865	57.5939998627
1140.0	0.0005868	57.6410000324
1140.0	0.0005868	57.6719999313
1140.0	0.0005868	57.7189998627
1140.0	0.0005868	57.75
1140.0	0.0005865	57.7969999313
1140.0	0.0005863	57.8439998627
1140.0	0.0005863	57.875
1140.0	0.0005863	57.9219999313
1140.0	0.0005858	57.9689998627
1150.0	0.0005833	58.2189998627
1150.0	0.0005825	58.2660000324
1150.0	0.0005813	58.3129999638
1150.0	0.0005803	58.3439998627
1150.0	0.00058	58.3910000324
1150.0	0.0005793	58.4379999638
1150.0	0.000579	58.4689998627
1150.0	0.0005788	58.5160000324
1150.0	0.000578	58.5629999638
1150.0	0.0005778	58.6099998951
1150.0	0.0005778	58.6410000324
1150.0	0.0005778	58.6879999638
1150.0	0.000578	58.7189998627
1150.0	0.000578	58.7660000324
1150.0	0.000578	58.8129999638
1150.0	0.0005783	58.8439998627
1150.0	0.0005783	58.8910000324
1150.0	0.0005783	58.9379999638
1150.0	0.0005783	58.9689998627
1150.0	0.0005788	59.0160000324
1150.0	0.0005788	59.0629999638
1150.0	0.0005788	59.0939998627
1150.0	0.0005788	59.1410000324
1150.0	0.000579	59.1719999313
1150.0	0.000579	59.2189998627
1150.0	0.0005788	59.2660000324
1150.0	0.0005788	59.2969999313
1150.0	0.0005788	59.3439998627
1150.0	0.0005788	59.3910000324
1150.0	0.000579	59.4219999313
1150.0	0.000579	59.4689998627
1150.0	0.000579	59.5
1150.0	0.0005788	59.5469999313
1150.0	0.0005783	59.5939998627
1150.0	0.0005783	59.625
1150.0	0.0005783	59.6719999313
1150.0	0.0005783	59.7189998627
1160.0	0.0005753	59.9849998951
1160.0	0.0005738	60.0160000324
1160.0	0.000573	60.0629999638
1160.0	0.000572	60.1099998951
1160.0	0.0005715	60.1410000324
1160.0	0.0005715	60.1879999638
1160.0	0.0005713	60.2349998951
1160.0	0.0005705	60.2660000324
1160.0	0.0005705	60.3129999638
1160.0	0.0005703	60.3599998951
1160.0	0.0005703	60.3910000324
1160.0	0.00057	60.4379999638
1160.0	0.0005695	60.4689998627
1160.0	0.0005695	60.5160000324
1160.0	0.0005693	60.5629999638
1160.0	0.000569	60.5939998627
1160.0	0.0005693	60.6410000324
1160.0	0.000569	60.6879999638
1160.0	0.000569	60.7189998627
1160.0	0.000569	60.7660000324
1160.0	0.000569	60.7969999313
1160.0	0.0005693	60.8439998627
1160.0	0.0005695	60.8910000324
1160.0	0.0005693	60.9219999313
1160.0	0.0005693	60.9689998627
1160.0	0.0005693	61.0160000324
1160.0	0.0005693	61.0469999313
1160.0	0.0005695	61.0939998627
1160.0	0.0005693	61.1410000324
1160.0	0.0005695	61.1719999313
1160.0	0.00057	61.2189998627
1160.0	0.00057	61.25
1160.0	0.0005703	61.2969999313
1160.0	0.0005703	61.3439998627
1160.0	0.0005695	61.375
1160.0	0.00057	61.4219999313
1160.0	0.0005693	61.4539999962
1170.0	0.0005653	61.7189998627
1170.0	0.0005643	61.7660000324
1170.0	0.0005638	61.7969999313
1170.0	0.0005625	61.8439998627
1170.0	0.000562	61.8910000324
1170.0	0.0005615	61.9219999313
1170.0	0.0005608	61.9689998627
1170.0	0.0005608	62.0
1170.0	0.0005603	62.0469999313
1170.0	0.0005603	62.0939998627
1170.0	0.0005603	62.125
1170.0	0.00056	62.1719999313
1170.0	0.00056	62.2189998627
1170.0	0.00056	62.25
1170.0	0.0005603	62.2969999313
1170.0	0.0005605	62.3289999962
1170.0	0.0005605	62.375
1170.0	0.0005605	62.4219999313
1170.0	0.0005605	62.4539999962
1170.0	0.00056	62.5
1170.0	0.00056	62.5469999313
1170.0	0.00056	62.5789999962
1170.0	0.0005595	62.625
1170.0	0.0005595	62.6719999313
1170.0	0.0005593	62.7039999962
1170.0	0.000559	62.75
1170.0	0.000559	62.7820000648
1170.0	0.0005593	62.8289999962
1170.0	0.0005593	62.875
1170.0	0.0005593	62.9070000648
1170.0	0.0005593	62.9539999962
1170.0	0.0005595	63.0
1170.0	0.00056	63.0320000648
1170.0	0.0005595	63.0789999962
1170.0	0.0005593	63.125
1170.0	0.000559	63.1570000648
1170.0	0.0005593	63.2039999962
1180.0	0.0005565	63.4539999962
1180.0	0.000555	63.5
1180.0	0.000554	63.5469999313
1180.0	0.000553	63.5939998627
1180.0	0.0005528	63.625
1180.0	0.0005525	63.6719999313
1180.0	0.0005525	63.7189998627
1180.0	0.0005525	63.75
1180.0	0.0005525	63.7969999313
1180.0	0.000552	63.8289999962
1180.0	0.0005518	63.875
1180.0	0.0005518	63.9219999313
1180.0	0.0005518	63.9539999962
1180.0	0.0005515	64.0
1180.0	0.0005515	64.0469999313
1180.0	0.0005513	64.0789999962
1180.0	0.0005508	64.125
1180.0	0.0005508	64.1570000648
1180.0	0.0005505	64.2039999962
1180.0	0.0005508	64.25
1180.0	0.0005505	64.2820000648
1180.0	0.0005508	64.3289999962
1180.0	0.0005513	64.375
1180.0	0.0005513	64.4070000648
1180.0	0.0005513	64.4539999962
1180.0	0.0005508	64.5
1180.0	0.0005508	64.5320000648
1180.0	0.0005513	64.5789999962
1180.0	0.0005513	64.625
1180.0	0.0005513	64.6570000648
1180.0	0.0005515	64.7039999962
1180.0	0.0005513	64.75
1180.0	0.0005513	64.7820000648
1180.0	0.0005513	64.8289999962
1180.0	0.0005508	64.8599998951
1180.0	0.0005508	64.9070000648
1180.0	0.0005508	64.9539999962
1190.0	0.0005488	65.2039999962
1190.0	0.0005478	65.25
1190.0	0.0005475	65.2820000648
1190.0	0.0005468	65.3289999962
1190.0	0.0005468	65.375
1190.0	0.0005463	65.4070000648
1190.0	0.0005458	65.4539999962
1190.0	0.0005455	65.5
1190.0	0.0005453	65.5320000648
1190.0	0.000545	65.5789999962
1190.0	0.000545	65.625
1190.0	0.0005445	65.6570000648
1190.0	0.0005445	65.7039999962
1190.0	0.0005445	65.7349998951
1190.0	0.0005443	65.7820000648
1190.0	0.0005443	65.8289999962
1190.0	0.0005443	65.8599998951
1190.0	0.0005443	65.9070000648
1190.0	0.0005443	65.9539999962
1190.0	0.0005445	65.9849998951
1190.0	0.000545	66.0320000648
1190.0	0.000545	66.0629999638
1190.0	0.000545	66.1099998951
1190.0	0.000545	66.1570000648
1190.0	0.0005453	66.1879999638
1190.0	0.0005453	66.2349998951
1190.0	0.0005455	66.2820000648
1190.0	0.000545	66.3129999638
1190.0	0.0005445	66.3599998951
1190.0	0.000545	66.3910000324
1190.0	0.0005445	66.4379999638
1190.0	0.000545	66.4849998951
1190.0	0.000545	66.5160000324
1190.0	0.0005453	66.5629999638
1190.0	0.0005455	66.6099998951
1190.0	0.0005455	66.6410000324
1190.0	0.0005455	66.6879999638
1200.0	0.0005433	66.9379999638
1200.0	0.0005428	66.9849998951
1200.0	0.000542	67.0320000648
1200.0	0.0005415	67.0629999638
1200.0	0.0005413	67.1099998951
1200.0	0.0005408	67.1570000648
1200.0	0.0005405	67.1879999638
1200.0	0.0005403	67.2349998951
1200.0	0.0005403	67.2660000324
1200.0	0.00054	67.3129999638
1200.0	0.00054	67.3599998951
1200.0	0.00054	67.3910000324
1200.0	0.00054	67.4379999638
1200.0	0.0005395	67.4849998951
1200.0	0.00054	67.5160000324
1200.0	0.0005403	67.5629999638
1200.0	0.0005403	67.5939998627
1200.0	0.0005405	67.6410000324
1200.0	0.0005403	67.6879999638
1200.0	0.0005403	67.7189998627
1200.0	0.0005403	67.7660000324
1200.0	0.0005403	67.8129999638
1200.0	0.0005403	67.8439998627
1200.0	0.00054	67.8910000324
1200.0	0.0005395	67.9379999638
1200.0	0.0005403	67.9689998627
1200.0	0.00054	68.0160000324
1200.0	0.0005403	68.0469999313
1200.0	0.0005408	68.0939998627
1200.0	0.0005405	68.1410000324
1200.0	0.0005405	68.1719999313
1200.0	0.0005405	68.2189998627
1200.0	0.0005403	68.2660000324
1200.0	0.0005405	68.2969999313
1200.0	0.0005405	68.3439998627
1200.0	0.0005408	68.375
1200.0	0.0005413	68.4219999313
1210.0	0.0005403	68.6879999638
1210.0	0.00054	68.7349998951
1210.0	0.00054	68.7660000324
1210.0	0.00054	68.8129999638
1210.0	0.00054	68.8439998627
1210.0	0.0005395	68.8910000324
1210.0	0.0005393	68.9379999638
1210.0	0.0005393	68.9689998627
1210.0	0.0005393	69.0160000324
1210.0	0.0005393	69.0629999638
1210.0	0.0005393	69.0939998627
1210.0	0.0005395	69.1410000324
1210.0	0.00054	69.1719999313
1210.0	0.0005403	69.2189998627
1210.0	0.0005403	69.2660000324
1210.0	0.0005403	69.2969999313
1210.0	0.0005408	69.3439998627
1210.0	0.0005405	69.3910000324
1210.0	0.0005405	69.4219999313
1210.0	0.0005403	69.4689998627
1210.0	0.0005403	69.5
1210.0	0.0005405	69.5469999313
1210.0	0.0005405	69.5939998627
1210.0	0.0005408	69.625
1210.0	0.0005408	69.6719999313
1210.0	0.0005408	69.7189998627
1210.0	0.0005408	69.75
1210.0	0.0005413	69.7969999313
1210.0	0.0005408	69.8289999962
1210.0	0.0005408	69.875
1210.0	0.0005408	69.9219999313
1210.0	0.0005405	69.9539999962
1210.0	0.0005405	70.0
1210.0	0.00054	70.0469999313
1210.0	0.00054	70.0789999962
1210.0	0.00054	70.125
1210.0	0.00054	70.1719999313
1220.0	0.0005413	70.4379999638
1220.0	0.0005418	70.4689998627
1220.0	0.0005425	70.5160000324
1220.0	0.0005433	70.5469999313
1220.0	0.0005433	70.5939998627
1220.0	0.0005433	70.6410000324
1220.0	0.0005433	70.6719999313
1220.0	0.0005438	70.7189998627
1220.0	0.0005438	70.7660000324
1220.0	0.0005438	70.7969999313
1220.0	0.0005438	70.8439998627
1220.0	0.0005438	70.8910000324
1220.0	0.0005438	70.9219999313
1220.0	0.0005438	70.9689998627
1220.0	0.000544	71.0
1220.0	0.0005438	71.0469999313
1220.0	0.000544	71.0939998627
1220.0	0.0005443	71.125
1220.0	0.0005443	71.1719999313
1220.0	0.0005443	71.2039999962
1220.0	0.000544	71.25
1220.0	0.000544	71.2969999313
1220.0	0.0005445	71.3289999962
1220.0	0.0005445	71.375
1220.0	0.0005443	71.4219999313
1220.0	0.000544	71.4539999962
1220.0	0.0005438	71.5
1220.0	0.0005433	71.5469999313
1220.0	0.0005438	71.5789999962
1220.0	0.0005433	71.625
1220.0	0.0005438	71.6570000648
1220.0	0.0005438	71.7039999962
1220.0	0.000544	71.75
1220.0	0.0005443	71.7820000648
1220.0	0.0005445	71.8289999962
1220.0	0.0005445	71.875
1220.0	0.000545	71.9070000648
1230.0	0.0005463	72.1879999638
1230.0	0.0005475	72.2189998627
1230.0	0.0005483	72.2660000324
1230.0	0.000549	72.2969999313
1230.0	0.0005495	72.3439998627
1230.0	0.00055	72.3910000324
1230.0	0.0005503	72.4219999313
1230.0	0.0005505	72.4689998627
1230.0	0.0005508	72.5160000324
1230.0	0.0005513	72.5469999313
1230.0	0.0005513	72.5939998627
1230.0	0.0005515	72.6410000324
1230.0	0.0005518	72.6719999313
1230.0	0.0005518	72.7189998627
1230.0	0.0005518	72.75
1230.0	0.000552	72.7969999313
1230.0	0.000552	72.8439998627
1230.0	0.000552	72.875
1230.0	0.000552	72.9219999313
1230.0	0.0005518	72.9539999962
1230.0	0.0005518	73.0
1230.0	0.000552	73.0469999313
1230.0	0.000552	73.0789999962
1230.0	0.000552	73.125
1230.0	0.000552	73.1719999313
1230.0	0.000552	73.2039999962
1230.0	0.0005518	73.25
1230.0	0.0005518	73.2969999313
1230.0	0.0005518	73.3289999962
1230.0	0.0005515	73.375
1230.0	0.0005513	73.4070000648
1230.0	0.0005513	73.4539999962
1230.0	0.0005513	73.5
1230.0	0.0005513	73.5320000648
1230.0	0.0005515	73.5789999962
1230.0	0.0005518	73.625
1230.0	0.000552	73.6570000648
1240.0	0.0005563	73.9379999638
1240.0	0.0005575	73.9689998627
1240.0	0.0005588	74.0160000324
1240.0	0.00056	74.0469999313
1240.0	0.0005605	74.0939998627
1240.0	0.0005615	74.1410000324
1240.0	0.0005618	74.1719999313
1240.0	0.0005625	74.2189998627
1240.0	0.0005625	74.2660000324
1240.0	0.0005625	74.2969999313
1240.0	0.000562	74.3439998627
1240.0	0.0005628	74.3910000324
1240.0	0.0005628	74.4219999313
1240.0	0.000563	74.4689998627
1240.0	0.0005633	74.5
1240.0	0.000563	74.5469999313
1240.0	0.0005628	74.5939998627
1240.0	0.0005625	74.625
1240.0	0.0005625	74.6719999313
1240.0	0.0005625	74.7039999962
1240.0	0.0005625	74.75
1240.0	0.0005628	74.7969999313
1240.0	0.0005628	74.8289999962
1240.0	0.0005628	74.875
1240.0	0.000563	74.9219999313
1240.0	0.000563	74.9539999962
1240.0	0.0005628	75.0
1240.0	0.0005628	75.0469999313
1240.0	0.0005625	75.0789999962
1240.0	0.0005628	75.125
1240.0	0.000563	75.1570000648
1240.0	0.000563	75.2039999962
1240.0	0.000563	75.25
1240.0	0.000563	75.2820000648
1240.0	0.000563	75.3289999962
1240.0	0.0005633	75.375
1240.0	0.0005638	75.4070000648
1250.0	0.0005683	75.6879999638
1250.0	0.0005703	75.7189998627
1250.0	0.0005718	75.7660000324
1250.0	0.0005738	75.7969999313
1250.0	0.0005745	75.8439998627
1250.0	0.0005753	75.8910000324
1250.0	0.0005758	75.9219999313
1250.0	0.0005763	75.9689998627
1250.0	0.0005765	76.0160000324
1250.0	0.0005768	76.0469999313
1250.0	0.000577	76.0939998627
1250.0	0.0005768	76.125
1250.0	0.000577	76.1719999313
1250.0	0.000577	76.2189998627
1250.0	0.000577	76.25
1250.0	0.0005775	76.2969999313
1250.0	0.0005775	76.3439998627
1250.0	0.0005778	76.375
1250.0	0.000578	76.4219999313
1250.0	0.0005783	76.4539999962
1250.0	0.0005788	76.5
1250.0	0.0005793	76.5469999313
1250.0	0.000579	76.5789999962
1250.0	0.000579	76.625
1250.0	0.000579	76.6719999313
1250.0	0.0005788	76.7039999962
1250.0	0.0005788	76.75
1250.0	0.0005783	76.7820000648
1250.0	0.0005788	76.8289999962
1250.0	0.000579	76.875
1250.0	0.0005788	76.9070000648
1250.0	0.0005788	76.9539999962
1250.0	0.0005788	77.0
1250.0	0.0005783	77.0320000648
1250.0	0.0005788	77.0789999962
1250.0	0.0005788	77.125
1250.0	0.000579	77.1570000648
1260.0	0.0005855	77.4379999638
1260.0	0.000588	77.4689998627
1260.0	0.0005903	77.5160000324
1260.0	0.0005918	77.5469999313
1260.0	0.000593	77.5939998627
1260.0	0.000594	77.6410000324
1260.0	0.0005945	77.6719999313
1260.0	0.0005953	77.7189998627
1260.0	0.0005958	77.7660000324
1260.0	0.0005958	77.7969999313
1260.0	0.0005963	77.8439998627
1260.0	0.0005965	77.8910000324
1260.0	0.0005965	77.9219999313
1260.0	0.0005968	77.9689998627
1260.0	0.0005968	78.0160000324
1260.0	0.0005975	78.0469999313
1260.0	0.0005978	78.0939998627
1260.0	0.000598	78.125
1260.0	0.000598	78.1719999313
1260.0	0.0005988	78.2189998627
1260.0	0.0005988	78.25
1260.0	0.0005988	78.2969999313
1260.0	0.0005988	78.3439998627
1260.0	0.000599	78.375
1260.0	0.0005993	78.4219999313
1260.0	0.0005993	78.4539999962
1260.0	0.0005993	78.5
1260.0	0.0005993	78.5469999313
1260.0	0.000599	78.5789999962
1260.0	0.000599	78.625
1260.0	0.000599	78.6719999313
1260.0	0.0005988	78.7039999962
1260.0	0.0005993	78.75
1260.0	0.0005995	78.7820000648
1260.0	0.0006	78.8289999962
1260.0	0.0006	78.875
1260.0	0.0006	78.9070000648
1270.0	0.0006053	79.1879999638
1270.0	0.000607	79.2189998627
1270.0	0.0006088	79.2660000324
1270.0	0.0006105	79.2969999313
1270.0	0.000612	79.3439998627
1270.0	0.000613	79.3910000324
1270.0	0.0006138	79.4219999313
1270.0	0.0006143	79.4689998627
1270.0	0.0006145	79.5160000324
1270.0	0.0006155	79.5469999313
1270.0	0.0006155	79.5939998627
1270.0	0.0006158	79.625
1270.0	0.0006163	79.6719999313
1270.0	0.0006158	79.7189998627
1270.0	0.0006163	79.75
1270.0	0.0006163	79.7969999313
1270.0	0.0006158	79.8439998627
1270.0	0.0006163	79.875
1270.0	0.0006158	79.9219999313
1270.0	0.0006155	79.9539999962
1270.0	0.0006153	80.0
1270.0	0.0006153	80.0469999313
1270.0	0.000615	80.0789999962
1270.0	0.000615	80.125
1270.0	0.000615	80.1719999313
1270.0	0.000615	80.2039999962
1270.0	0.000615	80.25
1270.0	0.000615	80.2820000648
1270.0	0.0006153	80.3289999962
1270.0	0.0006153	80.375
1270.0	0.0006153	80.4070000648
1270.0	0.0006153	80.4539999962
1270.0	0.000615	80.5
1270.0	0.0006145	80.5320000648
1270.0	0.0006145	80.5789999962
1270.0	0.0006143	80.6099998951
1270.0	0.000614	80.6570000648
1280.0	0.0006188	80.9219999313
1280.0	0.0006205	80.9689998627
1280.0	0.0006225	81.0160000324
1280.0	0.0006238	81.0469999313
1280.0	0.000625	81.0939998627
1280.0	0.0006258	81.125
1280.0	0.0006263	81.1719999313
1280.0	0.0006268	81.2189998627
1280.0	0.0006275	81.25
1280.0	0.0006275	81.2969999313
1280.0	0.0006278	81.3289999962
1280.0	0.0006278	81.375
1280.0	0.0006278	81.4219999313
1280.0	0.000628	81.4539999962
1280.0	0.0006278	81.5
1280.0	0.0006275	81.5469999313
1280.0	0.0006275	81.5789999962
1280.0	0.0006275	81.625
1280.0	0.0006275	81.6719999313
1280.0	0.000627	81.7039999962
1280.0	0.000627	81.75
1280.0	0.000627	81.7820000648
1280.0	0.000627	81.8289999962
1280.0	0.000627	81.875
1280.0	0.0006275	81.9070000648
1280.0	0.000627	81.9539999962
1280.0	0.000627	82.0
1280.0	0.000627	82.0320000648
1280.0	0.0006268	82.0789999962
1280.0	0.0006268	82.1099998951
1280.0	0.000627	82.1570000648
1280.0	0.0006275	82.2039999962
1280.0	0.0006275	82.2349998951
1280.0	0.0006275	82.2820000648
1280.0	0.0006275	82.3289999962
1280.0	0.0006278	82.3599998951
1280.0	0.0006278	82.4070000648
1290.0	0.000632	82.6719999313
1290.0	0.0006338	82.7189998627
1290.0	0.0006345	82.75
1290.0	0.0006358	82.7969999313
1290.0	0.0006365	82.8289999962
1290.0	0.0006368	82.875
1290.0	0.000637	82.9219999313
1290.0	0.000637	82.9539999962
1290.0	0.0006368	83.0
1290.0	0.000637	83.0469999313
1290.0	0.000637	83.0789999962
1290.0	0.000637	83.125
1290.0	0.0006375	83.1570000648
1290.0	0.0006375	83.2039999962
1290.0	0.0006378	83.25
1290.0	0.0006378	83.2820000648
1290.0	0.0006375	83.3289999962
1290.0	0.0006375	83.375
1290.0	0.0006378	83.4070000648
1290.0	0.0006378	83.4539999962
1290.0	0.0006383	83.4849998951
1290.0	0.0006388	83.5320000648
1290.0	0.0006388	83.5789999962
1290.0	0.0006393	83.6099998951
1290.0	0.0006388	83.6570000648
1290.0	0.000639	83.7039999962
1290.0	0.000639	83.7349998951
1290.0	0.000639	83.7820000648
1290.0	0.0006393	83.8289999962
1290.0	0.0006393	83.8599998951
1290.0	0.0006393	83.9070000648
1290.0	0.0006393	83.9379999638
1290.0	0.000639	83.9849998951
1290.0	0.000639	84.0320000648
1290.0	0.000639	84.0629999638
1290.0	0.0006388	84.1099998951
1290.0	0.0006388	84.1570000648
1300.0	0.0006405	84.4219999313
1300.0	0.000641	84.4539999962
1300.0	0.0006415	84.5
1300.0	0.0006418	84.5469999313
1300.0	0.0006423	84.5789999962
1300.0	0.0006425	84.625
1300.0	0.0006425	84.6570000648
1300.0	0.000643	84.7039999962
1300.0	0.0006438	84.75
1300.0	0.000644	84.7820000648
1300.0	0.000644	84.8289999962
1300.0	0.000644	84.875
1300.0	0.0006438	84.9070000648
1300.0	0.0006435	84.9539999962
1300.0	0.000643	84.9849998951
1300.0	0.0006428	85.0320000648
1300.0	0.000643	85.0789999962
1300.0	0.0006428	85.1099998951
1300.0	0.0006428	85.1570000648
1300.0	0.000643	85.2039999962
1300.0	0.000643	85.2349998951
1300.0	0.000643	85.2820000648
1300.0	0.000643	85.3129999638
1300.0	0.000643	85.3599998951
1300.0	0.000643	85.4070000648
1300.0	0.0006428	85.4379999638
1300.0	0.0006428	85.4849998951
1300.0	0.0006428	85.5320000648
1300.0	0.0006428	85.5789999962
1300.0	0.0006428	85.6099998951
1300.0	0.0006425	85.6570000648
1300.0	0.0006423	85.6879999638
1300.0	0.0006425	85.7349998951
1300.0	0.0006423	85.7820000648
1300.0	0.0006423	85.8129999638
1300.0	0.0006423	85.8599998951
1300.0	0.0006423	85.9070000648
1310.0	0.0006415	86.1570000648
1310.0	0.0006418	86.2039999962
1310.0	0.0006413	86.25
1310.0	0.000641	86.2820000648
1310.0	0.0006405	86.3289999962
1310.0	0.0006403	86.375
1310.0	0.0006403	86.4070000648
1310.0	0.0006403	86.4539999962
1310.0	0.00064	86.4849998951
1310.0	0.0006398	86.5320000648
1310.0	0.0006395	86.5789999962
1310.0	0.0006395	86.6099998951
1310.0	0.0006395	86.6570000648
1310.0	0.0006393	86.7039999962
1310.0	0.0006395	86.7349998951
1310.0	0.0006393	86.7820000648
1310.0	0.0006393	86.8129999638
1310.0	0.0006393	86.8599998951
1310.0	0.0006393	86.9070000648
1310.0	0.000639	86.9379999638
1310.0	0.000639	86.9849998951
1310.0	0.000639	87.0320000648
1310.0	0.000639	87.0629999638
1310.0	0.000639	87.1099998951
1310.0	0.000639	87.1410000324
1310.0	0.0006393	87.1879999638
1310.0	0.0006393	87.2349998951
1310.0	0.0006395	87.2660000324
1310.0	0.0006395	87.3129999638
1310.0	0.0006395	87.3599998951
1310.0	0.0006395	87.3910000324
1310.0	0.0006395	87.4379999638
1310.0	0.0006393	87.4689998627
1310.0	0.0006395	87.5160000324
1310.0	0.0006395	87.5629999638
1310.0	0.000639	87.5939998627
1310.0	0.000639	87.6410000324
1320.0	0.0006363	87.9070000648
1320.0	0.0006345	87.9379999638
1320.0	0.000634	87.9849998951
1320.0	0.000633	88.0320000648
1320.0	0.0006325	88.0629999638
1320.0	0.0006318	88.1099998951
1320.0	0.0006313	88.1570000648
1320.0	0.0006305	88.1879999638
1320.0	0.0006303	88.2349998951
1320.0	0.0006295	88.2820000648
1320.0	0.0006295	88.3129999638
1320.0	0.0006295	88.3599998951
1320.0	0.0006293	88.3910000324
1320.0	0.0006293	88.4379999638
1320.0	0.0006295	88.4849998951
1320.0	0.0006295	88.5160000324
1320.0	0.00063	88.5629999638
1320.0	0.0006295	88.5939998627
1320.0	0.0006295	88.6410000324
1320.0	0.0006293	88.6879999638
1320.0	0.000629	88.7189998627
1320.0	0.0006293	88.7660000324
1320.0	0.0006293	88.8129999638
1320.0	0.0006293	88.8439998627
1320.0	0.00063	88.8910000324
1320.0	0.0006303	88.9379999638
1320.0	0.0006303	88.9689998627
1320.0	0.0006305	89.0160000324
1320.0	0.0006303	89.0469999313
1320.0	0.0006303	89.0939998627
1320.0	0.00063	89.1410000324
1320.0	0.00063	89.1719999313
1320.0	0.0006303	89.2189998627
1320.0	0.0006305	89.25
1320.0	0.0006308	89.2969999313
1320.0	0.0006308	89.3439998627
1320.0	0.0006305	89.375
1330.0	0.0006255	89.6410000324
1330.0	0.000623	89.6879999638
1330.0	0.0006208	89.7189998627
1330.0	0.0006188	89.7660000324
1330.0	0.0006175	89.8129999638
1330.0	0.0006165	89.8439998627
1330.0	0.0006158	89.8910000324
1330.0	0.0006153	89.9219999313
1330.0	0.0006145	89.9689998627
1330.0	0.0006145	90.0160000324
1330.0	0.0006143	90.0469999313
1330.0	0.0006143	90.0939998627
1330.0	0.000614	90.1410000324
1330.0	0.0006138	90.1719999313
1330.0	0.0006138	90.2189998627
1330.0	0.0006138	90.25
1330.0	0.0006138	90.2969999313
1330.0	0.0006133	90.3439998627
1330.0	0.000613	90.375
1330.0	0.0006128	90.4219999313
1330.0	0.0006128	90.4689998627
1330.0	0.0006128	90.5
1330.0	0.0006128	90.5469999313
1330.0	0.000613	90.5789999962
1330.0	0.0006133	90.625
1330.0	0.0006138	90.6719999313
1330.0	0.0006143	90.7039999962
1330.0	0.000614	90.75
1330.0	0.0006143	90.7969999313
1330.0	0.000614	90.8289999962
1330.0	0.000614	90.875
1330.0	0.000614	90.9070000648
1330.0	0.000614	90.9539999962
1330.0	0.0006138	91.0
1330.0	0.000614	91.0320000648
1330.0	0.0006138	91.0789999962
1330.0	0.0006138	91.125
1340.0	0.0006053	91.375
1340.0	0.0006015	91.4219999313
1340.0	0.000599	91.4539999962
1340.0	0.0005963	91.5
1340.0	0.000594	91.5469999313
1340.0	0.0005925	91.5939998627
1340.0	0.0005913	91.625
1340.0	0.0005903	91.6719999313
1340.0	0.00059	91.7039999962
1340.0	0.0005893	91.75
1340.0	0.0005893	91.7969999313
1340.0	0.000589	91.8289999962
1340.0	0.0005888	91.875
1340.0	0.000589	91.9219999313
1340.0	0.000589	91.9539999962
1340.0	0.000589	92.0
1340.0	0.000589	92.0469999313
1340.0	0.000589	92.0789999962
1340.0	0.000589	92.125
1340.0	0.0005888	92.1570000648
1340.0	0.0005888	92.2039999962
1340.0	0.0005888	92.25
1340.0	0.000589	92.2820000648
1340.0	0.0005888	92.3289999962
1340.0	0.0005883	92.375
1340.0	0.000588	92.4070000648
1340.0	0.000588	92.4539999962
1340.0	0.000588	92.4849998951
1340.0	0.000588	92.5320000648
1340.0	0.0005878	92.5789999962
1340.0	0.000588	92.6099998951
1340.0	0.000588	92.6570000648
1340.0	0.000588	92.7039999962
1340.0	0.000588	92.7349998951
1340.0	0.000588	92.7820000648
1340.0	0.0005883	92.8289999962
1350.0	0.0005778	93.0939998627
1350.0	0.0005738	93.125
1350.0	0.0005705	93.1719999313
1350.0	0.0005678	93.2039999962
1350.0	0.0005658	93.25
1350.0	0.000564	93.2969999313
1350.0	0.0005625	93.3289999962
1350.0	0.0005613	93.375
1350.0	0.0005605	93.4219999313
1350.0	0.0005595	93.4539999962
1350.0	0.0005593	93.5
1350.0	0.000559	93.5320000648
1350.0	0.0005593	93.5789999962
1350.0	0.0005593	93.625
1350.0	0.000559	93.6570000648
1350.0	0.0005588	93.7039999962
1350.0	0.0005588	93.75
1350.0	0.0005583	93.7820000648
1350.0	0.0005588	93.8289999962
1350.0	0.0005583	93.8599998951
1350.0	0.000558	93.9070000648
1350.0	0.0005583	93.9539999962
1350.0	0.000558	93.9849998951
1350.0	0.0005578	94.0320000648
1350.0	0.000558	94.0789999962
1350.0	0.000558	94.1099998951
1350.0	0.0005583	94.1570000648
1350.0	0.0005583	94.2039999962
1350.0	0.0005583	94.2349998951
1350.0	0.0005583	94.2820000648
1350.0	0.0005583	94.3129999638
1350.0	0.0005583	94.3599998951
1350.0	0.0005588	94.4070000648
1350.0	0.000558	94.4379999638
1350.0	0.000558	94.4849998951
1350.0	0.000558	94.5320000648
1350.0	0.000558	94.5629999638
1360.0	0.000547	94.8289999962
1360.0	0.0005428	94.875
1360.0	0.0005388	94.9070000648
1360.0	0.0005355	94.9539999962
1360.0	0.000533	95.0
1360.0	0.0005313	95.0320000648
1360.0	0.0005295	95.0789999962
1360.0	0.0005283	95.1099998951
1360.0	0.0005275	95.1570000648
1360.0	0.0005268	95.2039999962
1360.0	0.0005265	95.2349998951
1360.0	0.0005263	95.2820000648
1360.0	0.0005263	95.3289999962
1360.0	0.0005258	95.3599998951
1360.0	0.0005258	95.4070000648
1360.0	0.0005255	95.4379999638
1360.0	0.0005255	95.4849998951
1360.0	0.0005255	95.5320000648
1360.0	0.0005258	95.5629999638
1360.0	0.0005258	95.6099998951
1360.0	0.0005263	95.6570000648
1360.0	0.0005258	95.6879999638
1360.0	0.0005263	95.7349998951
1360.0	0.0005263	95.7660000324
1360.0	0.0005258	95.8129999638
1360.0	0.0005258	95.8599998951
1360.0	0.0005255	95.8910000324
1360.0	0.0005253	95.9379999638
1360.0	0.0005253	95.9849998951
1360.0	0.0005253	96.0160000324
1360.0	0.0005253	96.0629999638
1360.0	0.0005258	96.0939998627
1360.0	0.0005263	96.1410000324
1360.0	0.0005265	96.1879999638
1360.0	0.0005265	96.2189998627
1360.0	0.0005258	96.2660000324
1360.0	0.0005258	96.3129999638
1370.0	0.000514	96.5629999638
1370.0	0.000509	96.6099998951
1370.0	0.000505	96.6570000648
1370.0	0.0005018	96.6879999638
1370.0	0.000499	96.7349998951
1370.0	0.0004968	96.7820000648
1370.0	0.0004953	96.8129999638
1370.0	0.0004943	96.8599998951
1370.0	0.0004933	96.8910000324
1370.0	0.0004928	96.9379999638
1370.0	0.0004925	96.9849998951
1370.0	0.000492	97.0160000324
1370.0	0.000492	97.0629999638
1370.0	0.000492	97.1099998951
1370.0	0.0004925	97.1410000324
1370.0	0.0004925	97.1879999638
1370.0	0.0004925	97.2349998951
1370.0	0.000492	97.2660000324
1370.0	0.000492	97.3129999638
1370.0	0.000492	97.3439998627
1370.0	0.0004918	97.3910000324
1370.0	0.0004918	97.4379999638
1370.0	0.0004918	97.4689998627
1370.0	0.000492	97.5160000324
1370.0	0.0004925	97.5629999638
1370.0	0.0004918	97.5939998627
1370.0	0.0004915	97.6410000324
1370.0	0.0004915	97.6719999313
1370.0	0.0004915	97.7189998627
1370.0	0.0004915	97.7660000324
1370.0	0.0004915	97.7969999313
1370.0	0.0004915	97.8439998627
1370.0	0.0004918	97.8910000324
1370.0	0.0004915	97.9219999313
1370.0	0.0004913	97.9689998627
1370.0	0.0004908	98.0
1370.0	0.0004905	98.0469999313
1380.0	0.000479	98.3129999638
1380.0	0.0004745	98.3599998951
1380.0	0.0004708	98.3910000324
1380.0	0.0004678	98.4379999638
1380.0	0.0004653	98.4689998627
1380.0	0.000463	98.5160000324
1380.0	0.0004615	98.5629999638
1380.0	0.00046	98.5939998627
1380.0	0.0004593	98.6410000324
1380.0	0.0004588	98.6879999638
1380.0	0.0004578	98.7189998627
1380.0	0.000457	98.7660000324
1380.0	0.0004568	98.7969999313
1380.0	0.0004563	98.8439998627
1380.0	0.0004563	98.8910000324
1380.0	0.0004563	98.9219999313
1380.0	0.0004563	98.9689998627
1380.0	0.0004565	99.0160000324
1380.0	0.0004565	99.0469999313
1380.0	0.0004565	99.0939998627
1380.0	0.0004565	99.1410000324
1380.0	0.0004563	99.1719999313
1380.0	0.0004563	99.2189998627
1380.0	0.0004565	99.2660000324
1380.0	0.0004565	99.2969999313
1380.0	0.0004565	99.3439998627
1380.0	0.0004565	99.375
1380.0	0.0004568	99.4219999313
1380.0	0.0004568	99.4689998627
1380.0	0.0004568	99.5
1380.0	0.000457	99.5469999313
1380.0	0.000457	99.5939998627
1380.0	0.0004568	99.625
1380.0	0.000457	99.6719999313
1380.0	0.0004565	99.7189998627
1380.0	0.0004563	99.75
1380.0	0.0004565	99.7969999313
1390.0	0.0004445	100.062999964
1390.0	0.00044	100.093999863
1390.0	0.0004363	100.141000032
1390.0	0.0004328	100.187999964
1390.0	0.0004295	100.218999863
1390.0	0.0004275	100.266000032
1390.0	0.0004258	100.312999964
1390.0	0.0004245	100.343999863
1390.0	0.0004238	100.391000032
1390.0	0.000423	100.437999964
1390.0	0.0004228	100.468999863
1390.0	0.000422	100.516000032
1390.0	0.000422	100.546999931
1390.0	0.0004218	100.593999863
1390.0	0.0004218	100.641000032
1390.0	0.0004218	100.671999931
1390.0	0.0004218	100.718999863
1390.0	0.0004218	100.766000032
1390.0	0.0004218	100.796999931
1390.0	0.0004218	100.843999863
1390.0	0.0004218	100.875
1390.0	0.000422	100.921999931
1390.0	0.000422	100.968999863
1390.0	0.000422	101.0
1390.0	0.0004225	101.046999931
1390.0	0.0004225	101.093999863
1390.0	0.0004225	101.125
1390.0	0.0004225	101.171999931
1390.0	0.000422	101.203999996
1390.0	0.000422	101.25
1390.0	0.000422	101.296999931
1390.0	0.0004218	101.328999996
1390.0	0.000422	101.375
1390.0	0.0004218	101.421999931
1390.0	0.0004218	101.453999996
1390.0	0.0004218	101.5
1390.0	0.0004215	101.546999931
1400.0	0.0004113	101.812999964
1400.0	0.0004075	101.843999863
1400.0	0.0004033	101.891000032
1400.0	0.0004003	101.921999931
1400.0	0.0003978	101.968999863
1400.0	0.0003955	102.016000032
1400.0	0.000394	102.046999931
1400.0	0.0003928	102.093999863
1400.0	0.0003918	102.141000032
1400.0	0.0003913	102.171999931
1400.0	0.0003913	102.218999863
1400.0	0.0003913	102.25
1400.0	0.0003913	102.296999931
1400.0	0.0003913	102.343999863
1400.0	0.0003908	102.375
1400.0	0.0003905	102.421999931
1400.0	0.00039	102.468999863
1400.0	0.0003895	102.5
1400.0	0.0003893	102.546999931
1400.0	0.0003895	102.593999863
1400.0	0.0003895	102.625
1400.0	0.00039	102.671999931
1400.0	0.00039	102.718999863
1400.0	0.00039	102.75
1400.0	0.00039	102.796999931
1400.0	0.00039	102.843999863
1400.0	0.00039	102.875
1400.0	0.00039	102.921999931
1400.0	0.00039	102.953999996
1400.0	0.0003893	103.0
1400.0	0.0003893	103.046999931
1400.0	0.0003893	103.078999996
1400.0	0.000389	103.125
1400.0	0.0003893	103.171999931
1400.0	0.0003893	103.203999996
1400.0	0.0003895	103.25
1400.0	0.0003895	103.296999931
1410.0	0.000379	103.562999964
1410.0	0.000375	103.593999863
1410.0	0.0003718	103.641000032
1410.0	0.0003693	103.671999931
1410.0	0.000367	103.718999863
1410.0	0.0003655	103.766000032
1410.0	0.0003643	103.796999931
1410.0	0.0003638	103.843999863
1410.0	0.0003633	103.891000032
1410.0	0.000363	103.921999931
1410.0	0.0003633	103.968999863
1410.0	0.000363	104.0
1410.0	0.0003628	104.046999931
1410.0	0.000362	104.093999863
1410.0	0.0003618	104.125
1410.0	0.0003615	104.171999931
1410.0	0.0003615	104.218999863
1410.0	0.0003615	104.25
1410.0	0.0003618	104.296999931
1410.0	0.0003618	104.328999996
1410.0	0.0003615	104.375
1410.0	0.0003618	104.421999931
1410.0	0.0003618	104.453999996
1410.0	0.0003618	104.5
1410.0	0.0003618	104.546999931
1410.0	0.000362	104.578999996
1410.0	0.0003625	104.625
1410.0	0.0003625	104.671999931
1410.0	0.000362	104.703999996
1410.0	0.0003618	104.75
1410.0	0.0003618	104.782000065
1410.0	0.0003615	104.828999996
1410.0	0.0003615	104.875
1410.0	0.0003615	104.921999931
1410.0	0.0003613	104.953999996
1410.0	0.0003613	105.0
1410.0	0.0003608	105.032000065
1420.0	0.0003525	105.312999964
1420.0	0.0003493	105.343999863
1420.0	0.0003465	105.391000032
1420.0	0.0003445	105.437999964
1420.0	0.0003428	105.468999863
1420.0	0.0003413	105.516000032
1420.0	0.0003403	105.562999964
1420.0	0.000339	105.593999863
1420.0	0.0003388	105.641000032
1420.0	0.0003383	105.687999964
1420.0	0.0003378	105.718999863
1420.0	0.000338	105.766000032
1420.0	0.000338	105.796999931
1420.0	0.000338	105.843999863
1420.0	0.0003383	105.891000032
1420.0	0.000338	105.921999931
1420.0	0.0003378	105.968999863
1420.0	0.0003375	106.0
1420.0	0.000337	106.046999931
1420.0	0.000337	106.093999863
1420.0	0.000337	106.125
1420.0	0.0003368	106.171999931
1420.0	0.0003375	106.218999863
1420.0	0.0003375	106.25
1420.0	0.0003375	106.296999931
1420.0	0.0003378	106.343999863
1420.0	0.000338	106.375
1420.0	0.000338	106.421999931
1420.0	0.000338	106.453999996
1420.0	0.0003375	106.5
1420.0	0.0003375	106.546999931
1420.0	0.0003375	106.578999996
1420.0	0.000337	106.625
1420.0	0.0003375	106.671999931
1420.0	0.0003375	106.703999996
1420.0	0.0003375	106.75
1420.0	0.0003378	106.782000065
1430.0	0.0003308	107.062999964
1430.0	0.000328	107.093999863
1430.0	0.0003258	107.141000032
1430.0	0.000324	107.171999931
1430.0	0.000323	107.218999863
1430.0	0.0003225	107.266000032
1430.0	0.0003218	107.296999931
1430.0	0.0003215	107.343999863
1430.0	0.0003213	107.391000032
1430.0	0.0003205	107.421999931
1430.0	0.00032	107.468999863
1430.0	0.0003195	107.5
1430.0	0.0003193	107.546999931
1430.0	0.0003193	107.593999863
1430.0	0.000319	107.625
1430.0	0.000319	107.671999931
1430.0	0.000319	107.718999863
1430.0	0.000319	107.75
1430.0	0.0003193	107.796999931
1430.0	0.0003193	107.828999996
1430.0	0.0003193	107.875
1430.0	0.0003193	107.921999931
1430.0	0.000319	107.953999996
1430.0	0.0003188	108.0
1430.0	0.0003183	108.046999931
1430.0	0.000318	108.078999996
1430.0	0.0003183	108.125
1430.0	0.0003183	108.171999931
1430.0	0.0003188	108.203999996
1430.0	0.0003188	108.25
1430.0	0.000319	108.282000065
1430.0	0.0003193	108.328999996
1430.0	0.0003195	108.375
1430.0	0.0003195	108.407000065
1430.0	0.0003195	108.453999996
1430.0	0.00032	108.5
1430.0	0.0003203	108.532000065
1440.0	0.000315	108.796999931
1440.0	0.0003133	108.843999863
1440.0	0.0003115	108.875
1440.0	0.0003105	108.921999931
1440.0	0.0003095	108.968999863
1440.0	0.000309	109.0
1440.0	0.0003088	109.046999931
1440.0	0.000308	109.093999863
1440.0	0.0003078	109.125
1440.0	0.0003078	109.171999931
1440.0	0.0003075	109.218999863
1440.0	0.0003075	109.25
1440.0	0.000307	109.296999931
1440.0	0.000307	109.328999996
1440.0	0.0003075	109.375
1440.0	0.0003075	109.421999931
1440.0	0.000308	109.453999996
1440.0	0.000308	109.5
1440.0	0.000308	109.546999931
1440.0	0.000308	109.578999996
1440.0	0.0003083	109.625
1440.0	0.000308	109.657000065
1440.0	0.000308	109.703999996
1440.0	0.0003078	109.75
1440.0	0.0003078	109.782000065
1440.0	0.000308	109.828999996
1440.0	0.000308	109.875
1440.0	0.0003078	109.907000065
1440.0	0.0003075	109.953999996
1440.0	0.0003075	109.984999895
1440.0	0.0003075	110.032000065
1440.0	0.0003078	110.078999996
1440.0	0.0003078	110.109999895
1440.0	0.0003078	110.157000065
1440.0	0.000308	110.203999996
1440.0	0.000308	110.234999895
1440.0	0.000308	110.282000065
1450.0	0.0003045	110.546999931
1450.0	0.0003038	110.593999863
1450.0	0.0003028	110.625
1450.0	0.000302	110.671999931
1450.0	0.0003018	110.703999996
1450.0	0.0003015	110.75
1450.0	0.0003013	110.796999931
1450.0	0.0003013	110.828999996
1450.0	0.0003008	110.875
1450.0	0.0003008	110.921999931
1450.0	0.0003008	110.953999996
1450.0	0.0003008	111.0
1450.0	0.0003008	111.046999931
1450.0	0.0003008	111.078999996
1450.0	0.0003008	111.125
1450.0	0.0003013	111.157000065
1450.0	0.0003015	111.203999996
1450.0	0.0003015	111.25
1450.0	0.0003018	111.282000065
1450.0	0.0003015	111.328999996
1450.0	0.0003015	111.375
1450.0	0.0003018	111.407000065
1450.0	0.0003015	111.453999996
1450.0	0.0003013	111.484999895
1450.0	0.0003015	111.532000065
1450.0	0.0003013	111.578999996
1450.0	0.0003015	111.609999895
1450.0	0.0003013	111.657000065
1450.0	0.0003013	111.703999996
1450.0	0.0003013	111.734999895
1450.0	0.0003013	111.782000065
1450.0	0.0003013	111.812999964
1450.0	0.0003013	111.859999895
1450.0	0.0003013	111.907000065
1450.0	0.0003013	111.937999964
1450.0	0.0003013	111.984999895
1450.0	0.0003013	112.032000065
1460.0	0.0002995	112.296999931
1460.0	0.0002993	112.328999996
1460.0	0.0002988	112.375
1460.0	0.0002988	112.421999931
1460.0	0.0002983	112.453999996
1460.0	0.0002983	112.5
1460.0	0.0002988	112.532000065
1460.0	0.0002983	112.578999996
1460.0	0.0002983	112.625
1460.0	0.0002988	112.657000065
1460.0	0.000298	112.703999996
1460.0	0.000298	112.75
1460.0	0.000298	112.782000065
1460.0	0.0002978	112.828999996
1460.0	0.0002975	112.859999895
1460.0	0.0002975	112.907000065
1460.0	0.000298	112.953999996
1460.0	0.000298	112.984999895
1460.0	0.000298	113.032000065
1460.0	0.000298	113.078999996
1460.0	0.000298	113.109999895
1460.0	0.0002978	113.157000065
1460.0	0.0002978	113.203999996
1460.0	0.000298	113.234999895
1460.0	0.000298	113.282000065
1460.0	0.0002983	113.312999964
1460.0	0.0002988	113.359999895
1460.0	0.0002983	113.407000065
1460.0	0.0002988	113.437999964
1460.0	0.0002983	113.484999895
1460.0	0.0002983	113.532000065
1460.0	0.0002983	113.562999964
1460.0	0.0002983	113.609999895
1460.0	0.0002988	113.641000032
1460.0	0.0002983	113.687999964
1460.0	0.000298	113.734999895
1460.0	0.000298	113.766000032
1470.0	0.000298	114.032000065
1470.0	0.000298	114.078999996
1470.0	0.0002983	114.125
1470.0	0.000298	114.157000065
1470.0	0.0002983	114.203999996
1470.0	0.0002988	114.25
1470.0	0.0002988	114.282000065
1470.0	0.0002988	114.328999996
1470.0	0.0002988	114.359999895
1470.0	0.000299	114.407000065
1470.0	0.0002988	114.453999996
1470.0	0.0002988	114.484999895
1470.0	0.0002988	114.532000065
1470.0	0.0002988	114.578999996
1470.0	0.0002988	114.609999895
1470.0	0.0002988	114.657000065
1470.0	0.0002983	114.687999964
1470.0	0.000298	114.734999895
1470.0	0.0002983	114.782000065
1470.0	0.000298	114.812999964
1470.0	0.0002983	114.859999895
1470.0	0.0002983	114.907000065
1470.0	0.000298	114.937999964
1470.0	0.000298	114.984999895
1470.0	0.000298	115.016000032
1470.0	0.000298	115.062999964
1470.0	0.0002983	115.109999895
1470.0	0.0002983	115.141000032
1470.0	0.0002983	115.187999964
1470.0	0.0002988	115.234999895
1470.0	0.0002983	115.266000032
1470.0	0.0002983	115.312999964
1470.0	0.0002983	115.359999895
1470.0	0.0002983	115.391000032
1470.0	0.0002983	115.437999964
1470.0	0.0002988	115.468999863
1470.0	0.0002983	115.516000032
1480.0	0.0002988	115.782000065
1480.0	0.0002988	115.828999996
1480.0	0.000299	115.859999895
1480.0	0.0002993	115.907000065
1480.0	0.0002993	115.953999996
1480.0	0.0002995	115.984999895
1480.0	0.0002995	116.032000065
1480.0	0.0002993	116.078999996
1480.0	0.0002995	116.109999895
1480.0	0.0002995	116.157000065
1480.0	0.0002993	116.187999964
1480.0	0.0002993	116.234999895
1480.0	0.0002993	116.282000065
1480.0	0.0002993	116.312999964
1480.0	0.0003	116.359999895
1480.0	0.0003	116.407000065
1480.0	0.0003	116.437999964
1480.0	0.0003	116.484999895
1480.0	0.0002993	116.532000065
1480.0	0.0002993	116.562999964
1480.0	0.0003	116.609999895
1480.0	0.0003	116.657000065
1480.0	0.0003	116.687999964
1480.0	0.0003	116.734999895
1480.0	0.0003	116.766000032
1480.0	0.0002995	116.812999964
1480.0	0.0002993	116.859999895
1480.0	0.0002993	116.891000032
1480.0	0.0002995	116.937999964
1480.0	0.0002993	116.984999895
1480.0	0.0002995	117.016000032
1480.0	0.0002995	117.062999964
1480.0	0.0002995	117.109999895
1480.0	0.0003003	117.141000032
1480.0	0.0003005	117.187999964
1480.0	0.0003008	117.218999863
1480.0	0.0003013	117.266000032
1490.0	0.0003018	117.532000065
1490.0	0.0003025	117.578999996
1490.0	0.0003028	117.625
1490.0	0.000303	117.657000065
1490.0	0.0003033	117.703999996
1490.0	0.0003038	117.75
1490.0	0.0003038	117.782000065
1490.0	0.0003038	117.828999996
1490.0	0.0003033	117.859999895
1490.0	0.000303	117.907000065
1490.0	0.000303	117.953999996
1490.0	0.0003028	117.984999895
1490.0	0.0003028	118.032000065
1490.0	0.0003028	118.078999996
1490.0	0.0003025	118.109999895
1490.0	0.0003028	118.157000065
1490.0	0.0003028	118.187999964
1490.0	0.0003028	118.234999895
1490.0	0.000303	118.282000065
1490.0	0.000303	118.312999964
1490.0	0.0003033	118.359999895
1490.0	0.000304	118.407000065
1490.0	0.000304	118.437999964
1490.0	0.000304	118.484999895
1490.0	0.0003038	118.516000032
1490.0	0.0003033	118.562999964
1490.0	0.0003038	118.609999895
1490.0	0.0003033	118.641000032
1490.0	0.0003033	118.687999964
1490.0	0.000303	118.734999895
1490.0	0.0003028	118.766000032
1490.0	0.000303	118.812999964
1490.0	0.0003033	118.843999863
1490.0	0.0003038	118.891000032
1490.0	0.000304	118.937999964
1490.0	0.000304	118.968999863
1490.0	0.0003038	119.016000032
1500.0	0.0003045	119.282000065
1500.0	0.000305	119.328999996
1500.0	0.0003053	119.375
1500.0	0.0003058	119.407000065
1500.0	0.0003063	119.453999996
1500.0	0.0003068	119.484999895
1500.0	0.0003068	119.532000065
1500.0	0.0003068	119.578999996
1500.0	0.000307	119.625
1500.0	0.0003068	119.657000065
1500.0	0.0003068	119.703999996
1500.0	0.000307	119.75
1500.0	0.0003068	119.782000065
1500.0	0.000307	119.828999996
1500.0	0.0003068	119.859999895
1500.0	0.0003065	119.907000065
1500.0	0.0003065	119.953999996
1500.0	0.0003068	119.984999895
1500.0	0.000307	120.032000065
1500.0	0.000307	120.078999996
1500.0	0.000307	120.109999895
1500.0	0.0003068	120.157000065
1500.0	0.0003068	120.187999964
1500.0	0.0003068	120.234999895
1500.0	0.0003068	120.282000065
1500.0	0.0003068	120.312999964
1500.0	0.0003065	120.359999895
1500.0	0.000307	120.407000065
1500.0	0.000307	120.437999964
1500.0	0.000307	120.484999895
1500.0	0.0003075	120.516000032
1500.0	0.0003078	120.562999964
1500.0	0.000308	120.609999895
1500.0	0.0003078	120.641000032
1500.0	0.0003075	120.687999964
1500.0	0.0003078	120.734999895
1500.0	0.0003078	120.766000032
1510.0	0.0003083	121.046999931
1510.0	0.000309	121.078999996
1510.0	0.0003093	121.125
1510.0	0.0003095	121.171999931
1510.0	0.0003103	121.203999996
1510.0	0.0003105	121.25
1510.0	0.0003108	121.296999931
1510.0	0.0003108	121.328999996
1510.0	0.0003105	121.375
1510.0	0.0003108	121.421999931
1510.0	0.0003108	121.453999996
1510.0	0.0003105	121.5
1510.0	0.0003105	121.532000065
1510.0	0.0003105	121.578999996
1510.0	0.0003105	121.625
1510.0	0.0003108	121.657000065
1510.0	0.0003113	121.703999996
1510.0	0.0003113	121.75
1510.0	0.0003113	121.782000065
1510.0	0.0003108	121.828999996
1510.0	0.0003108	121.859999895
1510.0	0.0003108	121.907000065
1510.0	0.0003108	121.953999996
1510.0	0.0003113	122.0
1510.0	0.0003113	122.032000065
1510.0	0.0003115	122.078999996
1510.0	0.0003115	122.109999895
1510.0	0.0003113	122.157000065
1510.0	0.0003113	122.203999996
1510.0	0.0003108	122.234999895
1510.0	0.0003108	122.282000065
1510.0	0.0003108	122.328999996
1510.0	0.0003108	122.359999895
1510.0	0.0003108	122.407000065
1510.0	0.0003108	122.453999996
1510.0	0.0003105	122.484999895
1510.0	0.0003108	122.532000065
1520.0	0.000313	122.796999931
1520.0	0.0003133	122.843999863
1520.0	0.000314	122.875
1520.0	0.0003143	122.921999931
1520.0	0.000315	122.968999863
1520.0	0.0003155	123.0
1520.0	0.0003158	123.046999931
1520.0	0.0003163	123.078999996
1520.0	0.0003163	123.125
1520.0	0.0003158	123.171999931
1520.0	0.0003163	123.203999996
1520.0	0.0003163	123.25
1520.0	0.0003158	123.296999931
1520.0	0.0003163	123.328999996
1520.0	0.0003158	123.375
1520.0	0.0003163	123.407000065
1520.0	0.0003165	123.453999996
1520.0	0.0003163	123.5
1520.0	0.0003158	123.532000065
1520.0	0.0003155	123.578999996
1520.0	0.0003155	123.625
1520.0	0.0003155	123.657000065
1520.0	0.0003158	123.703999996
1520.0	0.0003158	123.75
1520.0	0.0003158	123.782000065
1520.0	0.0003158	123.828999996
1520.0	0.0003158	123.859999895
1520.0	0.0003158	123.907000065
1520.0	0.0003158	123.953999996
1520.0	0.0003163	123.984999895
1520.0	0.0003163	124.032000065
1520.0	0.0003163	124.078999996
1520.0	0.0003158	124.109999895
1520.0	0.0003158	124.157000065
1520.0	0.0003158	124.203999996
1520.0	0.0003158	124.234999895
1520.0	0.0003155	124.282000065
1530.0	0.000317	124.562999964
1530.0	0.0003178	124.593999863
1530.0	0.0003178	124.641000032
1530.0	0.0003183	124.671999931
1530.0	0.0003183	124.718999863
1530.0	0.0003188	124.766000032
1530.0	0.0003188	124.796999931
1530.0	0.0003188	124.843999863
1530.0	0.0003188	124.891000032
1530.0	0.0003188	124.921999931
1530.0	0.0003188	124.968999863
1530.0	0.0003188	125.0
1530.0	0.0003193	125.046999931
1530.0	0.0003193	125.093999863
1530.0	0.0003195	125.125
1530.0	0.0003195	125.171999931
1530.0	0.0003195	125.218999863
1530.0	0.0003195	125.25
1530.0	0.0003193	125.296999931
1530.0	0.000319	125.343999863
1530.0	0.0003188	125.375
1530.0	0.0003188	125.421999931
1530.0	0.000319	125.468999863
1530.0	0.000319	125.5
1530.0	0.000319	125.546999931
1530.0	0.000319	125.593999863
1530.0	0.0003193	125.625
1530.0	0.0003193	125.671999931
1530.0	0.0003193	125.703999996
1530.0	0.0003193	125.75
1530.0	0.0003195	125.796999931
1530.0	0.0003193	125.828999996
1530.0	0.0003193	125.875
1530.0	0.0003193	125.921999931
1530.0	0.0003193	125.953999996
1530.0	0.000319	126.0
1530.0	0.0003188	126.046999931
1540.0	0.00032	126.312999964
1540.0	0.0003205	126.359999895
1540.0	0.0003205	126.391000032
1540.0	0.0003205	126.437999964
1540.0	0.0003208	126.484999895
1540.0	0.0003205	126.516000032
1540.0	0.0003205	126.562999964
1540.0	0.0003208	126.609999895
1540.0	0.0003208	126.641000032
1540.0	0.0003208	126.687999964
1540.0	0.0003213	126.718999863
1540.0	0.0003213	126.766000032
1540.0	0.0003213	126.812999964
1540.0	0.0003213	126.843999863
1540.0	0.0003213	126.891000032
1540.0	0.0003215	126.937999964
1540.0	0.0003215	126.968999863
1540.0	0.0003215	127.016000032
1540.0	0.0003215	127.046999931
1540.0	0.0003213	127.093999863
1540.0	0.0003213	127.141000032
1540.0	0.0003213	127.171999931
1540.0	0.0003213	127.218999863
1540.0	0.0003213	127.266000032
1540.0	0.0003213	127.296999931
1540.0	0.0003208	127.343999863
1540.0	0.0003208	127.375
1540.0	0.0003213	127.421999931
1540.0	0.0003213	127.468999863
1540.0	0.0003218	127.5
1540.0	0.0003218	127.546999931
1540.0	0.0003218	127.593999863
1540.0	0.000322	127.625
1540.0	0.0003218	127.671999931
1540.0	0.0003218	127.703999996
1540.0	0.0003218	127.75
1540.0	0.0003215	127.796999931
1550.0	0.0003228	128.062999964
1550.0	0.0003228	128.109999895
1550.0	0.0003228	128.157000065
1550.0	0.0003228	128.187999964
1550.0	0.000323	128.234999895
1550.0	0.000323	128.266000032
1550.0	0.0003228	128.312999964
1550.0	0.0003228	128.359999895
1550.0	0.0003228	128.391000032
1550.0	0.0003225	128.437999964
1550.0	0.0003225	128.484999895
1550.0	0.0003228	128.516000032
1550.0	0.0003225	128.562999964
1550.0	0.0003225	128.609999895
1550.0	0.0003228	128.641000032
1550.0	0.0003225	128.687999964
1550.0	0.0003225	128.718999863
1550.0	0.000322	128.766000032
1550.0	0.0003218	128.812999964
1550.0	0.0003218	128.843999863
1550.0	0.0003218	128.891000032
1550.0	0.0003218	128.937999964
1550.0	0.0003218	128.968999863
1550.0	0.0003218	129.016000032
1550.0	0.000322	129.046999931
1550.0	0.000322	129.093999863
1550.0	0.0003218	129.141000032
1550.0	0.0003215	129.171999931
1550.0	0.0003215	129.218999863
1550.0	0.0003215	129.266000032
1550.0	0.0003218	129.296999931
1550.0	0.0003215	129.343999863
1550.0	0.0003218	129.375
1550.0	0.0003218	129.421999931
1550.0	0.0003218	129.468999863
1550.0	0.0003218	129.5
1550.0	0.0003218	129.546999931
1560.0	0.0003203	129.812999964
1560.0	0.0003195	129.859999895
1560.0	0.0003193	129.907000065
1560.0	0.0003193	129.937999964
1560.0	0.0003195	129.984999895
1560.0	0.0003195	130.016000032
1560.0	0.0003195	130.062999964
1560.0	0.0003195	130.109999895
1560.0	0.0003195	130.157000065
1560.0	0.0003195	130.187999964
1560.0	0.0003195	130.234999895
1560.0	0.0003195	130.282000065
1560.0	0.00032	130.312999964
1560.0	0.0003195	130.359999895
1560.0	0.0003195	130.391000032
1560.0	0.0003195	130.437999964
1560.0	0.0003193	130.484999895
1560.0	0.0003195	130.516000032
1560.0	0.0003195	130.562999964
1560.0	0.0003193	130.609999895
1560.0	0.0003193	130.641000032
1560.0	0.0003193	130.687999964
1560.0	0.000319	130.718999863
1560.0	0.0003193	130.766000032
1560.0	0.0003193	130.812999964
1560.0	0.0003193	130.843999863
1560.0	0.0003193	130.891000032
1560.0	0.0003195	130.937999964
1560.0	0.0003195	130.968999863
1560.0	0.0003195	131.016000032
1560.0	0.0003195	131.046999931
1560.0	0.0003195	131.093999863
1560.0	0.0003195	131.141000032
1560.0	0.0003193	131.171999931
1560.0	0.0003193	131.218999863
1560.0	0.0003193	131.266000032
1560.0	0.000319	131.296999931
1570.0	0.0003175	131.578999996
1570.0	0.0003168	131.609999895
1570.0	0.0003163	131.657000065
1570.0	0.0003153	131.703999996
1570.0	0.000315	131.734999895
1570.0	0.000315	131.782000065
1570.0	0.0003145	131.828999996
1570.0	0.0003145	131.859999895
1570.0	0.0003145	131.907000065
1570.0	0.0003143	131.937999964
1570.0	0.000314	131.984999895
1570.0	0.0003138	132.032000065
1570.0	0.0003133	132.062999964
1570.0	0.0003133	132.109999895
1570.0	0.000313	132.157000065
1570.0	0.0003128	132.187999964
1570.0	0.0003128	132.234999895
1570.0	0.0003125	132.282000065
1570.0	0.0003125	132.312999964
1570.0	0.0003128	132.359999895
1570.0	0.0003125	132.391000032
1570.0	0.0003128	132.437999964
1570.0	0.0003133	132.484999895
1570.0	0.0003138	132.516000032
1570.0	0.0003133	132.562999964
1570.0	0.0003133	132.609999895
1570.0	0.0003133	132.641000032
1570.0	0.0003138	132.687999964
1570.0	0.0003133	132.718999863
1570.0	0.000313	132.766000032
1570.0	0.000313	132.812999964
1570.0	0.0003133	132.843999863
1570.0	0.0003138	132.891000032
1570.0	0.0003138	132.937999964
1570.0	0.0003138	132.968999863
1570.0	0.000314	133.016000032
1570.0	0.000314	133.062999964
1580.0	0.0003103	133.328999996
1580.0	0.000309	133.375
1580.0	0.000308	133.407000065
1580.0	0.0003075	133.453999996
1580.0	0.0003065	133.5
1580.0	0.0003058	133.532000065
1580.0	0.0003053	133.578999996
1580.0	0.000305	133.609999895
1580.0	0.000305	133.657000065
1580.0	0.000305	133.703999996
1580.0	0.000305	133.75
1580.0	0.0003053	133.782000065
1580.0	0.000305	133.828999996
1580.0	0.000305	133.875
1580.0	0.000305	133.907000065
1580.0	0.000305	133.953999996
1580.0	0.000305	133.984999895
1580.0	0.000305	134.032000065
1580.0	0.0003045	134.078999996
1580.0	0.0003045	134.109999895
1580.0	0.0003045	134.157000065
1580.0	0.0003045	134.203999996
1580.0	0.0003043	134.234999895
1580.0	0.0003043	134.282000065
1580.0	0.0003043	134.312999964
1580.0	0.0003043	134.359999895
1580.0	0.000304	134.407000065
1580.0	0.000304	134.437999964
1580.0	0.0003045	134.484999895
1580.0	0.0003045	134.532000065
1580.0	0.000305	134.562999964
1580.0	0.0003053	134.609999895
1580.0	0.000305	134.641000032
1580.0	0.0003045	134.687999964
1580.0	0.0003045	134.734999895
1580.0	0.0003043	134.766000032
1580.0	0.0003043	134.812999964
1590.0	0.0003003	135.093999863
1590.0	0.0002988	135.125
1590.0	0.0002975	135.171999931
1590.0	0.0002963	135.203999996
1590.0	0.0002955	135.25
1590.0	0.000295	135.296999931
1590.0	0.0002943	135.328999996
1590.0	0.000294	135.375
1590.0	0.0002938	135.421999931
1590.0	0.0002933	135.453999996
1590.0	0.0002933	135.5
1590.0	0.000293	135.532000065
1590.0	0.0002928	135.578999996
1590.0	0.000293	135.625
1590.0	0.000293	135.657000065
1590.0	0.000293	135.703999996
1590.0	0.000293	135.75
1590.0	0.000293	135.782000065
1590.0	0.000293	135.828999996
1590.0	0.0002928	135.875
1590.0	0.0002928	135.907000065
1590.0	0.0002928	135.953999996
1590.0	0.0002925	135.984999895
1590.0	0.0002925	136.032000065
1590.0	0.0002925	136.078999996
1590.0	0.000292	136.109999895
1590.0	0.000292	136.157000065
1590.0	0.0002925	136.203999996
1590.0	0.000292	136.234999895
1590.0	0.0002925	136.282000065
1590.0	0.0002925	136.312999964
1590.0	0.0002928	136.359999895
1590.0	0.0002925	136.407000065
1590.0	0.0002928	136.437999964
1590.0	0.0002928	136.484999895
1590.0	0.0002928	136.532000065
1590.0	0.0002928	136.562999964
1600.0	0.0002875	136.843999863
1600.0	0.0002855	136.875
1600.0	0.0002843	136.921999931
1600.0	0.0002833	136.968999863
1600.0	0.0002825	137.0
1600.0	0.0002818	137.046999931
1600.0	0.0002815	137.093999863
1600.0	0.0002805	137.125
1600.0	0.0002805	137.171999931
1600.0	0.0002803	137.203999996
1600.0	0.0002803	137.25
1600.0	0.0002803	137.296999931
1600.0	0.0002803	137.328999996
1600.0	0.0002803	137.375
1600.0	0.0002805	137.421999931
1600.0	0.0002803	137.453999996
1600.0	0.0002803	137.5
1600.0	0.0002803	137.546999931
1600.0	0.00028	137.578999996
1600.0	0.00028	137.625
1600.0	0.0002793	137.657000065
1600.0	0.0002793	137.703999996
1600.0	0.0002793	137.75
1600.0	0.0002795	137.782000065
1600.0	0.00028	137.828999996
1600.0	0.0002803	137.875
1600.0	0.0002803	137.907000065
1600.0	0.00028	137.953999996
1600.0	0.0002795	137.984999895
1600.0	0.000279	138.032000065
1600.0	0.000279	138.078999996
1600.0	0.0002788	138.109999895
1600.0	0.0002788	138.157000065
1600.0	0.000279	138.203999996
1600.0	0.000279	138.234999895
1600.0	0.0002795	138.282000065
1600.0	0.0002803	138.312999964
1610.0	0.0002733	138.593999863
1610.0	0.0002715	138.641000032
1610.0	0.0002693	138.687999964
1610.0	0.000268	138.718999863
1610.0	0.000267	138.766000032
1610.0	0.0002663	138.796999931
1610.0	0.0002655	138.843999863
1610.0	0.0002653	138.891000032
1610.0	0.0002645	138.921999931
1610.0	0.0002643	138.968999863
1610.0	0.000264	139.016000032
1610.0	0.0002633	139.046999931
1610.0	0.0002633	139.093999863
1610.0	0.000263	139.125
1610.0	0.0002633	139.171999931
1610.0	0.0002633	139.218999863
1610.0	0.000263	139.25
1610.0	0.0002633	139.296999931
1610.0	0.0002633	139.343999863
1610.0	0.000263	139.375
1610.0	0.0002638	139.421999931
1610.0	0.000264	139.468999863
1610.0	0.0002638	139.5
1610.0	0.0002638	139.546999931
1610.0	0.0002633	139.578999996
1610.0	0.0002638	139.625
1610.0	0.000264	139.671999931
1610.0	0.0002643	139.703999996
1610.0	0.0002643	139.75
1610.0	0.000264	139.796999931
1610.0	0.000264	139.843999863
1610.0	0.0002638	139.875
1610.0	0.000264	139.921999931
1610.0	0.0002643	139.968999863
1610.0	0.0002645	140.0
1610.0	0.0002645	140.046999931
1610.0	0.0002645	140.078999996
1620.0	0.0002568	140.359999895
1620.0	0.0002543	140.407000065
1620.0	0.000252	140.453999996
1620.0	0.00025	140.484999895
1620.0	0.0002488	140.532000065
1620.0	0.000248	140.578999996
1620.0	0.0002475	140.609999895
1620.0	0.0002468	140.657000065
1620.0	0.0002465	140.687999964
1620.0	0.0002465	140.734999895
1620.0	0.0002465	140.782000065
1620.0	0.0002465	140.812999964
1620.0	0.0002465	140.859999895
1620.0	0.0002468	140.907000065
1620.0	0.0002465	140.937999964
1620.0	0.0002465	140.984999895
1620.0	0.0002465	141.016000032
1620.0	0.0002465	141.062999964
1620.0	0.0002465	141.109999895
1620.0	0.0002465	141.141000032
1620.0	0.0002465	141.187999964
1620.0	0.0002465	141.234999895
1620.0	0.0002465	141.266000032
1620.0	0.0002463	141.312999964
1620.0	0.0002465	141.343999863
1620.0	0.0002463	141.391000032
1620.0	0.0002463	141.437999964
1620.0	0.0002465	141.468999863
1620.0	0.0002463	141.516000032
1620.0	0.0002465	141.562999964
1620.0	0.0002465	141.593999863
1620.0	0.0002463	141.641000032
1620.0	0.0002458	141.671999931
1620.0	0.0002455	141.718999863
1620.0	0.0002453	141.766000032
1620.0	0.0002453	141.796999931
1620.0	0.0002453	141.843999863
1630.0	0.000239	142.125
1630.0	0.0002363	142.171999931
1630.0	0.000234	142.203999996
1630.0	0.000232	142.25
1630.0	0.0002305	142.296999931
1630.0	0.0002293	142.328999996
1630.0	0.0002288	142.375
1630.0	0.000228	142.421999931
1630.0	0.0002275	142.453999996
1630.0	0.000227	142.5
1630.0	0.0002268	142.532000065
1630.0	0.0002268	142.578999996
1630.0	0.0002268	142.625
1630.0	0.0002268	142.657000065
1630.0	0.0002268	142.703999996
1630.0	0.0002263	142.75
1630.0	0.0002263	142.782000065
1630.0	0.0002263	142.828999996
1630.0	0.0002263	142.859999895
1630.0	0.0002265	142.907000065
1630.0	0.0002265	142.953999996
1630.0	0.0002268	142.984999895
1630.0	0.0002265	143.032000065
1630.0	0.0002258	143.078999996
1630.0	0.0002255	143.109999895
1630.0	0.0002258	143.157000065
1630.0	0.0002255	143.203999996
1630.0	0.0002255	143.234999895
1630.0	0.0002258	143.282000065
1630.0	0.0002255	143.328999996
1630.0	0.0002258	143.359999895
1630.0	0.0002258	143.407000065
1630.0	0.0002263	143.453999996
1630.0	0.0002263	143.484999895
1630.0	0.0002258	143.532000065
1630.0	0.0002258	143.562999964
1630.0	0.0002258	143.609999895
1640.0	0.0002178	143.891000032
1640.0	0.000215	143.937999964
1640.0	0.0002125	143.984999895
1640.0	0.0002103	144.016000032
1640.0	0.000209	144.062999964
1640.0	0.0002078	144.109999895
1640.0	0.000207	144.141000032
1640.0	0.0002065	144.187999964
1640.0	0.0002058	144.218999863
1640.0	0.0002058	144.266000032
1640.0	0.0002053	144.312999964
1640.0	0.000205	144.343999863
1640.0	0.000205	144.391000032
1640.0	0.0002045	144.437999964
1640.0	0.0002045	144.468999863
1640.0	0.0002045	144.516000032
1640.0	0.0002045	144.546999931
1640.0	0.0002043	144.593999863
1640.0	0.0002043	144.641000032
1640.0	0.0002043	144.671999931
1640.0	0.000204	144.718999863
1640.0	0.000204	144.766000032
1640.0	0.0002038	144.796999931
1640.0	0.0002038	144.843999863
1640.0	0.0002033	144.875
1640.0	0.0002033	144.921999931
1640.0	0.0002038	144.968999863
1640.0	0.000203	145.0
1640.0	0.000203	145.046999931
1640.0	0.000203	145.093999863
1640.0	0.000203	145.125
1640.0	0.0002038	145.171999931
1640.0	0.0002038	145.218999863
1640.0	0.0002038	145.25
1640.0	0.000204	145.296999931
1640.0	0.0002043	145.343999863
1650.0	0.0001955	145.625
1650.0	0.000192	145.657000065
1650.0	0.0001895	145.703999996
1650.0	0.0001875	145.75
1650.0	0.0001855	145.782000065
1650.0	0.0001843	145.828999996
1650.0	0.0001833	145.875
1650.0	0.0001828	145.907000065
1650.0	0.0001825	145.953999996
1650.0	0.000182	145.984999895
1650.0	0.0001818	146.032000065
1650.0	0.000182	146.078999996
1650.0	0.0001818	146.109999895
1650.0	0.0001818	146.157000065
1650.0	0.0001818	146.203999996
1650.0	0.0001815	146.234999895
1650.0	0.0001815	146.282000065
1650.0	0.0001815	146.312999964
1650.0	0.0001815	146.359999895
1650.0	0.0001818	146.407000065
1650.0	0.000182	146.437999964
1650.0	0.0001825	146.484999895
1650.0	0.0001825	146.532000065
1650.0	0.0001825	146.562999964
1650.0	0.0001825	146.609999895
1650.0	0.0001828	146.657000065
1650.0	0.0001825	146.687999964
1650.0	0.0001825	146.734999895
1650.0	0.0001825	146.766000032
1650.0	0.0001825	146.812999964
1650.0	0.0001825	146.859999895
1650.0	0.000182	146.891000032
1650.0	0.000182	146.937999964
1650.0	0.0001825	146.984999895
1650.0	0.0001825	147.016000032
1650.0	0.0001825	147.062999964
1650.0	0.000182	147.093999863
1660.0	0.000174	147.391000032
1660.0	0.0001713	147.421999931
1660.0	0.0001683	147.468999863
1660.0	0.0001663	147.5
1660.0	0.000165	147.546999931
1660.0	0.0001638	147.593999863
1660.0	0.0001628	147.625
1660.0	0.000162	147.671999931
1660.0	0.0001615	147.718999863
1660.0	0.0001615	147.75
1660.0	0.0001613	147.796999931
1660.0	0.0001613	147.843999863
1660.0	0.0001613	147.875
1660.0	0.0001613	147.921999931
1660.0	0.0001615	147.953999996
1660.0	0.0001613	148.0
1660.0	0.0001613	148.046999931
1660.0	0.0001613	148.078999996
1660.0	0.0001608	148.125
1660.0	0.0001605	148.171999931
1660.0	0.0001608	148.203999996
1660.0	0.0001613	148.25
1660.0	0.0001615	148.296999931
1660.0	0.0001615	148.328999996
1660.0	0.0001613	148.375
1660.0	0.0001608	148.421999931
1660.0	0.0001605	148.453999996
1660.0	0.0001603	148.5
1660.0	0.0001605	148.532000065
1660.0	0.0001605	148.578999996
1660.0	0.0001603	148.625
1660.0	0.0001603	148.657000065
1660.0	0.0001603	148.703999996
1660.0	0.0001605	148.75
1660.0	0.0001608	148.782000065
1660.0	0.0001605	148.828999996
1660.0	0.0001605	148.859999895
1670.0	0.0001533	149.157000065
1670.0	0.0001505	149.187999964
1670.0	0.0001483	149.234999895
1670.0	0.0001468	149.282000065
1670.0	0.0001453	149.312999964
1670.0	0.000144	149.359999895
1670.0	0.000143	149.391000032
1670.0	0.0001425	149.437999964
1670.0	0.0001418	149.484999895
1670.0	0.0001413	149.516000032
1670.0	0.0001413	149.562999964
1670.0	0.0001408	149.609999895
1670.0	0.0001405	149.641000032
1670.0	0.0001408	149.687999964
1670.0	0.0001405	149.734999895
1670.0	0.0001405	149.766000032
1670.0	0.0001405	149.812999964
1670.0	0.0001405	149.859999895
1670.0	0.0001408	149.891000032
1670.0	0.0001405	149.937999964
1670.0	0.0001405	149.968999863
1670.0	0.0001405	150.016000032
1670.0	0.0001408	150.062999964
1670.0	0.0001413	150.093999863
1670.0	0.0001408	150.141000032
1670.0	0.0001405	150.187999964
1670.0	0.0001405	150.218999863
1670.0	0.0001405	150.266000032
1670.0	0.0001405	150.312999964
1670.0	0.0001405	150.343999863
1670.0	0.0001405	150.391000032
1670.0	0.0001403	150.421999931
1670.0	0.0001403	150.468999863
1670.0	0.0001405	150.516000032
1670.0	0.0001408	150.546999931
1670.0	0.0001405	150.593999863
1670.0	0.0001405	150.625
1680.0	0.0001333	150.921999931
1680.0	0.0001303	150.953999996
1680.0	0.0001283	151.0
1680.0	0.0001268	151.046999931
1680.0	0.0001253	151.078999996
1680.0	0.0001243	151.125
1680.0	0.0001238	151.157000065
1680.0	0.000123	151.203999996
1680.0	0.0001228	151.25
1680.0	0.0001225	151.282000065
1680.0	0.000122	151.328999996
1680.0	0.0001218	151.375
1680.0	0.0001218	151.407000065
1680.0	0.0001218	151.453999996
1680.0	0.0001218	151.484999895
1680.0	0.0001218	151.532000065
1680.0	0.0001218	151.578999996
1680.0	0.0001213	151.609999895
1680.0	0.0001208	151.657000065
1680.0	0.0001208	151.703999996
1680.0	0.0001208	151.734999895
1680.0	0.0001208	151.782000065
1680.0	0.0001205	151.812999964
1680.0	0.0001205	151.859999895
1680.0	0.0001205	151.907000065
1680.0	0.0001205	151.937999964
1680.0	0.0001205	151.984999895
1680.0	0.0001208	152.032000065
1680.0	0.0001208	152.062999964
1680.0	0.0001205	152.109999895
1680.0	0.0001205	152.157000065
1680.0	0.0001205	152.187999964
1680.0	0.0001205	152.234999895
1680.0	0.0001205	152.266000032
1680.0	0.0001205	152.312999964
1680.0	0.0001208	152.359999895
1680.0	0.0001205	152.391000032
1690.0	0.000113	152.687999964
1690.0	0.0001108	152.718999863
1690.0	0.0001088	152.766000032
1690.0	0.0001075	152.812999964
1690.0	0.0001065	152.843999863
1690.0	0.0001055	152.891000032
1690.0	0.0001053	152.921999931
1690.0	0.0001045	152.968999863
1690.0	0.000104	153.016000032
1690.0	0.0001038	153.046999931
1690.0	0.0001033	153.093999863
1690.0	0.000103	153.141000032
1690.0	0.000103	153.171999931
1690.0	0.0001028	153.218999863
1690.0	0.000103	153.25
1690.0	0.0001028	153.296999931
1690.0	0.0001025	153.343999863
1690.0	0.0001025	153.375
1690.0	0.0001025	153.421999931
1690.0	0.0001025	153.468999863
1690.0	0.0001028	153.5
1690.0	0.0001025	153.546999931
1690.0	0.0001025	153.578999996
1690.0	0.0001028	153.625
1690.0	0.0001028	153.671999931
1690.0	0.000103	153.703999996
1690.0	0.0001028	153.75
1690.0	0.0001025	153.796999931
1690.0	0.0001028	153.828999996
1690.0	0.0001028	153.875
1690.0	0.000103	153.921999931
1690.0	0.000103	153.953999996
1690.0	0.0001028	154.0
1690.0	0.000103	154.032000065
1690.0	0.0001033	154.078999996
1690.0	0.000103	154.125
1690.0	0.0001033	154.157000065
1700.0	9.63e-05	154.453999996
1700.0	9.4e-05	154.484999895
1700.0	9.25e-05	154.532000065
1700.0	9.13e-05	154.578999996
1700.0	9e-05	154.609999895
1700.0	8.83e-05	154.657000065
1700.0	8.78e-05	154.703999996
1700.0	8.75e-05	154.734999895
1700.0	8.7e-05	154.782000065
1700.0	8.68e-05	154.812999964
1700.0	8.65e-05	154.859999895
1700.0	8.65e-05	154.907000065
1700.0	8.68e-05	154.937999964
1700.0	8.68e-05	154.984999895
1700.0	8.68e-05	155.032000065
1700.0	8.68e-05	155.062999964
1700.0	8.68e-05	155.109999895
1700.0	8.65e-05	155.141000032
1700.0	8.68e-05	155.187999964
1700.0	8.68e-05	155.234999895
1700.0	8.68e-05	155.266000032
1700.0	8.68e-05	155.312999964
1700.0	8.68e-05	155.359999895
1700.0	8.7e-05	155.391000032
1700.0	8.7e-05	155.437999964
1700.0	8.7e-05	155.468999863
1700.0	8.75e-05	155.516000032
1700.0	8.7e-05	155.562999964
1700.0	8.7e-05	155.593999863
1700.0	8.7e-05	155.641000032
1700.0	8.68e-05	155.687999964
1700.0	8.68e-05	155.718999863
1700.0	8.68e-05	155.766000032
1700.0	8.65e-05	155.796999931
1700.0	8.68e-05	155.843999863
1700.0	8.68e-05	155.891000032
1700.0	8.68e-05	155.921999931
1710.0	8.03e-05	156.218999863
1710.0	7.88e-05	156.25
1710.0	7.75e-05	156.296999931
1710.0	7.63e-05	156.343999863
1710.0	7.53e-05	156.375
1710.0	7.45e-05	156.421999931
1710.0	7.4e-05	156.468999863
1710.0	7.33e-05	156.5
1710.0	7.3e-05	156.546999931
1710.0	7.3e-05	156.578999996
1710.0	7.3e-05	156.625
1710.0	7.3e-05	156.671999931
1710.0	7.3e-05	156.703999996
1710.0	7.33e-05	156.75
1710.0	7.33e-05	156.796999931
1710.0	7.33e-05	156.828999996
1710.0	7.33e-05	156.875
1710.0	7.33e-05	156.921999931
1710.0	7.33e-05	156.953999996
1710.0	7.33e-05	157.0
1710.0	7.3e-05	157.046999931
1710.0	7.3e-05	157.078999996
1710.0	7.3e-05	157.125
1710.0	7.3e-05	157.157000065
1710.0	7.3e-05	157.203999996
1710.0	7.3e-05	157.25
1710.0	7.3e-05	157.282000065
1710.0	7.3e-05	157.328999996
1710.0	7.3e-05	157.375
1710.0	7.3e-05	157.421999931
1710.0	7.33e-05	157.453999996
1710.0	7.33e-05	157.5
1710.0	7.33e-05	157.532000065
1710.0	7.3e-05	157.578999996
1710.0	7.3e-05	157.625
1710.0	7.3e-05	157.657000065
1710.0	7.3e-05	157.703999996
1720.0	6.9e-05	157.984999895
1720.0	6.68e-05	158.032000065
1720.0	6.53e-05	158.078999996
1720.0	6.43e-05	158.109999895
1720.0	6.33e-05	158.157000065
1720.0	6.28e-05	158.203999996
1720.0	6.25e-05	158.234999895
1720.0	6.18e-05	158.282000065
1720.0	6.2e-05	158.328999996
1720.0	6.2e-05	158.359999895
1720.0	6.25e-05	158.407000065
1720.0	6.28e-05	158.453999996
1720.0	6.3e-05	158.484999895
1720.0	6.28e-05	158.532000065
1720.0	6.25e-05	158.578999996
1720.0	6.2e-05	158.609999895
1720.0	6.2e-05	158.657000065
1720.0	6.18e-05	158.703999996
1720.0	6.18e-05	158.734999895
1720.0	6.2e-05	158.782000065
1720.0	6.25e-05	158.812999964
1720.0	6.25e-05	158.859999895
1720.0	6.25e-05	158.907000065
1720.0	6.25e-05	158.937999964
1720.0	6.28e-05	158.984999895
1720.0	6.28e-05	159.032000065
1720.0	6.28e-05	159.062999964
1720.0	6.28e-05	159.109999895
1720.0	6.3e-05	159.141000032
1720.0	6.25e-05	159.187999964
1720.0	6.25e-05	159.234999895
1720.0	6.2e-05	159.266000032
1720.0	6.2e-05	159.312999964
1720.0	6.2e-05	159.359999895
1720.0	6.18e-05	159.391000032
1720.0	6.18e-05	159.437999964
1720.0	6.15e-05	159.468999863
1730.0	5.75e-05	159.766000032
1730.0	5.65e-05	159.812999964
1730.0	5.55e-05	159.843999863
1730.0	5.5e-05	159.891000032
1730.0	5.45e-05	159.921999931
1730.0	5.38e-05	159.968999863
1730.0	5.33e-05	160.016000032
1730.0	5.3e-05	160.046999931
1730.0	5.28e-05	160.093999863
1730.0	5.28e-05	160.125
1730.0	5.25e-05	160.171999931
1730.0	5.25e-05	160.218999863
1730.0	5.2e-05	160.25
1730.0	5.2e-05	160.296999931
1730.0	5.25e-05	160.343999863
1730.0	5.25e-05	160.391000032
1730.0	5.18e-05	160.421999931
1730.0	5.18e-05	160.468999863
1730.0	5.18e-05	160.5
1730.0	5.18e-05	160.546999931
1730.0	5.2e-05	160.593999863
1730.0	5.2e-05	160.625
1730.0	5.2e-05	160.671999931
1730.0	5.2e-05	160.718999863
1730.0	5.2e-05	160.75
1730.0	5.2e-05	160.796999931
1730.0	5.18e-05	160.828999996
1730.0	5.18e-05	160.875
1730.0	5.18e-05	160.921999931
1730.0	5.18e-05	160.953999996
1730.0	5.18e-05	161.0
1730.0	5.15e-05	161.046999931
1730.0	5.13e-05	161.078999996
1730.0	5.13e-05	161.125
1730.0	5.15e-05	161.157000065
1730.0	5.15e-05	161.203999996
1730.0	5.15e-05	161.25
1740.0	4.9e-05	161.546999931
1740.0	4.8e-05	161.578999996
1740.0	4.68e-05	161.625
1740.0	4.58e-05	161.671999931
1740.0	4.53e-05	161.703999996
1740.0	4.5e-05	161.75
1740.0	4.45e-05	161.782000065
1740.0	4.45e-05	161.828999996
1740.0	4.43e-05	161.875
1740.0	4.43e-05	161.907000065
1740.0	4.4e-05	161.953999996
1740.0	4.38e-05	162.0
1740.0	4.38e-05	162.032000065
1740.0	4.33e-05	162.078999996
1740.0	4.3e-05	162.109999895
1740.0	4.3e-05	162.157000065
1740.0	4.3e-05	162.203999996
1740.0	4.3e-05	162.234999895
1740.0	4.33e-05	162.282000065
1740.0	4.33e-05	162.328999996
1740.0	4.33e-05	162.359999895
1740.0	4.38e-05	162.407000065
1740.0	4.38e-05	162.453999996
1740.0	4.38e-05	162.484999895
1740.0	4.38e-05	162.532000065
1740.0	4.33e-05	162.562999964
1740.0	4.33e-05	162.609999895
1740.0	4.3e-05	162.657000065
1740.0	4.3e-05	162.687999964
1740.0	4.3e-05	162.734999895
1740.0	4.3e-05	162.782000065
1740.0	4.28e-05	162.812999964
1740.0	4.3e-05	162.859999895
1740.0	4.3e-05	162.891000032
1740.0	4.33e-05	162.937999964
1740.0	4.38e-05	162.984999895
1740.0	4.38e-05	163.016000032
1750.0	4.08e-05	163.312999964
1750.0	4e-05	163.359999895
1750.0	3.95e-05	163.391000032
1750.0	3.93e-05	163.437999964
1750.0	3.9e-05	163.484999895
1750.0	3.88e-05	163.516000032
1750.0	3.8e-05	163.562999964
1750.0	3.78e-05	163.609999895
1750.0	3.78e-05	163.641000032
1750.0	3.75e-05	163.687999964
1750.0	3.7e-05	163.734999895
1750.0	3.75e-05	163.766000032
1750.0	3.78e-05	163.812999964
1750.0	3.8e-05	163.843999863
1750.0	3.8e-05	163.891000032
1750.0	3.83e-05	163.937999964
1750.0	3.8e-05	163.968999863
1750.0	3.78e-05	164.016000032
1750.0	3.75e-05	164.062999964
1750.0	3.7e-05	164.093999863
1750.0	3.7e-05	164.141000032
1750.0	3.7e-05	164.187999964
1750.0	3.7e-05	164.218999863
1750.0	3.68e-05	164.266000032
1750.0	3.7e-05	164.312999964
1750.0	3.68e-05	164.343999863
1750.0	3.68e-05	164.391000032
1750.0	3.68e-05	164.421999931
1750.0	3.68e-05	164.468999863
1750.0	3.68e-05	164.516000032
1750.0	3.68e-05	164.546999931
1750.0	3.68e-05	164.593999863
1750.0	3.7e-05	164.641000032
1750.0	3.68e-05	164.671999931
1750.0	3.68e-05	164.718999863
1750.0	3.7e-05	164.766000032
1760.0	3.55e-05	165.062999964
1760.0	3.53e-05	165.109999895
1760.0	3.45e-05	165.141000032
1760.0	3.45e-05	165.187999964
1760.0	3.43e-05	165.234999895
1760.0	3.43e-05	165.266000032
1760.0	3.43e-05	165.312999964
1760.0	3.4e-05	165.359999895
1760.0	3.43e-05	165.391000032
1760.0	3.43e-05	165.437999964
1760.0	3.43e-05	165.484999895
1760.0	3.4e-05	165.516000032
1760.0	3.4e-05	165.562999964
1760.0	3.38e-05	165.593999863
1760.0	3.38e-05	165.641000032
1760.0	3.33e-05	165.687999964
1760.0	3.33e-05	165.718999863
1760.0	3.4e-05	165.766000032
1760.0	3.38e-05	165.812999964
1760.0	3.38e-05	165.843999863
1760.0	3.38e-05	165.891000032
1760.0	3.33e-05	165.921999931
1760.0	3.38e-05	165.968999863
1760.0	3.38e-05	166.016000032
1760.0	3.33e-05	166.046999931
1760.0	3.38e-05	166.093999863
1760.0	3.38e-05	166.141000032
1760.0	3.38e-05	166.171999931
1760.0	3.38e-05	166.218999863
1760.0	3.33e-05	166.25
1760.0	3.4e-05	166.296999931
1760.0	3.4e-05	166.343999863
1760.0	3.38e-05	166.375
1760.0	3.4e-05	166.421999931
1760.0	3.4e-05	166.468999863
1760.0	3.4e-05	166.5
1760.0	3.43e-05	166.546999931
1770.0	3.15e-05	166.843999863
1770.0	3.13e-05	166.891000032
1770.0	3.05e-05	166.937999964
1770.0	3.05e-05	166.968999863
1770.0	3.05e-05	167.016000032
1770.0	3.03e-05	167.046999931
1770.0	3e-05	167.093999863
1770.0	3e-05	167.141000032
1770.0	2.95e-05	167.171999931
1770.0	2.95e-05	167.218999863
1770.0	2.95e-05	167.266000032
1770.0	2.93e-05	167.296999931
1770.0	2.95e-05	167.343999863
1770.0	2.95e-05	167.375
1770.0	3e-05	167.421999931
1770.0	3.03e-05	167.468999863
1770.0	3.03e-05	167.5
1770.0	3.03e-05	167.546999931
1770.0	3.03e-05	167.593999863
1770.0	3.03e-05	167.625
1770.0	3.03e-05	167.671999931
1770.0	3e-05	167.703999996
1770.0	3e-05	167.75
1770.0	3e-05	167.796999931
1770.0	3e-05	167.828999996
1770.0	3e-05	167.875
1770.0	3e-05	167.921999931
1770.0	3e-05	167.953999996
1770.0	3.03e-05	168.0
1770.0	3.03e-05	168.046999931
1770.0	3.03e-05	168.078999996
1770.0	3.05e-05	168.125
1770.0	3.05e-05	168.157000065
1770.0	3.08e-05	168.203999996
1770.0	3.08e-05	168.25
1770.0	3.05e-05	168.282000065
1770.0	3.05e-05	168.328999996
1780.0	2.9e-05	168.625
1780.0	2.88e-05	168.671999931
1780.0	2.88e-05	168.718999863
1780.0	2.83e-05	168.75
1780.0	2.83e-05	168.796999931
1780.0	2.8e-05	168.843999863
1780.0	2.8e-05	168.875
1780.0	2.8e-05	168.921999931
1780.0	2.78e-05	168.953999996
1780.0	2.78e-05	169.0
1780.0	2.78e-05	169.046999931
1780.0	2.75e-05	169.078999996
1780.0	2.75e-05	169.125
1780.0	2.75e-05	169.171999931
1780.0	2.7e-05	169.203999996
1780.0	2.7e-05	169.25
1780.0	2.68e-05	169.282000065
1780.0	2.68e-05	169.328999996
1780.0	2.65e-05	169.375
1780.0	2.63e-05	169.407000065
1780.0	2.65e-05	169.453999996
1780.0	2.65e-05	169.5
1780.0	2.65e-05	169.532000065
1780.0	2.65e-05	169.578999996
1780.0	2.68e-05	169.625
1780.0	2.65e-05	169.657000065
1780.0	2.68e-05	169.703999996
1780.0	2.65e-05	169.75
1780.0	2.68e-05	169.782000065
1780.0	2.7e-05	169.828999996
1780.0	2.68e-05	169.875
1780.0	2.7e-05	169.907000065
1780.0	2.7e-05	169.953999996
1780.0	2.68e-05	169.984999895
1780.0	2.68e-05	170.032000065
1780.0	2.68e-05	170.078999996
1780.0	2.68e-05	170.109999895
1790.0	2.65e-05	170.421999931
1790.0	2.58e-05	170.453999996
1790.0	2.53e-05	170.5
1790.0	2.45e-05	170.546999931
1790.0	2.45e-05	170.578999996
1790.0	2.45e-05	170.625
1790.0	2.45e-05	170.657000065
1790.0	2.5e-05	170.703999996
1790.0	2.5e-05	170.75
1790.0	2.5e-05	170.782000065
1790.0	2.53e-05	170.828999996
1790.0	2.53e-05	170.875
1790.0	2.53e-05	170.907000065
1790.0	2.53e-05	170.953999996
1790.0	2.5e-05	171.0
1790.0	2.5e-05	171.032000065
1790.0	2.5e-05	171.078999996
1790.0	2.45e-05	171.109999895
1790.0	2.45e-05	171.157000065
1790.0	2.43e-05	171.203999996
1790.0	2.43e-05	171.25
1790.0	2.45e-05	171.282000065
1790.0	2.43e-05	171.328999996
1790.0	2.43e-05	171.359999895
1790.0	2.43e-05	171.407000065
1790.0	2.43e-05	171.453999996
1790.0	2.45e-05	171.484999895
1790.0	2.5e-05	171.532000065
1790.0	2.53e-05	171.578999996
1790.0	2.53e-05	171.609999895
1790.0	2.53e-05	171.657000065
1790.0	2.53e-05	171.703999996
1790.0	2.5e-05	171.734999895
1790.0	2.45e-05	171.782000065
1790.0	2.45e-05	171.828999996
1790.0	2.45e-05	171.859999895
1790.0	2.5e-05	171.907000065
1800.0	2.38e-05	172.203999996
1800.0	2.38e-05	172.25
1800.0	2.33e-05	172.282000065
1800.0	2.33e-05	172.328999996
1800.0	2.33e-05	172.375
1800.0	2.3e-05	172.407000065
1800.0	2.3e-05	172.453999996
1800.0	2.3e-05	172.484999895
1800.0	2.3e-05	172.532000065
1800.0	2.3e-05	172.578999996
1800.0	2.33e-05	172.609999895
1800.0	2.3e-05	172.657000065
1800.0	2.3e-05	172.703999996
1800.0	2.33e-05	172.734999895
1800.0	2.38e-05	172.782000065
1800.0	2.33e-05	172.812999964
1800.0	2.33e-05	172.859999895
1800.0	2.3e-05	172.907000065
1800.0	2.3e-05	172.937999964
1800.0	2.33e-05	172.984999895
1800.0	2.3e-05	173.032000065
1800.0	2.33e-05	173.062999964
1800.0	2.38e-05	173.109999895
1800.0	2.38e-05	173.157000065
1800.0	2.38e-05	173.187999964
1800.0	2.38e-05	173.234999895
1800.0	2.4e-05	173.266000032
1800.0	2.4e-05	173.312999964
1800.0	2.4e-05	173.359999895
1800.0	2.4e-05	173.391000032
1800.0	2.4e-05	173.437999964
1800.0	2.38e-05	173.484999895
1800.0	2.38e-05	173.516000032
1800.0	2.33e-05	173.562999964
1800.0	2.3e-05	173.593999863
1800.0	2.3e-05	173.641000032
1800.0	2.3e-05	173.687999964
