Your edit line - do NOT delete this line
Wavelength [nm], Voltage [V], Elapsed time [s]
800.0	6.51e-05	16.0
800.0	6.38e-05	16.0309998989
800.0	6.27e-05	16.0629999638
800.0	6.2e-05	16.1089999676
800.0	6.13e-05	16.1410000324
800.0	6.1e-05	16.1879999638
800.0	6.12e-05	16.2190001011
800.0	6.16e-05	16.25
800.0	6.18e-05	16.2969999313
800.0	6.18e-05	16.3280000687
800.0	6.18e-05	16.3589999676
800.0	6.18e-05	16.4059998989
800.0	6.2e-05	16.4379999638
800.0	6.21e-05	16.4839999676
800.0	6.2e-05	16.5160000324
800.0	6.18e-05	16.5469999313
800.0	6.21e-05	16.5940001011
800.0	6.22e-05	16.625
800.0	6.26e-05	16.6719999313
800.0	6.28e-05	16.7030000687
800.0	6.27e-05	16.7339999676
800.0	6.21e-05	16.7809998989
800.0	6.18e-05	16.8129999638
800.0	6.16e-05	16.8440001011
800.0	6.13e-05	16.8910000324
800.0	6.13e-05	16.9219999313
800.0	6.08e-05	16.9690001011
800.0	6.06e-05	17.0
800.0	6.03e-05	17.0309998989
800.0	6.03e-05	17.0780000687
800.0	6.06e-05	17.1089999676
800.0	6.08e-05	17.1410000324
800.0	6.08e-05	17.1879999638
800.0	6.07e-05	17.2190001011
800.0	6.07e-05	17.25
800.0	6.1e-05	17.2969999313
800.0	6.1e-05	17.3280000687
800.0	6.1e-05	17.3589999676
800.0	6.07e-05	17.4059998989
800.0	6.07e-05	17.4379999638
800.0	6.1e-05	17.4839999676
810.0	6.37e-05	17.8129999638
810.0	6.41e-05	17.8440001011
810.0	6.46e-05	17.875
810.0	6.51e-05	17.9219999313
810.0	6.52e-05	17.9530000687
810.0	6.53e-05	17.9839999676
810.0	6.58e-05	18.0309998989
810.0	6.62e-05	18.0629999638
810.0	6.6e-05	18.1089999676
810.0	6.62e-05	18.1410000324
810.0	6.65e-05	18.1719999313
810.0	6.68e-05	18.2190001011
810.0	6.66e-05	18.25
810.0	6.63e-05	18.2809998989
810.0	6.63e-05	18.3280000687
810.0	6.6e-05	18.3589999676
810.0	6.58e-05	18.4059998989
810.0	6.56e-05	18.4379999638
810.0	6.53e-05	18.4690001011
810.0	6.53e-05	18.5160000324
810.0	6.57e-05	18.5469999313
810.0	6.6e-05	18.5780000687
810.0	6.62e-05	18.625
810.0	6.65e-05	18.6559998989
810.0	6.66e-05	18.6879999638
810.0	6.65e-05	18.7339999676
810.0	6.65e-05	18.7660000324
810.0	6.65e-05	18.8129999638
810.0	6.62e-05	18.8440001011
810.0	6.57e-05	18.875
810.0	6.57e-05	18.9219999313
810.0	6.58e-05	18.9530000687
810.0	6.58e-05	18.9839999676
810.0	6.6e-05	19.0309998989
810.0	6.6e-05	19.0629999638
810.0	6.6e-05	19.0940001011
810.0	6.58e-05	19.1410000324
810.0	6.6e-05	19.1719999313
810.0	6.62e-05	19.2190001011
810.0	6.62e-05	19.25
810.0	6.58e-05	19.2809998989
820.0	6.76e-05	19.6089999676
820.0	6.82e-05	19.6410000324
820.0	6.9e-05	19.6879999638
820.0	6.96e-05	19.7190001011
820.0	7.01e-05	19.7660000324
820.0	7.03e-05	19.7969999313
820.0	7.07e-05	19.8280000687
820.0	7.08e-05	19.875
820.0	7.1e-05	19.9059998989
820.0	7.1e-05	19.9379999638
820.0	7.12e-05	19.9839999676
820.0	7.15e-05	20.0160000324
820.0	7.16e-05	20.0469999313
820.0	7.16e-05	20.0940001011
820.0	7.18e-05	20.125
820.0	7.13e-05	20.1719999313
820.0	7.08e-05	20.2030000687
820.0	7.07e-05	20.2339999676
820.0	7.07e-05	20.2809998989
820.0	7.07e-05	20.3129999638
820.0	7.08e-05	20.3440001011
820.0	7.08e-05	20.3910000324
820.0	7.06e-05	20.4219999313
820.0	7.06e-05	20.4530000687
820.0	7.07e-05	20.5
820.0	7.08e-05	20.5309998989
820.0	7.08e-05	20.5780000687
820.0	7.07e-05	20.6089999676
820.0	7.03e-05	20.6410000324
820.0	7.06e-05	20.6879999638
820.0	7.07e-05	20.7190001011
820.0	7.1e-05	20.75
820.0	7.12e-05	20.7969999313
820.0	7.12e-05	20.8280000687
820.0	7.13e-05	20.8589999676
820.0	7.15e-05	20.9059998989
820.0	7.15e-05	20.9379999638
820.0	7.15e-05	20.9839999676
820.0	7.12e-05	21.0160000324
820.0	7.08e-05	21.0469999313
820.0	7.08e-05	21.0940001011
830.0	7.37e-05	21.4059998989
830.0	7.47e-05	21.4530000687
830.0	7.53e-05	21.4839999676
830.0	7.56e-05	21.5309998989
830.0	7.56e-05	21.5629999638
830.0	7.58e-05	21.5940001011
830.0	7.6e-05	21.6410000324
830.0	7.63e-05	21.6719999313
830.0	7.68e-05	21.7030000687
830.0	7.7e-05	21.75
830.0	7.71e-05	21.7809998989
830.0	7.71e-05	21.8129999638
830.0	7.68e-05	21.8589999676
830.0	7.66e-05	21.8910000324
830.0	7.65e-05	21.9379999638
830.0	7.65e-05	21.9690001011
830.0	7.68e-05	22.0
830.0	7.71e-05	22.0469999313
830.0	7.75e-05	22.0780000687
830.0	7.75e-05	22.1089999676
830.0	7.72e-05	22.1559998989
830.0	7.71e-05	22.1879999638
830.0	7.71e-05	22.2339999676
830.0	7.72e-05	22.2660000324
830.0	7.71e-05	22.2969999313
830.0	7.71e-05	22.3440001011
830.0	7.71e-05	22.375
830.0	7.71e-05	22.4059998989
830.0	7.71e-05	22.4530000687
830.0	7.71e-05	22.4839999676
830.0	7.72e-05	22.5160000324
830.0	7.75e-05	22.5629999638
830.0	7.75e-05	22.5940001011
830.0	7.71e-05	22.6410000324
830.0	7.71e-05	22.6719999313
830.0	7.71e-05	22.7030000687
830.0	7.68e-05	22.75
830.0	7.66e-05	22.7809998989
830.0	7.68e-05	22.8129999638
830.0	7.68e-05	22.8589999676
830.0	7.7e-05	22.8910000324
840.0	8.12e-05	23.2190001011
840.0	8.2e-05	23.25
840.0	8.25e-05	23.2809998989
840.0	8.31e-05	23.3280000687
840.0	8.35e-05	23.3589999676
840.0	8.37e-05	23.3910000324
840.0	8.38e-05	23.4379999638
840.0	8.41e-05	23.4690001011
840.0	8.43e-05	23.5160000324
840.0	8.46e-05	23.5469999313
840.0	8.47e-05	23.5780000687
840.0	8.47e-05	23.625
840.0	8.5e-05	23.6559998989
840.0	8.51e-05	23.6879999638
840.0	8.5e-05	23.7339999676
840.0	8.5e-05	23.7660000324
840.0	8.5e-05	23.7969999313
840.0	8.5e-05	23.8440001011
840.0	8.51e-05	23.875
840.0	8.51e-05	23.9059998989
840.0	8.5e-05	23.9530000687
840.0	8.5e-05	23.9839999676
840.0	8.46e-05	24.0309998989
840.0	8.43e-05	24.0629999638
840.0	8.46e-05	24.0940001011
840.0	8.5e-05	24.1410000324
840.0	8.53e-05	24.1719999313
840.0	8.57e-05	24.2030000687
840.0	8.57e-05	24.25
840.0	8.57e-05	24.2809998989
840.0	8.58e-05	24.3280000687
840.0	8.63e-05	24.3589999676
840.0	8.66e-05	24.3910000324
840.0	8.65e-05	24.4379999638
840.0	8.63e-05	24.4690001011
840.0	8.58e-05	24.5
840.0	8.57e-05	24.5469999313
840.0	8.53e-05	24.5780000687
840.0	8.5e-05	24.6089999676
840.0	8.45e-05	24.6559998989
840.0	8.45e-05	24.6879999638
850.0	8.83e-05	25.0
850.0	8.91e-05	25.0469999313
850.0	9.01e-05	25.0780000687
850.0	9.12e-05	25.1089999676
850.0	9.18e-05	25.1559998989
850.0	9.2e-05	25.1879999638
850.0	9.21e-05	25.2190001011
850.0	9.27e-05	25.2660000324
850.0	9.32e-05	25.2969999313
850.0	9.37e-05	25.3440001011
850.0	9.4e-05	25.375
850.0	9.41e-05	25.4059998989
850.0	9.41e-05	25.4530000687
850.0	9.41e-05	25.4839999676
850.0	9.4e-05	25.5160000324
850.0	9.37e-05	25.5629999638
850.0	9.33e-05	25.5940001011
850.0	9.33e-05	25.625
850.0	9.35e-05	25.6719999313
850.0	9.37e-05	25.7030000687
850.0	9.37e-05	25.7339999676
850.0	9.35e-05	25.7809998989
850.0	9.35e-05	25.8129999638
850.0	9.35e-05	25.8589999676
850.0	9.35e-05	25.8910000324
850.0	9.35e-05	25.9219999313
850.0	9.4e-05	25.9690001011
850.0	9.43e-05	26.0
850.0	9.41e-05	26.0309998989
850.0	9.4e-05	26.0780000687
850.0	9.37e-05	26.1089999676
850.0	9.37e-05	26.1559998989
850.0	9.4e-05	26.1879999638
850.0	9.4e-05	26.2190001011
850.0	9.37e-05	26.2660000324
850.0	9.35e-05	26.2969999313
850.0	9.33e-05	26.3280000687
850.0	9.32e-05	26.375
850.0	9.33e-05	26.4059998989
850.0	9.32e-05	26.4379999638
850.0	9.32e-05	26.4839999676
860.0	9.68e-05	26.7809998989
860.0	9.78e-05	26.8280000687
860.0	9.85e-05	26.8589999676
860.0	9.93e-05	26.9059998989
860.0	0.0001001	26.9379999638
860.0	0.000101	26.9839999676
860.0	0.0001018	27.0309998989
860.0	0.0001021	27.0629999638
860.0	0.0001027	27.1089999676
860.0	0.0001028	27.1410000324
860.0	0.0001032	27.1879999638
860.0	0.0001032	27.2339999676
860.0	0.0001033	27.2660000324
860.0	0.0001032	27.3129999638
860.0	0.0001031	27.3589999676
860.0	0.0001031	27.3910000324
860.0	0.0001031	27.4379999638
860.0	0.0001035	27.4690001011
860.0	0.0001038	27.5160000324
860.0	0.0001037	27.5629999638
860.0	0.0001037	27.5940001011
860.0	0.0001037	27.6410000324
860.0	0.0001033	27.6879999638
860.0	0.0001033	27.7190001011
860.0	0.0001032	27.7660000324
860.0	0.0001032	27.7969999313
860.0	0.0001032	27.8440001011
860.0	0.0001032	27.8910000324
860.0	0.0001033	27.9219999313
860.0	0.0001037	27.9690001011
860.0	0.0001041	28.0160000324
860.0	0.0001043	28.0469999313
860.0	0.0001038	28.0940001011
860.0	0.0001035	28.1410000324
860.0	0.0001033	28.1719999313
860.0	0.0001032	28.2190001011
860.0	0.0001031	28.25
870.0	0.0001076	28.5780000687
870.0	0.0001091	28.6089999676
870.0	0.0001103	28.6559998989
870.0	0.0001115	28.6879999638
870.0	0.0001122	28.7339999676
870.0	0.0001131	28.7809998989
870.0	0.0001135	28.8129999638
870.0	0.0001137	28.8589999676
870.0	0.0001137	28.9059998989
870.0	0.0001138	28.9379999638
870.0	0.000114	28.9839999676
870.0	0.0001138	29.0309998989
870.0	0.0001141	29.0629999638
870.0	0.0001141	29.1089999676
870.0	0.0001138	29.1410000324
870.0	0.0001137	29.1879999638
870.0	0.000114	29.2339999676
870.0	0.0001143	29.2660000324
870.0	0.0001143	29.3129999638
870.0	0.0001143	29.3589999676
870.0	0.0001145	29.3910000324
870.0	0.0001141	29.4379999638
870.0	0.0001135	29.4690001011
870.0	0.0001135	29.5160000324
870.0	0.0001137	29.5629999638
870.0	0.0001138	29.5940001011
870.0	0.0001143	29.6410000324
870.0	0.0001145	29.6879999638
870.0	0.0001146	29.7190001011
870.0	0.0001145	29.7660000324
870.0	0.0001146	29.8129999638
870.0	0.0001147	29.8440001011
870.0	0.000115	29.8910000324
870.0	0.000115	29.9219999313
870.0	0.0001146	29.9690001011
870.0	0.0001143	30.0160000324
870.0	0.000114	30.0469999313
880.0	0.0001193	30.3589999676
880.0	0.0001208	30.4059998989
880.0	0.0001225	30.4379999638
880.0	0.0001232	30.4839999676
880.0	0.000124	30.5309998989
880.0	0.0001246	30.5629999638
880.0	0.0001256	30.6089999676
880.0	0.000126	30.6559998989
880.0	0.000126	30.6879999638
880.0	0.0001265	30.7339999676
880.0	0.0001268	30.7660000324
880.0	0.0001266	30.8129999638
880.0	0.0001266	30.8589999676
880.0	0.0001268	30.8910000324
880.0	0.000127	30.9379999638
880.0	0.0001271	30.9839999676
880.0	0.0001272	31.0160000324
880.0	0.0001276	31.0629999638
880.0	0.0001275	31.1089999676
880.0	0.0001275	31.1410000324
880.0	0.0001275	31.1879999638
880.0	0.0001276	31.2190001011
880.0	0.0001278	31.2660000324
880.0	0.0001281	31.3129999638
880.0	0.0001277	31.3440001011
880.0	0.0001277	31.3910000324
880.0	0.0001276	31.4379999638
880.0	0.0001271	31.4690001011
880.0	0.0001271	31.5160000324
880.0	0.0001271	31.5469999313
880.0	0.0001272	31.5940001011
880.0	0.0001272	31.6410000324
880.0	0.0001275	31.6719999313
880.0	0.000127	31.7190001011
880.0	0.000127	31.7660000324
880.0	0.0001276	31.7969999313
880.0	0.0001277	31.8440001011
890.0	0.0001335	32.1559998989
890.0	0.000135	32.1879999638
890.0	0.0001363	32.2339999676
890.0	0.0001381	32.2660000324
890.0	0.0001391	32.3129999638
890.0	0.0001395	32.3589999676
890.0	0.00014	32.3910000324
890.0	0.0001403	32.4379999638
890.0	0.0001403	32.4839999676
890.0	0.0001402	32.5160000324
890.0	0.0001403	32.5629999638
890.0	0.0001403	32.5940001011
890.0	0.0001406	32.6410000324
890.0	0.000141	32.6879999638
890.0	0.0001416	32.7339999676
890.0	0.0001416	32.7660000324
890.0	0.0001415	32.8129999638
890.0	0.0001413	32.8589999676
890.0	0.0001418	32.8910000324
890.0	0.0001421	32.9379999638
890.0	0.0001421	32.9690001011
890.0	0.0001421	33.0160000324
890.0	0.0001427	33.0629999638
890.0	0.0001428	33.0940001011
890.0	0.0001431	33.1410000324
890.0	0.0001433	33.1879999638
890.0	0.0001433	33.2190001011
890.0	0.0001433	33.2660000324
890.0	0.0001433	33.2969999313
890.0	0.0001431	33.3440001011
890.0	0.0001427	33.3910000324
890.0	0.0001427	33.4219999313
890.0	0.0001425	33.4690001011
890.0	0.000142	33.5160000324
890.0	0.0001418	33.5469999313
890.0	0.0001418	33.5940001011
890.0	0.000142	33.625
900.0	0.0001483	33.9379999638
900.0	0.00015	33.9839999676
900.0	0.0001516	34.0160000324
900.0	0.0001531	34.0629999638
900.0	0.0001543	34.0940001011
900.0	0.0001552	34.1410000324
900.0	0.0001562	34.1879999638
900.0	0.000157	34.2190001011
900.0	0.0001575	34.2660000324
900.0	0.0001576	34.3129999638
900.0	0.0001577	34.3440001011
900.0	0.0001582	34.3910000324
900.0	0.0001583	34.4219999313
900.0	0.0001583	34.4690001011
900.0	0.0001581	34.5160000324
900.0	0.0001577	34.5469999313
900.0	0.0001577	34.6089999676
900.0	0.0001575	34.6410000324
900.0	0.0001568	34.6879999638
900.0	0.0001565	34.7339999676
900.0	0.0001562	34.7660000324
900.0	0.0001563	34.8129999638
900.0	0.0001563	34.8589999676
900.0	0.0001563	34.8910000324
900.0	0.0001568	34.9379999638
900.0	0.0001572	34.9690001011
900.0	0.0001578	35.0160000324
900.0	0.0001578	35.0629999638
900.0	0.0001581	35.0940001011
900.0	0.0001581	35.1410000324
900.0	0.0001581	35.1879999638
900.0	0.0001582	35.2190001011
900.0	0.0001583	35.2660000324
900.0	0.0001582	35.2969999313
900.0	0.0001585	35.3440001011
900.0	0.0001587	35.3910000324
910.0	0.0001646	35.6879999638
910.0	0.0001671	35.7339999676
910.0	0.000169	35.7809998989
910.0	0.0001707	35.8129999638
910.0	0.0001721	35.8589999676
910.0	0.0001731	35.9059998989
910.0	0.000174	35.9379999638
910.0	0.0001751	35.9839999676
910.0	0.0001753	36.0160000324
910.0	0.0001757	36.0629999638
910.0	0.0001758	36.1089999676
910.0	0.0001757	36.1410000324
910.0	0.0001756	36.1879999638
910.0	0.0001753	36.2339999676
910.0	0.0001752	36.2660000324
910.0	0.0001756	36.3129999638
910.0	0.0001756	36.3440001011
910.0	0.0001758	36.3910000324
910.0	0.0001758	36.4379999638
910.0	0.000176	36.4690001011
910.0	0.000176	36.5160000324
910.0	0.0001757	36.5629999638
910.0	0.0001758	36.5940001011
910.0	0.0001758	36.6410000324
910.0	0.0001753	36.6879999638
910.0	0.0001751	36.7190001011
910.0	0.000175	36.7660000324
910.0	0.0001746	36.7969999313
910.0	0.0001745	36.8440001011
910.0	0.0001751	36.8910000324
910.0	0.0001752	36.9219999313
910.0	0.0001752	36.9690001011
910.0	0.0001757	37.0160000324
910.0	0.0001758	37.0469999313
910.0	0.0001757	37.0940001011
910.0	0.0001758	37.125
910.0	0.0001758	37.1719999313
920.0	0.0001828	37.4690001011
920.0	0.0001856	37.5160000324
920.0	0.0001878	37.5629999638
920.0	0.0001897	37.5940001011
920.0	0.0001918	37.6410000324
920.0	0.0001931	37.6719999313
920.0	0.0001935	37.7190001011
920.0	0.0001945	37.7660000324
920.0	0.0001951	37.7969999313
920.0	0.0001952	37.8440001011
920.0	0.0001953	37.8910000324
920.0	0.0001953	37.9219999313
920.0	0.0001957	37.9690001011
920.0	0.0001958	38.0
920.0	0.000196	38.0469999313
920.0	0.000196	38.0940001011
920.0	0.0001957	38.125
920.0	0.0001951	38.1719999313
920.0	0.0001947	38.2190001011
920.0	0.0001947	38.25
920.0	0.0001947	38.2969999313
920.0	0.0001946	38.3280000687
920.0	0.0001945	38.375
920.0	0.0001946	38.4219999313
920.0	0.0001951	38.4530000687
920.0	0.0001952	38.5
920.0	0.0001953	38.5469999313
920.0	0.0001956	38.5780000687
920.0	0.0001958	38.625
920.0	0.0001962	38.6559998989
920.0	0.0001962	38.7030000687
920.0	0.000196	38.75
920.0	0.000196	38.7809998989
920.0	0.0001962	38.8280000687
920.0	0.0001958	38.875
920.0	0.0001957	38.9059998989
920.0	0.0001956	38.9530000687
930.0	0.0002037	39.25
930.0	0.0002062	39.2969999313
930.0	0.0002083	39.3440001011
930.0	0.0002103	39.375
930.0	0.0002121	39.4219999313
930.0	0.0002132	39.4530000687
930.0	0.0002137	39.5
930.0	0.000214	39.5469999313
930.0	0.0002147	39.5780000687
930.0	0.0002153	39.625
930.0	0.0002162	39.6719999313
930.0	0.0002166	39.7030000687
930.0	0.0002166	39.75
930.0	0.0002165	39.7809998989
930.0	0.0002165	39.8280000687
930.0	0.0002163	39.875
930.0	0.000216	39.9059998989
930.0	0.000216	39.9530000687
930.0	0.000216	40.0
930.0	0.000216	40.0309998989
930.0	0.0002158	40.0780000687
930.0	0.0002158	40.1089999676
930.0	0.0002163	40.1559998989
930.0	0.0002166	40.2030000687
930.0	0.000217	40.2339999676
930.0	0.0002166	40.2809998989
930.0	0.0002162	40.3280000687
930.0	0.000216	40.3589999676
930.0	0.0002158	40.4059998989
930.0	0.0002163	40.4530000687
930.0	0.0002166	40.4839999676
930.0	0.0002166	40.5309998989
930.0	0.000217	40.5629999638
930.0	0.000217	40.6089999676
930.0	0.000217	40.6559998989
930.0	0.0002166	40.6879999638
930.0	0.0002163	40.7339999676
940.0	0.000225	41.0309998989
940.0	0.0002266	41.0780000687
940.0	0.0002287	41.1089999676
940.0	0.0002306	41.1559998989
940.0	0.000232	41.2030000687
940.0	0.0002331	41.2339999676
940.0	0.000234	41.2809998989
940.0	0.0002346	41.3280000687
940.0	0.0002351	41.3589999676
940.0	0.0002356	41.4059998989
940.0	0.000236	41.4379999638
940.0	0.0002363	41.4839999676
940.0	0.000237	41.5309998989
940.0	0.0002372	41.5629999638
940.0	0.0002377	41.6089999676
940.0	0.0002382	41.6559998989
940.0	0.0002385	41.6879999638
940.0	0.0002382	41.7339999676
940.0	0.0002378	41.7660000324
940.0	0.0002376	41.8129999638
940.0	0.0002375	41.8589999676
940.0	0.0002372	41.8910000324
940.0	0.0002372	41.9379999638
940.0	0.000237	41.9839999676
940.0	0.0002368	42.0160000324
940.0	0.0002371	42.0629999638
940.0	0.0002372	42.1089999676
940.0	0.0002371	42.1410000324
940.0	0.0002368	42.1879999638
940.0	0.000237	42.2190001011
940.0	0.000237	42.2660000324
940.0	0.0002366	42.3129999638
940.0	0.0002363	42.3440001011
940.0	0.0002363	42.3910000324
940.0	0.0002365	42.4379999638
940.0	0.0002365	42.4690001011
940.0	0.0002366	42.5160000324
950.0	0.0002457	42.8129999638
950.0	0.0002482	42.8440001011
950.0	0.00025	42.8910000324
950.0	0.0002515	42.9379999638
950.0	0.0002531	42.9690001011
950.0	0.0002543	43.0160000324
950.0	0.0002553	43.0469999313
950.0	0.0002562	43.0940001011
950.0	0.0002566	43.1410000324
950.0	0.000257	43.1719999313
950.0	0.0002575	43.2190001011
950.0	0.0002577	43.2660000324
950.0	0.0002578	43.2969999313
950.0	0.0002582	43.3440001011
950.0	0.0002587	43.3910000324
950.0	0.0002587	43.4219999313
950.0	0.0002583	43.4690001011
950.0	0.0002581	43.5
950.0	0.0002581	43.5469999313
950.0	0.0002583	43.5940001011
950.0	0.0002583	43.625
950.0	0.0002581	43.6719999313
950.0	0.0002578	43.7190001011
950.0	0.0002582	43.75
950.0	0.0002585	43.7969999313
950.0	0.0002582	43.8280000687
950.0	0.0002577	43.875
950.0	0.0002576	43.9219999313
950.0	0.0002572	43.9530000687
950.0	0.0002571	44.0
950.0	0.0002571	44.0469999313
950.0	0.0002572	44.0780000687
950.0	0.0002571	44.125
950.0	0.0002572	44.1559998989
950.0	0.0002577	44.2030000687
950.0	0.0002581	44.25
950.0	0.0002582	44.2809998989
960.0	0.0002668	44.5780000687
960.0	0.0002696	44.6089999676
960.0	0.000272	44.6559998989
960.0	0.0002737	44.7030000687
960.0	0.000275	44.7339999676
960.0	0.0002757	44.7809998989
960.0	0.0002766	44.8280000687
960.0	0.0002771	44.8589999676
960.0	0.0002775	44.9059998989
960.0	0.0002778	44.9379999638
960.0	0.0002782	44.9839999676
960.0	0.0002785	45.0309998989
960.0	0.0002791	45.0629999638
960.0	0.0002793	45.1089999676
960.0	0.0002793	45.1559998989
960.0	0.0002793	45.1879999638
960.0	0.0002793	45.2339999676
960.0	0.0002795	45.2660000324
960.0	0.0002797	45.3129999638
960.0	0.00028	45.3589999676
960.0	0.00028	45.3910000324
960.0	0.0002793	45.4379999638
960.0	0.0002791	45.4839999676
960.0	0.0002793	45.5160000324
960.0	0.0002793	45.5629999638
960.0	0.0002791	45.5940001011
960.0	0.0002785	45.6410000324
960.0	0.0002782	45.6879999638
960.0	0.0002782	45.7190001011
960.0	0.0002781	45.7660000324
960.0	0.0002778	45.8129999638
960.0	0.0002781	45.8440001011
960.0	0.0002781	45.8910000324
960.0	0.0002782	45.9219999313
960.0	0.0002781	45.9690001011
960.0	0.0002782	46.0160000324
960.0	0.0002783	46.0469999313
970.0	0.0002857	46.3280000687
970.0	0.0002881	46.375
970.0	0.0002903	46.4219999313
970.0	0.0002925	46.4530000687
970.0	0.0002943	46.5
970.0	0.0002953	46.5309998989
970.0	0.0002962	46.5780000687
970.0	0.0002968	46.625
970.0	0.000297	46.6559998989
970.0	0.0002971	46.7030000687
970.0	0.0002976	46.75
970.0	0.0002976	46.7809998989
970.0	0.0002976	46.8280000687
970.0	0.0002978	46.8589999676
970.0	0.0002981	46.9059998989
970.0	0.0002983	46.9530000687
970.0	0.0002991	46.9839999676
970.0	0.0002996	47.0309998989
970.0	0.0003001	47.0780000687
970.0	0.0003003	47.1089999676
970.0	0.0003002	47.1559998989
970.0	0.0003	47.1879999638
970.0	0.0002993	47.2339999676
970.0	0.0002991	47.2809998989
970.0	0.000299	47.3129999638
970.0	0.0002991	47.3589999676
970.0	0.0002995	47.4059998989
970.0	0.0002993	47.4379999638
970.0	0.0002991	47.4839999676
970.0	0.0002991	47.5160000324
970.0	0.0002991	47.5629999638
970.0	0.0002991	47.6089999676
970.0	0.0002993	47.6410000324
970.0	0.0002996	47.6879999638
970.0	0.0003	47.7339999676
970.0	0.0002997	47.7660000324
970.0	0.0003	47.8129999638
980.0	0.0003068	48.0940001011
980.0	0.0003093	48.125
980.0	0.0003112	48.1719999313
980.0	0.0003126	48.2190001011
980.0	0.0003138	48.25
980.0	0.000315	48.2969999313
980.0	0.0003156	48.3440001011
980.0	0.000316	48.375
980.0	0.0003166	48.4219999313
980.0	0.0003171	48.4530000687
980.0	0.0003176	48.5
980.0	0.0003177	48.5469999313
980.0	0.0003183	48.5940001011
980.0	0.0003188	48.625
980.0	0.0003191	48.6719999313
980.0	0.0003193	48.7030000687
980.0	0.0003193	48.75
980.0	0.000319	48.7969999313
980.0	0.000319	48.8280000687
980.0	0.0003188	48.875
980.0	0.0003187	48.9219999313
980.0	0.0003188	48.9530000687
980.0	0.0003188	49.0
980.0	0.0003187	49.0309998989
980.0	0.0003185	49.0780000687
980.0	0.0003185	49.125
980.0	0.000319	49.1559998989
980.0	0.000319	49.2030000687
980.0	0.000319	49.25
980.0	0.0003187	49.2809998989
980.0	0.0003183	49.3280000687
980.0	0.0003177	49.375
980.0	0.0003176	49.4059998989
980.0	0.0003172	49.4530000687
980.0	0.0003171	49.4839999676
980.0	0.0003171	49.5309998989
980.0	0.0003171	49.5780000687
990.0	0.0003258	49.8589999676
990.0	0.0003282	49.8910000324
990.0	0.00033	49.9379999638
990.0	0.0003315	49.9690001011
990.0	0.0003326	50.0160000324
990.0	0.0003332	50.0629999638
990.0	0.0003337	50.0940001011
990.0	0.0003342	50.1410000324
990.0	0.0003346	50.1879999638
990.0	0.0003351	50.2190001011
990.0	0.0003357	50.2660000324
990.0	0.0003361	50.2969999313
990.0	0.0003365	50.3440001011
990.0	0.0003365	50.3910000324
990.0	0.0003362	50.4219999313
990.0	0.0003362	50.4690001011
990.0	0.0003362	50.5160000324
990.0	0.0003362	50.5469999313
990.0	0.0003358	50.5940001011
990.0	0.0003361	50.625
990.0	0.0003361	50.6719999313
990.0	0.0003362	50.7190001011
990.0	0.0003363	50.75
990.0	0.0003363	50.7969999313
990.0	0.0003367	50.8440001011
990.0	0.0003367	50.875
990.0	0.0003365	50.9219999313
990.0	0.0003362	50.9690001011
990.0	0.0003358	51.0
990.0	0.0003361	51.0469999313
990.0	0.0003365	51.0780000687
990.0	0.0003367	51.125
990.0	0.0003365	51.1719999313
990.0	0.0003363	51.2030000687
990.0	0.0003362	51.25
990.0	0.0003358	51.2969999313
990.0	0.0003355	51.3280000687
1000.0	0.0003425	51.6089999676
1000.0	0.000345	51.6410000324
1000.0	0.0003471	51.6879999638
1000.0	0.000349	51.7339999676
1000.0	0.0003505	51.7660000324
1000.0	0.0003513	51.8129999638
1000.0	0.0003525	51.8589999676
1000.0	0.0003532	51.8910000324
1000.0	0.0003538	51.9379999638
1000.0	0.0003542	51.9690001011
1000.0	0.0003543	52.0160000324
1000.0	0.0003545	52.0629999638
1000.0	0.0003548	52.0940001011
1000.0	0.0003552	52.1410000324
1000.0	0.0003555	52.1879999638
1000.0	0.0003551	52.2190001011
1000.0	0.0003545	52.2660000324
1000.0	0.000354	52.2969999313
1000.0	0.0003537	52.3440001011
1000.0	0.0003536	52.3910000324
1000.0	0.0003536	52.4219999313
1000.0	0.0003537	52.4690001011
1000.0	0.0003542	52.5160000324
1000.0	0.0003546	52.5469999313
1000.0	0.0003548	52.5940001011
1000.0	0.0003548	52.6410000324
1000.0	0.0003548	52.6719999313
1000.0	0.0003548	52.7190001011
1000.0	0.0003548	52.75
1000.0	0.000355	52.7969999313
1000.0	0.0003548	52.8440001011
1000.0	0.0003545	52.875
1000.0	0.0003542	52.9219999313
1000.0	0.0003538	52.9690001011
1000.0	0.000354	53.0
1000.0	0.0003546	53.0469999313
1000.0	0.0003552	53.0780000687
1010.0	0.0003615	53.3589999676
1010.0	0.0003636	53.4059998989
1010.0	0.0003656	53.4379999638
1010.0	0.0003676	53.4839999676
1010.0	0.0003692	53.5309998989
1010.0	0.0003701	53.5629999638
1010.0	0.0003713	53.6089999676
1010.0	0.000372	53.6410000324
1010.0	0.0003723	53.6879999638
1010.0	0.0003726	53.7339999676
1010.0	0.0003731	53.7660000324
1010.0	0.0003731	53.8129999638
1010.0	0.000373	53.8589999676
1010.0	0.0003733	53.8910000324
1010.0	0.0003737	53.9379999638
1010.0	0.000374	53.9690001011
1010.0	0.0003743	54.0160000324
1010.0	0.0003745	54.0629999638
1010.0	0.0003746	54.0940001011
1010.0	0.0003748	54.1410000324
1010.0	0.0003746	54.1879999638
1010.0	0.0003748	54.2190001011
1010.0	0.0003751	54.2660000324
1010.0	0.0003751	54.2969999313
1010.0	0.0003748	54.3440001011
1010.0	0.0003745	54.3910000324
1010.0	0.0003743	54.4219999313
1010.0	0.000374	54.4690001011
1010.0	0.0003737	54.5160000324
1010.0	0.0003737	54.5469999313
1010.0	0.0003736	54.5940001011
1010.0	0.0003736	54.6410000324
1010.0	0.0003736	54.6719999313
1010.0	0.0003737	54.7190001011
1010.0	0.0003738	54.75
1010.0	0.0003742	54.7969999313
1010.0	0.0003742	54.8440001011
1020.0	0.0003808	55.1089999676
1020.0	0.0003836	55.1559998989
1020.0	0.0003855	55.2030000687
1020.0	0.0003868	55.2339999676
1020.0	0.0003877	55.2809998989
1020.0	0.0003883	55.3280000687
1020.0	0.0003895	55.3589999676
1020.0	0.0003901	55.4059998989
1020.0	0.0003906	55.4530000687
1020.0	0.0003912	55.4839999676
1020.0	0.0003915	55.5309998989
1020.0	0.0003913	55.5629999638
1020.0	0.0003917	55.6089999676
1020.0	0.0003915	55.6559998989
1020.0	0.0003917	55.6879999638
1020.0	0.000392	55.7339999676
1020.0	0.0003921	55.7809998989
1020.0	0.0003925	55.8129999638
1020.0	0.0003923	55.8589999676
1020.0	0.0003925	55.8910000324
1020.0	0.000392	55.9379999638
1020.0	0.0003917	55.9839999676
1020.0	0.0003917	56.0160000324
1020.0	0.0003918	56.0629999638
1020.0	0.0003917	56.1089999676
1020.0	0.0003923	56.1410000324
1020.0	0.0003926	56.1879999638
1020.0	0.000393	56.2190001011
1020.0	0.000393	56.2660000324
1020.0	0.0003931	56.3129999638
1020.0	0.0003933	56.3440001011
1020.0	0.0003932	56.3910000324
1020.0	0.0003932	56.4379999638
1020.0	0.0003931	56.4690001011
1020.0	0.0003926	56.5160000324
1020.0	0.0003921	56.5629999638
1020.0	0.000392	56.5940001011
1030.0	0.0003987	56.875
1030.0	0.0004012	56.9219999313
1030.0	0.0004032	56.9530000687
1030.0	0.0004048	57.0
1030.0	0.0004061	57.0469999313
1030.0	0.0004068	57.0780000687
1030.0	0.0004077	57.125
1030.0	0.0004082	57.1559998989
1030.0	0.0004087	57.2030000687
1030.0	0.0004095	57.25
1030.0	0.0004101	57.2809998989
1030.0	0.0004101	57.3280000687
1030.0	0.0004101	57.375
1030.0	0.0004101	57.4059998989
1030.0	0.0004101	57.4530000687
1030.0	0.0004101	57.4839999676
1030.0	0.00041	57.5309998989
1030.0	0.0004098	57.5780000687
1030.0	0.0004096	57.6089999676
1030.0	0.0004095	57.6559998989
1030.0	0.0004092	57.7030000687
1030.0	0.0004095	57.7339999676
1030.0	0.0004098	57.7809998989
1030.0	0.0004101	57.8129999638
1030.0	0.0004105	57.8589999676
1030.0	0.0004107	57.9059998989
1030.0	0.0004105	57.9379999638
1030.0	0.0004101	57.9839999676
1030.0	0.0004105	58.0309998989
1030.0	0.0004105	58.0629999638
1030.0	0.0004102	58.1089999676
1030.0	0.0004102	58.1410000324
1030.0	0.0004105	58.1879999638
1030.0	0.0004105	58.2339999676
1030.0	0.0004106	58.2660000324
1030.0	0.0004105	58.3129999638
1030.0	0.0004101	58.3589999676
1040.0	0.0004176	58.6410000324
1040.0	0.0004198	58.6719999313
1040.0	0.0004223	58.7190001011
1040.0	0.0004243	58.75
1040.0	0.0004257	58.7969999313
1040.0	0.0004263	58.8440001011
1040.0	0.0004273	58.875
1040.0	0.000428	58.9219999313
1040.0	0.0004283	58.9690001011
1040.0	0.0004288	59.0
1040.0	0.000429	59.0469999313
1040.0	0.0004293	59.0780000687
1040.0	0.0004296	59.125
1040.0	0.0004298	59.1719999313
1040.0	0.0004295	59.2030000687
1040.0	0.0004292	59.25
1040.0	0.0004292	59.2969999313
1040.0	0.0004288	59.3280000687
1040.0	0.0004288	59.375
1040.0	0.0004292	59.4059998989
1040.0	0.0004292	59.4530000687
1040.0	0.0004293	59.5
1040.0	0.0004295	59.5309998989
1040.0	0.0004296	59.5780000687
1040.0	0.0004295	59.625
1040.0	0.0004295	59.6559998989
1040.0	0.0004296	59.7030000687
1040.0	0.0004296	59.7339999676
1040.0	0.0004296	59.7809998989
1040.0	0.0004296	59.8280000687
1040.0	0.0004295	59.8589999676
1040.0	0.0004295	59.9059998989
1040.0	0.0004293	59.9530000687
1040.0	0.000429	59.9839999676
1040.0	0.0004288	60.0309998989
1040.0	0.0004293	60.0780000687
1040.0	0.0004295	60.1089999676
1050.0	0.0004367	60.3910000324
1050.0	0.0004387	60.4379999638
1050.0	0.0004407	60.4839999676
1050.0	0.0004423	60.5160000324
1050.0	0.0004433	60.5629999638
1050.0	0.0004445	60.5940001011
1050.0	0.0004452	60.6410000324
1050.0	0.0004456	60.6879999638
1050.0	0.0004461	60.7190001011
1050.0	0.0004463	60.7660000324
1050.0	0.0004463	60.8129999638
1050.0	0.0004462	60.8440001011
1050.0	0.0004467	60.8910000324
1050.0	0.0004471	60.9219999313
1050.0	0.0004475	60.9690001011
1050.0	0.0004477	61.0160000324
1050.0	0.0004477	61.0469999313
1050.0	0.0004476	61.0940001011
1050.0	0.000448	61.1410000324
1050.0	0.0004482	61.1719999313
1050.0	0.0004482	61.2190001011
1050.0	0.0004481	61.25
1050.0	0.000448	61.2969999313
1050.0	0.0004476	61.3440001011
1050.0	0.0004475	61.375
1050.0	0.0004475	61.4219999313
1050.0	0.0004471	61.4690001011
1050.0	0.0004467	61.5
1050.0	0.0004468	61.5469999313
1050.0	0.000447	61.5940001011
1050.0	0.0004468	61.625
1050.0	0.000447	61.6719999313
1050.0	0.000447	61.7030000687
1050.0	0.0004468	61.75
1050.0	0.0004468	61.7969999313
1050.0	0.0004467	61.8280000687
1050.0	0.000447	61.875
1060.0	0.000455	62.1559998989
1060.0	0.0004576	62.2030000687
1060.0	0.0004598	62.2339999676
1060.0	0.0004612	62.2809998989
1060.0	0.0004627	62.3280000687
1060.0	0.000464	62.3589999676
1060.0	0.000465	62.4059998989
1060.0	0.0004655	62.4379999638
1060.0	0.0004661	62.4839999676
1060.0	0.0004667	62.5309998989
1060.0	0.0004667	62.5629999638
1060.0	0.0004667	62.6089999676
1060.0	0.0004665	62.6559998989
1060.0	0.0004663	62.6879999638
1060.0	0.0004663	62.7339999676
1060.0	0.0004665	62.7660000324
1060.0	0.0004663	62.8129999638
1060.0	0.0004663	62.8589999676
1060.0	0.0004667	62.8910000324
1060.0	0.0004668	62.9379999638
1060.0	0.0004667	62.9839999676
1060.0	0.0004663	63.0160000324
1060.0	0.0004661	63.0629999638
1060.0	0.0004657	63.1089999676
1060.0	0.0004658	63.1410000324
1060.0	0.0004661	63.1879999638
1060.0	0.0004661	63.2190001011
1060.0	0.0004662	63.2660000324
1060.0	0.0004665	63.3129999638
1060.0	0.0004667	63.3440001011
1060.0	0.0004668	63.3910000324
1060.0	0.0004671	63.4379999638
1060.0	0.0004671	63.4690001011
1060.0	0.0004667	63.5160000324
1060.0	0.0004661	63.5469999313
1060.0	0.0004661	63.5940001011
1060.0	0.0004662	63.6410000324
1070.0	0.0004721	63.9219999313
1070.0	0.0004742	63.9530000687
1070.0	0.0004763	64.0
1070.0	0.0004776	64.0309998989
1070.0	0.0004792	64.0780000687
1070.0	0.0004802	64.125
1070.0	0.0004808	64.1559998989
1070.0	0.0004812	64.2030000687
1070.0	0.0004818	64.25
1070.0	0.0004823	64.2809998989
1070.0	0.000483	64.3280000687
1070.0	0.0004836	64.3589999676
1070.0	0.0004837	64.4059998989
1070.0	0.0004833	64.4530000687
1070.0	0.000483	64.4839999676
1070.0	0.000483	64.5309998989
1070.0	0.0004831	64.5780000687
1070.0	0.0004827	64.6089999676
1070.0	0.0004827	64.6559998989
1070.0	0.0004832	64.7030000687
1070.0	0.0004836	64.7339999676
1070.0	0.0004837	64.7809998989
1070.0	0.0004833	64.8280000687
1070.0	0.0004836	64.8589999676
1070.0	0.000484	64.9059998989
1070.0	0.0004838	64.9530000687
1070.0	0.0004842	64.9839999676
1070.0	0.0004845	65.0309998989
1070.0	0.0004845	65.0629999638
1070.0	0.0004843	65.1089999676
1070.0	0.0004842	65.1559998989
1070.0	0.0004842	65.1879999638
1070.0	0.0004845	65.2339999676
1070.0	0.0004848	65.2809998989
1070.0	0.0004851	65.3129999638
1070.0	0.0004851	65.3589999676
1070.0	0.0004848	65.3910000324
1080.0	0.0004895	65.6719999313
1080.0	0.0004917	65.7190001011
1080.0	0.0004932	65.7660000324
1080.0	0.0004946	65.7969999313
1080.0	0.0004962	65.8440001011
1080.0	0.0004971	65.875
1080.0	0.0004977	65.9219999313
1080.0	0.0004981	65.9690001011
1080.0	0.0004983	66.0
1080.0	0.0004982	66.0469999313
1080.0	0.0004983	66.0940001011
1080.0	0.0004982	66.125
1080.0	0.000498	66.1719999313
1080.0	0.0004977	66.2190001011
1080.0	0.000498	66.25
1080.0	0.0004981	66.2969999313
1080.0	0.0004983	66.3280000687
1080.0	0.0004988	66.375
1080.0	0.0004988	66.4219999313
1080.0	0.0004987	66.4530000687
1080.0	0.0004987	66.5
1080.0	0.000499	66.5309998989
1080.0	0.0004992	66.5780000687
1080.0	0.0004995	66.625
1080.0	0.0005	66.6559998989
1080.0	0.0004998	66.7030000687
1080.0	0.0004998	66.75
1080.0	0.0004998	66.7809998989
1080.0	0.0004998	66.8280000687
1080.0	0.0004998	66.875
1080.0	0.0004998	66.9059998989
1080.0	0.0004996	66.9530000687
1080.0	0.0004998	66.9839999676
1080.0	0.0004995	67.0309998989
1080.0	0.000499	67.0780000687
1080.0	0.0004987	67.1089999676
1080.0	0.0004986	67.1559998989
1090.0	0.0005031	67.4379999638
1090.0	0.0005051	67.4690001011
1090.0	0.0005067	67.5160000324
1090.0	0.000508	67.5469999313
1090.0	0.0005087	67.5940001011
1090.0	0.0005093	67.6410000324
1090.0	0.0005098	67.6719999313
1090.0	0.0005101	67.7190001011
1090.0	0.0005105	67.7660000324
1090.0	0.0005105	67.7969999313
1090.0	0.0005107	67.8440001011
1090.0	0.0005112	67.875
1090.0	0.0005112	67.9219999313
1090.0	0.0005112	67.9690001011
1090.0	0.0005113	68.0
1090.0	0.0005117	68.0469999313
1090.0	0.0005117	68.0940001011
1090.0	0.0005118	68.125
1090.0	0.0005115	68.1719999313
1090.0	0.0005111	68.2190001011
1090.0	0.0005111	68.25
1090.0	0.0005113	68.2969999313
1090.0	0.0005111	68.3280000687
1090.0	0.0005108	68.375
1090.0	0.0005107	68.4219999313
1090.0	0.0005105	68.4530000687
1090.0	0.0005105	68.5
1090.0	0.0005106	68.5469999313
1090.0	0.0005106	68.5780000687
1090.0	0.0005105	68.625
1090.0	0.0005102	68.6559998989
1090.0	0.0005105	68.7030000687
1090.0	0.0005105	68.75
1090.0	0.0005107	68.7809998989
1090.0	0.0005108	68.8280000687
1090.0	0.0005107	68.875
1090.0	0.0005106	68.9059998989
1100.0	0.0005136	69.1879999638
1100.0	0.0005146	69.2190001011
1100.0	0.0005161	69.2660000324
1100.0	0.0005168	69.3129999638
1100.0	0.0005176	69.3440001011
1100.0	0.0005182	69.3910000324
1100.0	0.0005188	69.4379999638
1100.0	0.0005193	69.4690001011
1100.0	0.0005201	69.5160000324
1100.0	0.0005207	69.5469999313
1100.0	0.0005207	69.5940001011
1100.0	0.0005207	69.6410000324
1100.0	0.0005207	69.6719999313
1100.0	0.0005205	69.7190001011
1100.0	0.0005205	69.7660000324
1100.0	0.0005202	69.7969999313
1100.0	0.0005201	69.8440001011
1100.0	0.0005201	69.8910000324
1100.0	0.0005201	69.9219999313
1100.0	0.00052	69.9690001011
1100.0	0.00052	70.0
1100.0	0.0005201	70.0469999313
1100.0	0.0005205	70.0940001011
1100.0	0.0005202	70.125
1100.0	0.0005206	70.1719999313
1100.0	0.0005208	70.2190001011
1100.0	0.0005206	70.25
1100.0	0.0005202	70.2969999313
1100.0	0.0005201	70.3280000687
1100.0	0.0005198	70.375
1100.0	0.0005193	70.4219999313
1100.0	0.0005192	70.4530000687
1100.0	0.0005188	70.5
1100.0	0.0005187	70.5469999313
1100.0	0.0005183	70.5780000687
1100.0	0.0005183	70.625
1100.0	0.0005182	70.6559998989
1110.0	0.0005223	70.9379999638
1110.0	0.000523	70.9690001011
1110.0	0.0005236	71.0160000324
1110.0	0.0005242	71.0629999638
1110.0	0.0005245	71.0940001011
1110.0	0.0005251	71.1410000324
1110.0	0.0005252	71.1879999638
1110.0	0.0005251	71.2190001011
1110.0	0.0005248	71.2660000324
1110.0	0.000525	71.2969999313
1110.0	0.0005251	71.3440001011
1110.0	0.0005255	71.3910000324
1110.0	0.0005257	71.4219999313
1110.0	0.0005262	71.4690001011
1110.0	0.0005263	71.5160000324
1110.0	0.0005265	71.5469999313
1110.0	0.0005263	71.5940001011
1110.0	0.0005261	71.625
1110.0	0.0005261	71.6719999313
1110.0	0.0005258	71.7190001011
1110.0	0.0005252	71.75
1110.0	0.0005251	71.7969999313
1110.0	0.0005248	71.8440001011
1110.0	0.0005245	71.875
1110.0	0.0005246	71.9219999313
1110.0	0.0005248	71.9690001011
1110.0	0.0005248	72.0
1110.0	0.0005251	72.0469999313
1110.0	0.0005255	72.0780000687
1110.0	0.0005256	72.125
1110.0	0.0005256	72.1719999313
1110.0	0.0005258	72.2030000687
1110.0	0.0005262	72.25
1110.0	0.0005261	72.2969999313
1110.0	0.0005265	72.3280000687
1110.0	0.0005265	72.375
1110.0	0.0005261	72.4059998989
1120.0	0.0005263	72.6719999313
1120.0	0.000527	72.7190001011
1120.0	0.0005275	72.7660000324
1120.0	0.0005282	72.7969999313
1120.0	0.0005287	72.8440001011
1120.0	0.000529	72.8910000324
1120.0	0.0005293	72.9219999313
1120.0	0.0005298	72.9690001011
1120.0	0.0005301	73.0160000324
1120.0	0.0005302	73.0469999313
1120.0	0.0005302	73.0940001011
1120.0	0.00053	73.125
1120.0	0.0005295	73.1719999313
1120.0	0.0005295	73.2190001011
1120.0	0.0005295	73.25
1120.0	0.0005295	73.2969999313
1120.0	0.0005296	73.3440001011
1120.0	0.0005298	73.375
1120.0	0.0005298	73.4219999313
1120.0	0.0005301	73.4530000687
1120.0	0.0005298	73.5
1120.0	0.0005296	73.5469999313
1120.0	0.0005298	73.5780000687
1120.0	0.0005302	73.625
1120.0	0.0005305	73.6719999313
1120.0	0.0005305	73.7030000687
1120.0	0.0005301	73.75
1120.0	0.0005302	73.7809998989
1120.0	0.0005301	73.8280000687
1120.0	0.0005302	73.875
1120.0	0.0005302	73.9059998989
1120.0	0.0005298	73.9530000687
1120.0	0.0005293	74.0
1120.0	0.0005293	74.0309998989
1120.0	0.0005288	74.0780000687
1120.0	0.0005288	74.1089999676
1120.0	0.0005287	74.1559998989
1130.0	0.0005295	74.4219999313
1130.0	0.0005298	74.4690001011
1130.0	0.0005298	74.5
1130.0	0.0005292	74.5469999313
1130.0	0.0005286	74.5940001011
1130.0	0.0005283	74.625
1130.0	0.0005283	74.6719999313
1130.0	0.0005286	74.7190001011
1130.0	0.000529	74.75
1130.0	0.0005292	74.7969999313
1130.0	0.0005295	74.8440001011
1130.0	0.0005298	74.875
1130.0	0.0005298	74.9219999313
1130.0	0.0005296	74.9530000687
1130.0	0.0005298	75.0
1130.0	0.0005302	75.0469999313
1130.0	0.0005305	75.0780000687
1130.0	0.0005302	75.125
1130.0	0.00053	75.1719999313
1130.0	0.0005296	75.2030000687
1130.0	0.0005296	75.25
1130.0	0.0005295	75.2809998989
1130.0	0.000529	75.3280000687
1130.0	0.0005288	75.375
1130.0	0.0005286	75.4059998989
1130.0	0.0005286	75.4530000687
1130.0	0.0005286	75.5
1130.0	0.0005288	75.5309998989
1130.0	0.000529	75.5780000687
1130.0	0.0005292	75.6089999676
1130.0	0.0005293	75.6559998989
1130.0	0.0005293	75.7030000687
1130.0	0.0005292	75.7339999676
1130.0	0.0005293	75.7809998989
1130.0	0.0005296	75.8280000687
1130.0	0.0005298	75.8589999676
1130.0	0.0005298	75.9059998989
1140.0	0.0005288	76.1719999313
1140.0	0.0005287	76.2030000687
1140.0	0.0005286	76.25
1140.0	0.0005287	76.2969999313
1140.0	0.0005286	76.3280000687
1140.0	0.0005282	76.375
1140.0	0.0005286	76.4059998989
1140.0	0.0005287	76.4530000687
1140.0	0.0005288	76.5
1140.0	0.0005283	76.5309998989
1140.0	0.000528	76.5780000687
1140.0	0.0005276	76.625
1140.0	0.0005275	76.6559998989
1140.0	0.0005276	76.7030000687
1140.0	0.0005277	76.7339999676
1140.0	0.0005281	76.7809998989
1140.0	0.0005283	76.8280000687
1140.0	0.0005286	76.8589999676
1140.0	0.000529	76.9059998989
1140.0	0.0005292	76.9530000687
1140.0	0.0005293	76.9839999676
1140.0	0.0005292	77.0309998989
1140.0	0.0005292	77.0629999638
1140.0	0.0005295	77.1089999676
1140.0	0.0005293	77.1559998989
1140.0	0.0005288	77.1879999638
1140.0	0.0005286	77.2339999676
1140.0	0.0005283	77.2809998989
1140.0	0.0005282	77.3129999638
1140.0	0.0005282	77.3589999676
1140.0	0.0005281	77.4059998989
1140.0	0.0005277	77.4379999638
1140.0	0.0005277	77.4839999676
1140.0	0.0005276	77.5160000324
1140.0	0.000528	77.5629999638
1140.0	0.0005283	77.6089999676
1140.0	0.0005286	77.6410000324
1150.0	0.0005275	77.9059998989
1150.0	0.0005273	77.9530000687
1150.0	0.0005275	77.9839999676
1150.0	0.0005275	78.0309998989
1150.0	0.0005273	78.0780000687
1150.0	0.000527	78.1089999676
1150.0	0.0005268	78.1559998989
1150.0	0.0005267	78.2030000687
1150.0	0.0005263	78.2339999676
1150.0	0.0005261	78.2809998989
1150.0	0.0005255	78.3129999638
1150.0	0.0005251	78.3589999676
1150.0	0.0005251	78.4059998989
1150.0	0.000525	78.4379999638
1150.0	0.0005251	78.4839999676
1150.0	0.0005251	78.5309998989
1150.0	0.0005251	78.5629999638
1150.0	0.0005255	78.6089999676
1150.0	0.0005255	78.6410000324
1150.0	0.0005255	78.6879999638
1150.0	0.0005257	78.7339999676
1150.0	0.0005261	78.7660000324
1150.0	0.0005258	78.8129999638
1150.0	0.0005257	78.8589999676
1150.0	0.0005257	78.8910000324
1150.0	0.0005257	78.9379999638
1150.0	0.0005256	78.9690001011
1150.0	0.0005255	79.0160000324
1150.0	0.0005251	79.0629999638
1150.0	0.0005248	79.0940001011
1150.0	0.0005252	79.1410000324
1150.0	0.0005257	79.1879999638
1150.0	0.0005255	79.2190001011
1150.0	0.0005256	79.2660000324
1150.0	0.0005261	79.2969999313
1150.0	0.0005263	79.3440001011
1150.0	0.0005261	79.3910000324
1160.0	0.0005248	79.6559998989
1160.0	0.0005238	79.6879999638
1160.0	0.0005233	79.7339999676
1160.0	0.0005232	79.7809998989
1160.0	0.000523	79.8129999638
1160.0	0.0005227	79.8589999676
1160.0	0.000523	79.9059998989
1160.0	0.000523	79.9379999638
1160.0	0.000523	79.9839999676
1160.0	0.0005232	80.0160000324
1160.0	0.0005231	80.0629999638
1160.0	0.000523	80.1089999676
1160.0	0.0005232	80.1410000324
1160.0	0.0005231	80.1879999638
1160.0	0.0005232	80.2339999676
1160.0	0.0005237	80.2660000324
1160.0	0.0005236	80.3129999638
1160.0	0.000523	80.3589999676
1160.0	0.0005231	80.3910000324
1160.0	0.0005233	80.4379999638
1160.0	0.0005232	80.4690001011
1160.0	0.000523	80.5160000324
1160.0	0.0005227	80.5629999638
1160.0	0.000523	80.5940001011
1160.0	0.000523	80.6410000324
1160.0	0.0005233	80.6879999638
1160.0	0.0005236	80.7190001011
1160.0	0.0005232	80.7660000324
1160.0	0.0005237	80.7969999313
1160.0	0.0005238	80.8440001011
1160.0	0.0005233	80.8910000324
1160.0	0.0005236	80.9219999313
1160.0	0.0005238	80.9690001011
1160.0	0.000524	81.0160000324
1160.0	0.0005236	81.0469999313
1160.0	0.0005236	81.0940001011
1160.0	0.0005237	81.125
1170.0	0.0005237	81.4059998989
1170.0	0.0005238	81.4379999638
1170.0	0.0005236	81.4839999676
1170.0	0.0005237	81.5309998989
1170.0	0.0005236	81.5629999638
1170.0	0.000523	81.6089999676
1170.0	0.0005225	81.6559998989
1170.0	0.000522	81.6879999638
1170.0	0.0005217	81.7339999676
1170.0	0.0005212	81.7660000324
1170.0	0.0005211	81.8129999638
1170.0	0.0005211	81.8589999676
1170.0	0.0005211	81.8910000324
1170.0	0.0005212	81.9379999638
1170.0	0.0005211	81.9839999676
1170.0	0.0005211	82.0160000324
1170.0	0.0005215	82.0629999638
1170.0	0.0005218	82.1089999676
1170.0	0.000522	82.1410000324
1170.0	0.0005225	82.1879999638
1170.0	0.0005227	82.2190001011
1170.0	0.0005223	82.2660000324
1170.0	0.0005223	82.3129999638
1170.0	0.0005223	82.3440001011
1170.0	0.0005221	82.3910000324
1170.0	0.0005218	82.4379999638
1170.0	0.0005218	82.4690001011
1170.0	0.000522	82.5160000324
1170.0	0.0005217	82.5469999313
1170.0	0.0005215	82.5940001011
1170.0	0.0005211	82.6410000324
1170.0	0.0005207	82.6719999313
1170.0	0.0005208	82.7190001011
1170.0	0.0005211	82.7660000324
1170.0	0.0005208	82.7969999313
1170.0	0.0005211	82.8440001011
1170.0	0.0005212	82.875
1180.0	0.0005215	83.1559998989
1180.0	0.0005217	83.1879999638
1180.0	0.0005215	83.2339999676
1180.0	0.0005217	83.2809998989
1180.0	0.0005217	83.3129999638
1180.0	0.0005218	83.3589999676
1180.0	0.0005217	83.4059998989
1180.0	0.0005218	83.4379999638
1180.0	0.0005218	83.4839999676
1180.0	0.0005217	83.5160000324
1180.0	0.0005217	83.5629999638
1180.0	0.0005217	83.6089999676
1180.0	0.0005213	83.6410000324
1180.0	0.0005213	83.6879999638
1180.0	0.0005218	83.7339999676
1180.0	0.0005215	83.7660000324
1180.0	0.0005207	83.8129999638
1180.0	0.0005205	83.8440001011
1180.0	0.0005208	83.8910000324
1180.0	0.0005212	83.9379999638
1180.0	0.0005215	83.9690001011
1180.0	0.000522	84.0160000324
1180.0	0.0005223	84.0629999638
1180.0	0.0005226	84.0940001011
1180.0	0.0005226	84.1410000324
1180.0	0.0005225	84.1879999638
1180.0	0.0005225	84.2190001011
1180.0	0.0005225	84.2660000324
1180.0	0.0005223	84.2969999313
1180.0	0.0005221	84.3440001011
1180.0	0.0005223	84.3910000324
1180.0	0.0005221	84.4219999313
1180.0	0.0005218	84.4690001011
1180.0	0.0005217	84.5160000324
1180.0	0.0005218	84.5469999313
1180.0	0.0005221	84.5940001011
1180.0	0.0005223	84.625
1190.0	0.0005232	84.9059998989
1190.0	0.0005233	84.9379999638
1190.0	0.0005236	84.9839999676
1190.0	0.0005236	85.0309998989
1190.0	0.0005236	85.0629999638
1190.0	0.0005237	85.1089999676
1190.0	0.0005238	85.1559998989
1190.0	0.0005242	85.1879999638
1190.0	0.0005242	85.2339999676
1190.0	0.0005238	85.2660000324
1190.0	0.0005232	85.3129999638
1190.0	0.0005232	85.3589999676
1190.0	0.0005232	85.3910000324
1190.0	0.0005233	85.4379999638
1190.0	0.0005237	85.4839999676
1190.0	0.000524	85.5160000324
1190.0	0.0005242	85.5629999638
1190.0	0.0005242	85.5940001011
1190.0	0.0005243	85.6410000324
1190.0	0.0005243	85.6879999638
1190.0	0.0005243	85.7190001011
1190.0	0.0005242	85.7660000324
1190.0	0.0005238	85.8129999638
1190.0	0.0005236	85.8440001011
1190.0	0.0005236	85.8910000324
1190.0	0.0005233	85.9219999313
1190.0	0.000523	85.9690001011
1190.0	0.0005232	86.0160000324
1190.0	0.0005233	86.0469999313
1190.0	0.0005232	86.0940001011
1190.0	0.0005236	86.1410000324
1190.0	0.0005237	86.1719999313
1190.0	0.0005236	86.2190001011
1190.0	0.0005232	86.2660000324
1190.0	0.0005231	86.2969999313
1190.0	0.0005232	86.3440001011
1190.0	0.0005232	86.375
1200.0	0.0005267	86.6410000324
1200.0	0.0005271	86.6879999638
1200.0	0.000528	86.7339999676
1200.0	0.0005283	86.7660000324
1200.0	0.0005283	86.8129999638
1200.0	0.000528	86.8589999676
1200.0	0.0005277	86.8910000324
1200.0	0.0005282	86.9379999638
1200.0	0.0005283	86.9839999676
1200.0	0.0005283	87.0160000324
1200.0	0.000528	87.0629999638
1200.0	0.0005277	87.0940001011
1200.0	0.000528	87.1410000324
1200.0	0.000528	87.1879999638
1200.0	0.0005277	87.2190001011
1200.0	0.000528	87.2660000324
1200.0	0.000528	87.3129999638
1200.0	0.0005277	87.3440001011
1200.0	0.0005277	87.3910000324
1200.0	0.000528	87.4219999313
1200.0	0.0005277	87.4690001011
1200.0	0.0005276	87.5160000324
1200.0	0.0005282	87.5469999313
1200.0	0.0005286	87.5940001011
1200.0	0.0005288	87.6410000324
1200.0	0.000529	87.6719999313
1200.0	0.0005293	87.7190001011
1200.0	0.0005293	87.7660000324
1200.0	0.0005295	87.7969999313
1200.0	0.0005292	87.8440001011
1200.0	0.000529	87.875
1200.0	0.0005288	87.9219999313
1200.0	0.0005292	87.9690001011
1200.0	0.0005295	88.0
1200.0	0.0005298	88.0469999313
1200.0	0.0005301	88.0940001011
1200.0	0.0005301	88.125
1210.0	0.0005321	88.3910000324
1210.0	0.0005331	88.4379999638
1210.0	0.0005337	88.4690001011
1210.0	0.0005345	88.5160000324
1210.0	0.0005352	88.5629999638
1210.0	0.0005355	88.5940001011
1210.0	0.0005356	88.6410000324
1210.0	0.0005357	88.6879999638
1210.0	0.0005358	88.7190001011
1210.0	0.0005363	88.7660000324
1210.0	0.0005368	88.8129999638
1210.0	0.0005368	88.8440001011
1210.0	0.0005365	88.8910000324
1210.0	0.0005363	88.9219999313
1210.0	0.0005363	88.9690001011
1210.0	0.0005358	89.0160000324
1210.0	0.0005358	89.0469999313
1210.0	0.0005361	89.0940001011
1210.0	0.0005361	89.1410000324
1210.0	0.0005358	89.1719999313
1210.0	0.0005358	89.2190001011
1210.0	0.0005361	89.25
1210.0	0.0005361	89.2969999313
1210.0	0.0005362	89.3440001011
1210.0	0.0005363	89.375
1210.0	0.0005361	89.4219999313
1210.0	0.0005361	89.4690001011
1210.0	0.0005361	89.5
1210.0	0.0005361	89.5469999313
1210.0	0.0005362	89.5780000687
1210.0	0.0005362	89.625
1210.0	0.0005358	89.6719999313
1210.0	0.0005357	89.7030000687
1210.0	0.0005357	89.75
1210.0	0.0005355	89.7969999313
1210.0	0.0005351	89.8280000687
1210.0	0.000535	89.875
1220.0	0.0005386	90.1410000324
1220.0	0.0005395	90.1719999313
1220.0	0.0005405	90.2190001011
1220.0	0.0005413	90.2660000324
1220.0	0.000542	90.2969999313
1220.0	0.0005431	90.3440001011
1220.0	0.0005436	90.375
1220.0	0.0005438	90.4219999313
1220.0	0.0005443	90.4690001011
1220.0	0.0005443	90.5
1220.0	0.0005445	90.5469999313
1220.0	0.0005448	90.5940001011
1220.0	0.0005451	90.625
1220.0	0.0005451	90.6719999313
1220.0	0.0005448	90.7030000687
1220.0	0.0005446	90.75
1220.0	0.0005448	90.7969999313
1220.0	0.0005442	90.8280000687
1220.0	0.0005442	90.875
1220.0	0.0005443	90.9219999313
1220.0	0.000544	90.9530000687
1220.0	0.000544	91.0
1220.0	0.000544	91.0309998989
1220.0	0.0005438	91.0780000687
1220.0	0.0005438	91.125
1220.0	0.0005442	91.1559998989
1220.0	0.0005442	91.2030000687
1220.0	0.0005442	91.25
1220.0	0.0005442	91.2809998989
1220.0	0.0005445	91.3280000687
1220.0	0.0005445	91.375
1220.0	0.0005448	91.4059998989
1220.0	0.0005451	91.4530000687
1220.0	0.0005452	91.4839999676
1220.0	0.0005457	91.5309998989
1220.0	0.0005457	91.5780000687
1220.0	0.0005455	91.6089999676
1230.0	0.000548	91.875
1230.0	0.0005495	91.9219999313
1230.0	0.0005505	91.9690001011
1230.0	0.0005515	92.0
1230.0	0.0005525	92.0469999313
1230.0	0.0005532	92.0940001011
1230.0	0.0005536	92.125
1230.0	0.0005536	92.1719999313
1230.0	0.0005536	92.2030000687
1230.0	0.0005536	92.25
1230.0	0.0005537	92.2969999313
1230.0	0.0005536	92.3280000687
1230.0	0.0005533	92.375
1230.0	0.0005536	92.4219999313
1230.0	0.0005536	92.4530000687
1230.0	0.0005537	92.5
1230.0	0.0005536	92.5309998989
1230.0	0.0005536	92.5780000687
1230.0	0.0005537	92.625
1230.0	0.000554	92.6559998989
1230.0	0.0005543	92.7030000687
1230.0	0.0005545	92.75
1230.0	0.0005546	92.7809998989
1230.0	0.0005546	92.8280000687
1230.0	0.0005543	92.8589999676
1230.0	0.0005538	92.9059998989
1230.0	0.0005536	92.9530000687
1230.0	0.000553	92.9839999676
1230.0	0.0005527	93.0309998989
1230.0	0.0005531	93.0780000687
1230.0	0.0005536	93.1089999676
1230.0	0.0005538	93.1559998989
1230.0	0.000554	93.1879999638
1230.0	0.0005543	93.2339999676
1230.0	0.0005545	93.2809998989
1230.0	0.0005548	93.3280000687
1230.0	0.0005548	93.3589999676
1240.0	0.0005577	93.625
1240.0	0.0005592	93.6719999313
1240.0	0.00056	93.7030000687
1240.0	0.0005607	93.75
1240.0	0.0005615	93.7969999313
1240.0	0.0005621	93.8280000687
1240.0	0.0005625	93.875
1240.0	0.0005627	93.9059998989
1240.0	0.0005631	93.9530000687
1240.0	0.0005632	94.0
1240.0	0.0005632	94.0309998989
1240.0	0.0005638	94.0780000687
1240.0	0.0005642	94.125
1240.0	0.0005645	94.1559998989
1240.0	0.0005648	94.2030000687
1240.0	0.0005648	94.25
1240.0	0.000565	94.2809998989
1240.0	0.0005652	94.3280000687
1240.0	0.0005651	94.3589999676
1240.0	0.0005646	94.4059998989
1240.0	0.0005642	94.4530000687
1240.0	0.0005637	94.4839999676
1240.0	0.0005638	94.5309998989
1240.0	0.0005643	94.5780000687
1240.0	0.0005646	94.6089999676
1240.0	0.0005645	94.6559998989
1240.0	0.0005643	94.6879999638
1240.0	0.000565	94.7339999676
1240.0	0.0005651	94.7809998989
1240.0	0.0005648	94.8129999638
1240.0	0.0005648	94.8589999676
1240.0	0.0005648	94.9059998989
1240.0	0.0005648	94.9379999638
1240.0	0.0005648	94.9839999676
1240.0	0.0005643	95.0160000324
1240.0	0.0005638	95.0629999638
1240.0	0.0005637	95.1089999676
1250.0	0.000568	95.375
1250.0	0.0005695	95.4059998989
1250.0	0.0005706	95.4530000687
1250.0	0.0005717	95.5
1250.0	0.0005723	95.5309998989
1250.0	0.0005727	95.5780000687
1250.0	0.000573	95.625
1250.0	0.000573	95.6559998989
1250.0	0.000573	95.7030000687
1250.0	0.000573	95.7339999676
1250.0	0.0005731	95.7809998989
1250.0	0.0005733	95.8280000687
1250.0	0.0005736	95.8589999676
1250.0	0.0005738	95.9059998989
1250.0	0.0005738	95.9530000687
1250.0	0.0005737	95.9839999676
1250.0	0.0005738	96.0309998989
1250.0	0.0005742	96.0780000687
1250.0	0.0005743	96.1089999676
1250.0	0.0005746	96.1559998989
1250.0	0.0005746	96.1879999638
1250.0	0.0005746	96.2339999676
1250.0	0.0005748	96.2809998989
1250.0	0.000575	96.3129999638
1250.0	0.000575	96.3589999676
1250.0	0.0005745	96.4059998989
1250.0	0.000574	96.4379999638
1250.0	0.0005733	96.4839999676
1250.0	0.0005732	96.5160000324
1250.0	0.0005733	96.5629999638
1250.0	0.0005731	96.6089999676
1250.0	0.0005732	96.6410000324
1250.0	0.0005737	96.6879999638
1250.0	0.0005738	96.7339999676
1250.0	0.0005736	96.7660000324
1250.0	0.0005738	96.8129999638
1250.0	0.000574	96.8440001011
1260.0	0.0005777	97.1089999676
1260.0	0.0005788	97.1559998989
1260.0	0.0005801	97.2030000687
1260.0	0.0005807	97.2339999676
1260.0	0.0005815	97.2809998989
1260.0	0.0005823	97.3129999638
1260.0	0.0005827	97.3589999676
1260.0	0.0005832	97.4059998989
1260.0	0.0005833	97.4379999638
1260.0	0.0005831	97.4839999676
1260.0	0.0005833	97.5309998989
1260.0	0.0005836	97.5629999638
1260.0	0.0005837	97.6089999676
1260.0	0.0005837	97.6410000324
1260.0	0.0005838	97.6879999638
1260.0	0.0005842	97.7339999676
1260.0	0.000584	97.7660000324
1260.0	0.0005842	97.8129999638
1260.0	0.000584	97.8589999676
1260.0	0.0005837	97.8910000324
1260.0	0.0005833	97.9379999638
1260.0	0.0005831	97.9690001011
1260.0	0.000583	98.0160000324
1260.0	0.0005827	98.0629999638
1260.0	0.0005827	98.0940001011
1260.0	0.0005825	98.1410000324
1260.0	0.0005827	98.1879999638
1260.0	0.000583	98.2190001011
1260.0	0.0005831	98.2660000324
1260.0	0.0005833	98.3129999638
1260.0	0.0005836	98.3440001011
1260.0	0.0005836	98.3910000324
1260.0	0.0005833	98.4219999313
1260.0	0.0005833	98.4690001011
1260.0	0.0005831	98.5160000324
1260.0	0.000583	98.5469999313
1260.0	0.0005831	98.5940001011
1270.0	0.000587	98.8589999676
1270.0	0.0005873	98.9059998989
1270.0	0.0005881	98.9379999638
1270.0	0.0005887	98.9839999676
1270.0	0.0005893	99.0160000324
1270.0	0.0005898	99.0629999638
1270.0	0.00059	99.1089999676
1270.0	0.0005898	99.1410000324
1270.0	0.0005901	99.1879999638
1270.0	0.0005905	99.2339999676
1270.0	0.0005905	99.2660000324
1270.0	0.0005905	99.3129999638
1270.0	0.0005906	99.3589999676
1270.0	0.0005905	99.3910000324
1270.0	0.0005905	99.4379999638
1270.0	0.0005905	99.4690001011
1270.0	0.0005901	99.5160000324
1270.0	0.00059	99.5629999638
1270.0	0.0005902	99.5940001011
1270.0	0.0005901	99.6410000324
1270.0	0.0005898	99.6879999638
1270.0	0.0005898	99.7190001011
1270.0	0.0005898	99.7660000324
1270.0	0.0005896	99.7969999313
1270.0	0.0005896	99.8440001011
1270.0	0.0005893	99.8910000324
1270.0	0.000589	99.9219999313
1270.0	0.0005892	99.9690001011
1270.0	0.0005895	100.016000032
1270.0	0.0005892	100.046999931
1270.0	0.0005888	100.094000101
1270.0	0.0005892	100.141000032
1270.0	0.0005893	100.171999931
1270.0	0.0005896	100.219000101
1270.0	0.0005898	100.25
1270.0	0.00059	100.296999931
1270.0	0.00059	100.344000101
1280.0	0.0005917	100.594000101
1280.0	0.0005927	100.641000032
1280.0	0.0005936	100.687999964
1280.0	0.0005943	100.719000101
1280.0	0.0005946	100.766000032
1280.0	0.0005948	100.812999964
1280.0	0.000595	100.844000101
1280.0	0.0005955	100.891000032
1280.0	0.0005958	100.921999931
1280.0	0.0005957	100.969000101
1280.0	0.0005956	101.016000032
1280.0	0.0005952	101.046999931
1280.0	0.0005948	101.094000101
1280.0	0.0005946	101.141000032
1280.0	0.0005948	101.171999931
1280.0	0.0005948	101.219000101
1280.0	0.0005951	101.266000032
1280.0	0.0005952	101.296999931
1280.0	0.0005951	101.344000101
1280.0	0.0005952	101.375
1280.0	0.0005955	101.421999931
1280.0	0.0005951	101.469000101
1280.0	0.0005948	101.5
1280.0	0.0005945	101.546999931
1280.0	0.0005945	101.594000101
1280.0	0.0005945	101.625
1280.0	0.0005943	101.671999931
1280.0	0.0005943	101.703000069
1280.0	0.0005942	101.75
1280.0	0.0005943	101.796999931
1280.0	0.000595	101.828000069
1280.0	0.0005955	101.875
1280.0	0.0005958	101.921999931
1280.0	0.0005963	101.953000069
1280.0	0.0005957	102.0
1280.0	0.0005955	102.030999899
1280.0	0.0005951	102.078000069
1290.0	0.0005955	102.344000101
1290.0	0.0005957	102.391000032
1290.0	0.0005962	102.421999931
1290.0	0.0005963	102.469000101
1290.0	0.0005968	102.516000032
1290.0	0.0005973	102.546999931
1290.0	0.0005971	102.594000101
1290.0	0.000597	102.641000032
1290.0	0.0005971	102.671999931
1290.0	0.000597	102.719000101
1290.0	0.0005963	102.75
1290.0	0.0005963	102.796999931
1290.0	0.0005961	102.844000101
1290.0	0.0005961	102.875
1290.0	0.0005965	102.921999931
1290.0	0.0005968	102.969000101
1290.0	0.000597	103.0
1290.0	0.0005968	103.046999931
1290.0	0.0005963	103.078000069
1290.0	0.0005962	103.125
1290.0	0.0005962	103.171999931
1290.0	0.0005963	103.203000069
1290.0	0.0005961	103.25
1290.0	0.0005958	103.296999931
1290.0	0.0005962	103.328000069
1290.0	0.0005963	103.375
1290.0	0.0005967	103.405999899
1290.0	0.0005967	103.453000069
1290.0	0.0005968	103.5
1290.0	0.000597	103.530999899
1290.0	0.000597	103.578000069
1290.0	0.000597	103.625
1290.0	0.000597	103.655999899
1290.0	0.0005968	103.703000069
1290.0	0.0005965	103.75
1290.0	0.0005962	103.780999899
1290.0	0.0005961	103.828000069
1300.0	0.0005943	104.094000101
1300.0	0.0005942	104.125
1300.0	0.0005942	104.171999931
1300.0	0.0005948	104.219000101
1300.0	0.000595	104.25
1300.0	0.0005952	104.296999931
1300.0	0.0005956	104.328000069
1300.0	0.0005956	104.375
1300.0	0.0005952	104.421999931
1300.0	0.0005951	104.453000069
1300.0	0.0005946	104.5
1300.0	0.0005942	104.530999899
1300.0	0.000594	104.578000069
1300.0	0.0005938	104.625
1300.0	0.0005938	104.671999931
1300.0	0.0005942	104.703000069
1300.0	0.0005942	104.75
1300.0	0.000594	104.796999931
1300.0	0.0005937	104.828000069
1300.0	0.0005936	104.875
1300.0	0.0005933	104.905999899
1300.0	0.0005932	104.953000069
1300.0	0.0005936	105.0
1300.0	0.0005938	105.030999899
1300.0	0.000594	105.078000069
1300.0	0.0005943	105.125
1300.0	0.0005942	105.155999899
1300.0	0.0005937	105.203000069
1300.0	0.0005936	105.233999968
1300.0	0.0005933	105.280999899
1300.0	0.0005933	105.328000069
1300.0	0.0005936	105.358999968
1300.0	0.0005938	105.405999899
1300.0	0.0005937	105.453000069
1300.0	0.0005936	105.483999968
1300.0	0.0005936	105.530999899
1300.0	0.0005933	105.578000069
1310.0	0.0005921	105.844000101
1310.0	0.0005908	105.891000032
1310.0	0.0005898	105.921999931
1310.0	0.0005888	105.969000101
1310.0	0.0005883	106.0
1310.0	0.0005877	106.046999931
1310.0	0.0005871	106.094000101
1310.0	0.0005868	106.125
1310.0	0.0005865	106.171999931
1310.0	0.0005863	106.219000101
1310.0	0.0005863	106.25
1310.0	0.0005863	106.296999931
1310.0	0.0005867	106.328000069
1310.0	0.0005867	106.375
1310.0	0.0005867	106.421999931
1310.0	0.0005868	106.453000069
1310.0	0.0005868	106.5
1310.0	0.000587	106.546999931
1310.0	0.000587	106.578000069
1310.0	0.000587	106.625
1310.0	0.0005873	106.655999899
1310.0	0.0005873	106.703000069
1310.0	0.0005876	106.75
1310.0	0.000588	106.780999899
1310.0	0.0005876	106.828000069
1310.0	0.0005873	106.875
1310.0	0.000587	106.905999899
1310.0	0.0005868	106.953000069
1310.0	0.0005863	106.983999968
1310.0	0.0005862	107.030999899
1310.0	0.0005862	107.078000069
1310.0	0.0005858	107.108999968
1310.0	0.0005857	107.155999899
1310.0	0.0005857	107.203000069
1310.0	0.0005857	107.233999968
1310.0	0.0005858	107.280999899
1310.0	0.0005861	107.312999964
1320.0	0.0005811	107.594000101
1320.0	0.0005788	107.625
1320.0	0.000577	107.671999931
1320.0	0.0005752	107.719000101
1320.0	0.0005742	107.75
1320.0	0.0005733	107.796999931
1320.0	0.000573	107.844000101
1320.0	0.0005726	107.875
1320.0	0.0005726	107.921999931
1320.0	0.0005726	107.969000101
1320.0	0.0005727	108.0
1320.0	0.0005731	108.046999931
1320.0	0.0005731	108.078000069
1320.0	0.000573	108.125
1320.0	0.0005732	108.171999931
1320.0	0.0005726	108.203000069
1320.0	0.000572	108.25
1320.0	0.0005715	108.280999899
1320.0	0.0005713	108.328000069
1320.0	0.0005715	108.375
1320.0	0.0005715	108.405999899
1320.0	0.0005717	108.453000069
1320.0	0.000572	108.5
1320.0	0.000572	108.530999899
1320.0	0.0005718	108.578000069
1320.0	0.0005713	108.625
1320.0	0.0005713	108.655999899
1320.0	0.0005713	108.703000069
1320.0	0.0005715	108.733999968
1320.0	0.000572	108.780999899
1320.0	0.0005723	108.828000069
1320.0	0.0005721	108.858999968
1320.0	0.0005717	108.905999899
1320.0	0.0005715	108.953000069
1320.0	0.0005715	108.983999968
1320.0	0.0005715	109.030999899
1320.0	0.0005717	109.062999964
1330.0	0.0005645	109.344000101
1330.0	0.0005617	109.375
1330.0	0.0005593	109.421999931
1330.0	0.0005573	109.469000101
1330.0	0.0005557	109.5
1330.0	0.0005543	109.546999931
1330.0	0.0005531	109.594000101
1330.0	0.000552	109.625
1330.0	0.0005515	109.671999931
1330.0	0.0005513	109.719000101
1330.0	0.0005508	109.75
1330.0	0.0005508	109.796999931
1330.0	0.0005511	109.828000069
1330.0	0.0005508	109.875
1330.0	0.0005505	109.921999931
1330.0	0.0005502	109.953000069
1330.0	0.00055	110.0
1330.0	0.0005493	110.030999899
1330.0	0.0005492	110.078000069
1330.0	0.000549	110.125
1330.0	0.0005492	110.155999899
1330.0	0.0005495	110.203000069
1330.0	0.0005498	110.25
1330.0	0.0005501	110.280999899
1330.0	0.0005506	110.328000069
1330.0	0.0005508	110.375
1330.0	0.0005507	110.405999899
1330.0	0.0005506	110.453000069
1330.0	0.0005506	110.483999968
1330.0	0.0005506	110.530999899
1330.0	0.0005506	110.578000069
1330.0	0.0005502	110.608999968
1330.0	0.0005498	110.655999899
1330.0	0.0005495	110.703000069
1330.0	0.0005496	110.733999968
1330.0	0.0005493	110.780999899
1330.0	0.000549	110.812999964
1340.0	0.0005386	111.094000101
1340.0	0.0005346	111.125
1340.0	0.0005317	111.171999931
1340.0	0.0005293	111.219000101
1340.0	0.000527	111.25
1340.0	0.0005257	111.296999931
1340.0	0.0005248	111.344000101
1340.0	0.0005238	111.375
1340.0	0.0005232	111.421999931
1340.0	0.0005227	111.453000069
1340.0	0.0005221	111.5
1340.0	0.0005215	111.546999931
1340.0	0.0005213	111.578000069
1340.0	0.0005211	111.625
1340.0	0.0005211	111.671999931
1340.0	0.0005213	111.703000069
1340.0	0.000522	111.75
1340.0	0.0005221	111.780999899
1340.0	0.000522	111.828000069
1340.0	0.0005223	111.875
1340.0	0.000522	111.905999899
1340.0	0.0005217	111.953000069
1340.0	0.0005217	112.0
1340.0	0.0005215	112.030999899
1340.0	0.0005211	112.078000069
1340.0	0.0005208	112.108999968
1340.0	0.0005211	112.155999899
1340.0	0.0005211	112.203000069
1340.0	0.0005212	112.233999968
1340.0	0.0005218	112.280999899
1340.0	0.000522	112.328000069
1340.0	0.000522	112.358999968
1340.0	0.000522	112.405999899
1340.0	0.0005218	112.453000069
1340.0	0.0005213	112.483999968
1340.0	0.0005212	112.530999899
1340.0	0.0005212	112.562999964
1350.0	0.0005082	112.844000101
1350.0	0.0005042	112.875
1350.0	0.0005007	112.921999931
1350.0	0.0004982	112.953000069
1350.0	0.0004961	113.0
1350.0	0.0004937	113.046999931
1350.0	0.0004921	113.078000069
1350.0	0.0004912	113.125
1350.0	0.0004901	113.171999931
1350.0	0.000489	113.203000069
1350.0	0.0004883	113.25
1350.0	0.0004882	113.280999899
1350.0	0.000488	113.328000069
1350.0	0.000488	113.375
1350.0	0.0004882	113.405999899
1350.0	0.0004886	113.453000069
1350.0	0.0004887	113.5
1350.0	0.0004887	113.530999899
1350.0	0.0004886	113.578000069
1350.0	0.0004886	113.608999968
1350.0	0.0004882	113.655999899
1350.0	0.0004883	113.703000069
1350.0	0.0004886	113.733999968
1350.0	0.0004887	113.780999899
1350.0	0.0004883	113.828000069
1350.0	0.000488	113.858999968
1350.0	0.000488	113.905999899
1350.0	0.0004877	113.937999964
1350.0	0.000488	113.983999968
1350.0	0.000488	114.030999899
1350.0	0.0004883	114.062999964
1350.0	0.0004881	114.108999968
1350.0	0.0004877	114.155999899
1350.0	0.0004877	114.187999964
1350.0	0.0004876	114.233999968
1350.0	0.0004876	114.280999899
1350.0	0.0004876	114.312999964
1360.0	0.0004751	114.578000069
1360.0	0.0004707	114.625
1360.0	0.0004671	114.655999899
1360.0	0.0004642	114.703000069
1360.0	0.000462	114.75
1360.0	0.0004605	114.780999899
1360.0	0.0004592	114.828000069
1360.0	0.0004582	114.875
1360.0	0.0004576	114.905999899
1360.0	0.0004568	114.953000069
1360.0	0.0004561	115.0
1360.0	0.0004562	115.030999899
1360.0	0.0004562	115.078000069
1360.0	0.0004558	115.108999968
1360.0	0.0004557	115.155999899
1360.0	0.0004556	115.203000069
1360.0	0.0004552	115.233999968
1360.0	0.0004552	115.280999899
1360.0	0.0004555	115.328000069
1360.0	0.0004556	115.358999968
1360.0	0.0004555	115.405999899
1360.0	0.0004555	115.437999964
1360.0	0.0004551	115.483999968
1360.0	0.000455	115.530999899
1360.0	0.0004555	115.562999964
1360.0	0.0004555	115.608999968
1360.0	0.0004555	115.655999899
1360.0	0.0004555	115.687999964
1360.0	0.0004555	115.733999968
1360.0	0.0004552	115.766000032
1360.0	0.0004555	115.812999964
1360.0	0.0004551	115.858999968
1360.0	0.0004548	115.891000032
1360.0	0.000455	115.937999964
1360.0	0.0004556	115.983999968
1360.0	0.0004555	116.016000032
1360.0	0.000455	116.062999964
1370.0	0.0004426	116.328000069
1370.0	0.0004386	116.358999968
1370.0	0.0004351	116.405999899
1370.0	0.0004321	116.453000069
1370.0	0.0004298	116.483999968
1370.0	0.0004276	116.530999899
1370.0	0.0004265	116.562999964
1370.0	0.0004255	116.608999968
1370.0	0.0004245	116.655999899
1370.0	0.0004242	116.687999964
1370.0	0.0004238	116.733999968
1370.0	0.0004233	116.780999899
1370.0	0.000423	116.812999964
1370.0	0.0004227	116.858999968
1370.0	0.0004225	116.891000032
1370.0	0.0004225	116.937999964
1370.0	0.0004226	116.983999968
1370.0	0.0004226	117.016000032
1370.0	0.0004227	117.062999964
1370.0	0.0004226	117.108999968
1370.0	0.0004226	117.141000032
1370.0	0.0004223	117.187999964
1370.0	0.0004218	117.233999968
1370.0	0.0004217	117.266000032
1370.0	0.0004217	117.312999964
1370.0	0.0004213	117.344000101
1370.0	0.0004212	117.391000032
1370.0	0.0004212	117.437999964
1370.0	0.0004212	117.469000101
1370.0	0.0004212	117.516000032
1370.0	0.0004211	117.562999964
1370.0	0.0004211	117.594000101
1370.0	0.0004211	117.641000032
1370.0	0.0004207	117.671999931
1370.0	0.0004205	117.719000101
1370.0	0.0004201	117.766000032
1370.0	0.0004198	117.796999931
1380.0	0.0004102	118.062999964
1380.0	0.0004073	118.108999968
1380.0	0.0004045	118.141000032
1380.0	0.0004021	118.187999964
1380.0	0.0004005	118.233999968
1380.0	0.000399	118.266000032
1380.0	0.0003976	118.312999964
1380.0	0.0003965	118.358999968
1380.0	0.0003961	118.391000032
1380.0	0.0003958	118.437999964
1380.0	0.0003957	118.469000101
1380.0	0.0003955	118.516000032
1380.0	0.0003955	118.562999964
1380.0	0.0003952	118.594000101
1380.0	0.0003955	118.641000032
1380.0	0.0003956	118.687999964
1380.0	0.0003957	118.719000101
1380.0	0.0003958	118.766000032
1380.0	0.0003957	118.796999931
1380.0	0.0003951	118.844000101
1380.0	0.0003945	118.891000032
1380.0	0.0003942	118.921999931
1380.0	0.0003938	118.969000101
1380.0	0.0003933	119.016000032
1380.0	0.0003932	119.046999931
1380.0	0.0003933	119.094000101
1380.0	0.0003932	119.125
1380.0	0.0003932	119.171999931
1380.0	0.0003936	119.219000101
1380.0	0.0003938	119.25
1380.0	0.0003937	119.296999931
1380.0	0.0003936	119.344000101
1380.0	0.0003936	119.375
1380.0	0.0003936	119.421999931
1380.0	0.000394	119.469000101
1380.0	0.000394	119.5
1380.0	0.0003937	119.546999931
1390.0	0.0003868	119.812999964
1390.0	0.0003845	119.844000101
1390.0	0.0003825	119.891000032
1390.0	0.0003805	119.937999964
1390.0	0.0003787	119.969000101
1390.0	0.0003775	120.016000032
1390.0	0.0003768	120.062999964
1390.0	0.0003763	120.094000101
1390.0	0.0003763	120.141000032
1390.0	0.0003763	120.187999964
1390.0	0.0003762	120.219000101
1390.0	0.0003758	120.266000032
1390.0	0.0003761	120.296999931
1390.0	0.0003762	120.344000101
1390.0	0.0003762	120.391000032
1390.0	0.0003762	120.421999931
1390.0	0.0003762	120.469000101
1390.0	0.0003762	120.516000032
1390.0	0.0003762	120.546999931
1390.0	0.0003761	120.594000101
1390.0	0.0003763	120.625
1390.0	0.0003767	120.671999931
1390.0	0.0003767	120.719000101
1390.0	0.0003767	120.75
1390.0	0.0003763	120.796999931
1390.0	0.0003763	120.844000101
1390.0	0.0003761	120.875
1390.0	0.0003757	120.921999931
1390.0	0.0003757	120.953000069
1390.0	0.0003758	121.0
1390.0	0.0003757	121.046999931
1390.0	0.0003757	121.078000069
1390.0	0.0003757	121.125
1390.0	0.0003757	121.171999931
1390.0	0.0003756	121.203000069
1390.0	0.0003752	121.25
1390.0	0.000375	121.280999899
1400.0	0.0003696	121.562999964
1400.0	0.0003681	121.594000101
1400.0	0.0003668	121.641000032
1400.0	0.0003661	121.671999931
1400.0	0.0003655	121.719000101
1400.0	0.0003645	121.766000032
1400.0	0.0003638	121.796999931
1400.0	0.0003633	121.844000101
1400.0	0.0003633	121.891000032
1400.0	0.0003632	121.921999931
1400.0	0.0003631	121.969000101
1400.0	0.0003627	122.016000032
1400.0	0.0003626	122.046999931
1400.0	0.0003627	122.094000101
1400.0	0.000363	122.125
1400.0	0.000363	122.171999931
1400.0	0.000363	122.219000101
1400.0	0.0003632	122.25
1400.0	0.0003633	122.296999931
1400.0	0.0003631	122.344000101
1400.0	0.000363	122.375
1400.0	0.0003626	122.421999931
1400.0	0.0003623	122.453000069
1400.0	0.0003621	122.5
1400.0	0.000362	122.546999931
1400.0	0.0003617	122.578000069
1400.0	0.0003615	122.625
1400.0	0.0003618	122.671999931
1400.0	0.0003621	122.703000069
1400.0	0.0003623	122.75
1400.0	0.0003627	122.780999899
1400.0	0.000363	122.828000069
1400.0	0.0003631	122.875
1400.0	0.000363	122.905999899
1400.0	0.0003626	122.953000069
1400.0	0.0003623	123.0
1400.0	0.0003621	123.030999899
1410.0	0.0003617	123.296999931
1410.0	0.0003607	123.344000101
1410.0	0.0003596	123.375
1410.0	0.0003588	123.421999931
1410.0	0.0003583	123.469000101
1410.0	0.0003583	123.5
1410.0	0.0003583	123.546999931
1410.0	0.0003577	123.578000069
1410.0	0.000358	123.625
1410.0	0.000358	123.671999931
1410.0	0.0003577	123.703000069
1410.0	0.000358	123.75
1410.0	0.0003577	123.796999931
1410.0	0.0003577	123.828000069
1410.0	0.0003576	123.875
1410.0	0.0003576	123.905999899
1410.0	0.000358	123.953000069
1410.0	0.0003582	124.0
1410.0	0.0003581	124.030999899
1410.0	0.000358	124.078000069
1410.0	0.0003577	124.125
1410.0	0.0003576	124.155999899
1410.0	0.0003577	124.203000069
1410.0	0.0003575	124.233999968
1410.0	0.0003576	124.280999899
1410.0	0.0003581	124.328000069
1410.0	0.0003582	124.358999968
1410.0	0.0003581	124.405999899
1410.0	0.000358	124.453000069
1410.0	0.0003576	124.483999968
1410.0	0.0003575	124.530999899
1410.0	0.0003575	124.578000069
1410.0	0.0003573	124.608999968
1410.0	0.000357	124.655999899
1410.0	0.0003567	124.687999964
1410.0	0.0003562	124.733999968
1410.0	0.0003558	124.780999899
1420.0	0.0003571	125.046999931
1420.0	0.0003573	125.078000069
1420.0	0.0003575	125.125
1420.0	0.0003576	125.171999931
1420.0	0.000358	125.203000069
1420.0	0.000358	125.25
1420.0	0.000358	125.280999899
1420.0	0.0003581	125.328000069
1420.0	0.0003583	125.375
1420.0	0.0003586	125.405999899
1420.0	0.0003587	125.453000069
1420.0	0.0003586	125.5
1420.0	0.000359	125.530999899
1420.0	0.000359	125.578000069
1420.0	0.0003587	125.625
1420.0	0.0003583	125.655999899
1420.0	0.0003583	125.703000069
1420.0	0.0003583	125.733999968
1420.0	0.0003582	125.780999899
1420.0	0.0003583	125.828000069
1420.0	0.0003587	125.858999968
1420.0	0.0003588	125.905999899
1420.0	0.000359	125.953000069
1420.0	0.0003592	125.983999968
1420.0	0.0003592	126.030999899
1420.0	0.0003593	126.062999964
1420.0	0.0003598	126.108999968
1420.0	0.0003596	126.155999899
1420.0	0.0003595	126.187999964
1420.0	0.0003595	126.233999968
1420.0	0.0003595	126.280999899
1420.0	0.0003592	126.312999964
1420.0	0.0003588	126.358999968
1420.0	0.0003586	126.391000032
1420.0	0.000358	126.437999964
1420.0	0.0003577	126.483999968
1420.0	0.0003577	126.516000032
1430.0	0.0003607	126.780999899
1430.0	0.0003618	126.828000069
1430.0	0.0003626	126.875
1430.0	0.0003632	126.905999899
1430.0	0.0003637	126.953000069
1430.0	0.0003642	127.0
1430.0	0.0003638	127.030999899
1430.0	0.0003637	127.078000069
1430.0	0.0003637	127.108999968
1430.0	0.0003637	127.155999899
1430.0	0.0003631	127.203000069
1430.0	0.000363	127.233999968
1430.0	0.0003627	127.280999899
1430.0	0.000363	127.328000069
1430.0	0.0003632	127.358999968
1430.0	0.0003633	127.405999899
1430.0	0.0003633	127.437999964
1430.0	0.000364	127.483999968
1430.0	0.0003645	127.530999899
1430.0	0.0003645	127.562999964
1430.0	0.000365	127.608999968
1430.0	0.0003657	127.655999899
1430.0	0.0003661	127.687999964
1430.0	0.0003662	127.733999968
1430.0	0.0003658	127.780999899
1430.0	0.0003656	127.812999964
1430.0	0.0003651	127.858999968
1430.0	0.000365	127.891000032
1430.0	0.0003646	127.937999964
1430.0	0.0003642	127.983999968
1430.0	0.0003642	128.016000032
1430.0	0.0003643	128.062999964
1430.0	0.0003643	128.108999968
1430.0	0.000364	128.141000032
1430.0	0.0003637	128.187999964
1430.0	0.0003633	128.219000101
1430.0	0.0003632	128.266000032
1440.0	0.0003686	128.530999899
1440.0	0.0003696	128.578000069
1440.0	0.0003707	128.608999968
1440.0	0.0003717	128.655999899
1440.0	0.0003721	128.703000069
1440.0	0.0003725	128.733999968
1440.0	0.0003727	128.780999899
1440.0	0.000373	128.828000069
1440.0	0.000373	128.858999968
1440.0	0.0003731	128.905999899
1440.0	0.0003731	128.937999964
1440.0	0.0003732	128.983999968
1440.0	0.0003736	129.030999899
1440.0	0.0003737	129.062999964
1440.0	0.0003737	129.108999968
1440.0	0.0003742	129.155999899
1440.0	0.000374	129.187999964
1440.0	0.0003737	129.233999968
1440.0	0.0003737	129.266000032
1440.0	0.000374	129.312999964
1440.0	0.000374	129.358999968
1440.0	0.0003737	129.391000032
1440.0	0.000374	129.437999964
1440.0	0.000374	129.483999968
1440.0	0.000374	129.516000032
1440.0	0.0003745	129.562999964
1440.0	0.0003748	129.608999968
1440.0	0.000375	129.641000032
1440.0	0.000375	129.687999964
1440.0	0.0003746	129.719000101
1440.0	0.0003742	129.766000032
1440.0	0.0003738	129.812999964
1440.0	0.0003738	129.844000101
1440.0	0.0003742	129.891000032
1440.0	0.0003742	129.937999964
1440.0	0.0003743	129.969000101
1440.0	0.000374	130.016000032
1450.0	0.0003776	130.280999899
1450.0	0.0003788	130.328000069
1450.0	0.00038	130.358999968
1450.0	0.0003812	130.405999899
1450.0	0.0003825	130.437999964
1450.0	0.0003836	130.483999968
1450.0	0.0003842	130.530999899
1450.0	0.0003843	130.562999964
1450.0	0.0003843	130.608999968
1450.0	0.0003842	130.655999899
1450.0	0.0003846	130.687999964
1450.0	0.0003848	130.733999968
1450.0	0.0003846	130.766000032
1450.0	0.0003845	130.812999964
1450.0	0.0003851	130.858999968
1450.0	0.0003851	130.891000032
1450.0	0.0003851	130.937999964
1450.0	0.0003852	130.983999968
1450.0	0.0003851	131.016000032
1450.0	0.0003848	131.062999964
1450.0	0.0003845	131.094000101
1450.0	0.0003843	131.141000032
1450.0	0.0003845	131.187999964
1450.0	0.0003845	131.219000101
1450.0	0.0003845	131.266000032
1450.0	0.0003845	131.312999964
1450.0	0.000384	131.344000101
1450.0	0.0003836	131.391000032
1450.0	0.0003837	131.421999931
1450.0	0.000384	131.469000101
1450.0	0.0003851	131.516000032
1450.0	0.000385	131.546999931
1450.0	0.0003848	131.594000101
1450.0	0.0003845	131.641000032
1450.0	0.0003843	131.671999931
1450.0	0.0003845	131.719000101
1450.0	0.0003848	131.766000032
1460.0	0.0003881	132.030999899
1460.0	0.0003896	132.062999964
1460.0	0.0003907	132.108999968
1460.0	0.0003911	132.141000032
1460.0	0.0003915	132.187999964
1460.0	0.000392	132.233999968
1460.0	0.0003925	132.266000032
1460.0	0.0003927	132.312999964
1460.0	0.0003936	132.358999968
1460.0	0.0003942	132.391000032
1460.0	0.0003946	132.437999964
1460.0	0.000395	132.483999968
1460.0	0.000395	132.516000032
1460.0	0.000395	132.562999964
1460.0	0.0003951	132.594000101
1460.0	0.0003951	132.641000032
1460.0	0.000395	132.687999964
1460.0	0.000395	132.719000101
1460.0	0.000395	132.766000032
1460.0	0.0003951	132.812999964
1460.0	0.0003951	132.844000101
1460.0	0.0003952	132.891000032
1460.0	0.0003951	132.921999931
1460.0	0.0003948	132.969000101
1460.0	0.0003948	133.016000032
1460.0	0.0003946	133.046999931
1460.0	0.0003945	133.094000101
1460.0	0.0003945	133.141000032
1460.0	0.0003948	133.171999931
1460.0	0.000395	133.219000101
1460.0	0.0003955	133.25
1460.0	0.0003957	133.296999931
1460.0	0.0003962	133.344000101
1460.0	0.0003962	133.375
1460.0	0.0003958	133.421999931
1460.0	0.0003956	133.469000101
1460.0	0.0003955	133.5
1470.0	0.0003975	133.780999899
1470.0	0.0003983	133.812999964
1470.0	0.0003992	133.858999968
1470.0	0.0003996	133.905999899
1470.0	0.0004001	133.937999964
1470.0	0.0004006	133.983999968
1470.0	0.0004007	134.030999899
1470.0	0.0004012	134.062999964
1470.0	0.0004018	134.108999968
1470.0	0.000402	134.141000032
1470.0	0.0004023	134.187999964
1470.0	0.0004026	134.233999968
1470.0	0.0004031	134.266000032
1470.0	0.0004032	134.312999964
1470.0	0.0004036	134.358999968
1470.0	0.0004036	134.391000032
1470.0	0.0004036	134.437999964
1470.0	0.0004032	134.483999968
1470.0	0.0004032	134.516000032
1470.0	0.0004032	134.562999964
1470.0	0.0004032	134.594000101
1470.0	0.0004033	134.641000032
1470.0	0.0004033	134.687999964
1470.0	0.0004031	134.719000101
1470.0	0.0004031	134.766000032
1470.0	0.000403	134.812999964
1470.0	0.0004026	134.844000101
1470.0	0.0004025	134.891000032
1470.0	0.0004026	134.921999931
1470.0	0.0004026	134.969000101
1470.0	0.000403	135.016000032
1470.0	0.0004032	135.046999931
1470.0	0.0004036	135.094000101
1470.0	0.0004033	135.141000032
1470.0	0.0004032	135.171999931
1470.0	0.0004032	135.219000101
1470.0	0.0004032	135.25
1480.0	0.0004046	135.530999899
1480.0	0.0004051	135.562999964
1480.0	0.0004055	135.608999968
1480.0	0.0004058	135.655999899
1480.0	0.0004061	135.687999964
1480.0	0.0004062	135.733999968
1480.0	0.0004065	135.780999899
1480.0	0.0004068	135.812999964
1480.0	0.0004071	135.858999968
1480.0	0.0004076	135.905999899
1480.0	0.000408	135.937999964
1480.0	0.0004081	135.983999968
1480.0	0.0004083	136.016000032
1480.0	0.0004083	136.062999964
1480.0	0.0004082	136.108999968
1480.0	0.0004083	136.141000032
1480.0	0.0004088	136.187999964
1480.0	0.0004088	136.233999968
1480.0	0.0004088	136.266000032
1480.0	0.0004088	136.312999964
1480.0	0.0004088	136.344000101
1480.0	0.0004086	136.391000032
1480.0	0.0004083	136.437999964
1480.0	0.0004082	136.469000101
1480.0	0.0004082	136.516000032
1480.0	0.0004082	136.562999964
1480.0	0.0004081	136.594000101
1480.0	0.0004077	136.641000032
1480.0	0.000408	136.671999931
1480.0	0.0004082	136.719000101
1480.0	0.0004082	136.766000032
1480.0	0.0004082	136.796999931
1480.0	0.0004082	136.844000101
1480.0	0.0004081	136.891000032
1480.0	0.000408	136.921999931
1480.0	0.0004076	136.969000101
1480.0	0.0004073	137.0
1490.0	0.0004101	137.280999899
1490.0	0.0004107	137.312999964
1490.0	0.0004111	137.358999968
1490.0	0.0004112	137.405999899
1490.0	0.0004112	137.437999964
1490.0	0.0004113	137.483999968
1490.0	0.0004113	137.530999899
1490.0	0.0004115	137.562999964
1490.0	0.0004112	137.608999968
1490.0	0.0004115	137.641000032
1490.0	0.000412	137.687999964
1490.0	0.0004121	137.733999968
1490.0	0.0004123	137.766000032
1490.0	0.0004123	137.812999964
1490.0	0.0004121	137.858999968
1490.0	0.0004123	137.891000032
1490.0	0.0004125	137.937999964
1490.0	0.0004123	137.969000101
1490.0	0.0004123	138.016000032
1490.0	0.0004123	138.062999964
1490.0	0.000412	138.094000101
1490.0	0.0004118	138.141000032
1490.0	0.000412	138.187999964
1490.0	0.000412	138.219000101
1490.0	0.0004118	138.266000032
1490.0	0.0004115	138.312999964
1490.0	0.0004115	138.344000101
1490.0	0.0004115	138.391000032
1490.0	0.0004112	138.421999931
1490.0	0.0004117	138.469000101
1490.0	0.0004118	138.516000032
1490.0	0.0004118	138.546999931
1490.0	0.0004118	138.594000101
1490.0	0.0004118	138.641000032
1490.0	0.0004118	138.671999931
1490.0	0.000412	138.719000101
1490.0	0.0004118	138.75
1500.0	0.0004126	139.030999899
1500.0	0.0004136	139.062999964
1500.0	0.0004138	139.108999968
1500.0	0.000414	139.155999899
1500.0	0.000414	139.187999964
1500.0	0.0004138	139.233999968
1500.0	0.0004137	139.280999899
1500.0	0.0004138	139.312999964
1500.0	0.000414	139.358999968
1500.0	0.000414	139.391000032
1500.0	0.0004142	139.437999964
1500.0	0.0004145	139.483999968
1500.0	0.0004143	139.516000032
1500.0	0.0004142	139.562999964
1500.0	0.0004142	139.608999968
1500.0	0.000414	139.641000032
1500.0	0.000414	139.687999964
1500.0	0.0004138	139.719000101
1500.0	0.0004133	139.766000032
1500.0	0.0004132	139.812999964
1500.0	0.0004136	139.844000101
1500.0	0.000414	139.891000032
1500.0	0.0004142	139.937999964
1500.0	0.0004142	139.969000101
1500.0	0.0004142	140.016000032
1500.0	0.0004142	140.062999964
1500.0	0.000414	140.094000101
1500.0	0.0004142	140.141000032
1500.0	0.0004145	140.171999931
1500.0	0.0004145	140.219000101
1500.0	0.0004148	140.266000032
1500.0	0.0004145	140.296999931
1500.0	0.0004142	140.344000101
1500.0	0.0004143	140.391000032
1500.0	0.0004142	140.421999931
1500.0	0.0004138	140.469000101
1500.0	0.0004142	140.5
1510.0	0.0004157	140.780999899
1510.0	0.0004157	140.812999964
1510.0	0.0004161	140.858999968
1510.0	0.0004161	140.905999899
1510.0	0.0004161	140.937999964
1510.0	0.0004157	140.983999968
1510.0	0.0004157	141.030999899
1510.0	0.0004161	141.062999964
1510.0	0.0004163	141.108999968
1510.0	0.0004168	141.141000032
1510.0	0.000417	141.187999964
1510.0	0.000417	141.233999968
1510.0	0.000417	141.266000032
1510.0	0.0004168	141.312999964
1510.0	0.000417	141.358999968
1510.0	0.0004167	141.391000032
1510.0	0.0004167	141.437999964
1510.0	0.0004163	141.469000101
1510.0	0.0004162	141.516000032
1510.0	0.0004161	141.562999964
1510.0	0.0004156	141.594000101
1510.0	0.0004157	141.641000032
1510.0	0.0004155	141.687999964
1510.0	0.0004155	141.719000101
1510.0	0.0004155	141.766000032
1510.0	0.0004155	141.796999931
1510.0	0.0004156	141.844000101
1510.0	0.0004161	141.891000032
1510.0	0.0004162	141.921999931
1510.0	0.0004162	141.969000101
1510.0	0.0004161	142.016000032
1510.0	0.0004161	142.046999931
1510.0	0.0004157	142.094000101
1510.0	0.0004156	142.141000032
1510.0	0.0004155	142.171999931
1510.0	0.0004155	142.219000101
1510.0	0.0004155	142.25
1520.0	0.0004168	142.530999899
1520.0	0.000417	142.578000069
1520.0	0.000417	142.608999968
1520.0	0.0004168	142.655999899
1520.0	0.0004167	142.687999964
1520.0	0.0004165	142.733999968
1520.0	0.0004165	142.780999899
1520.0	0.0004165	142.812999964
1520.0	0.0004168	142.858999968
1520.0	0.000417	142.905999899
1520.0	0.0004173	142.937999964
1520.0	0.0004175	142.983999968
1520.0	0.0004177	143.030999899
1520.0	0.0004176	143.062999964
1520.0	0.0004173	143.108999968
1520.0	0.000417	143.141000032
1520.0	0.0004163	143.187999964
1520.0	0.0004157	143.233999968
1520.0	0.0004156	143.266000032
1520.0	0.0004155	143.312999964
1520.0	0.0004151	143.358999968
1520.0	0.0004152	143.391000032
1520.0	0.0004156	143.437999964
1520.0	0.0004157	143.469000101
1520.0	0.0004162	143.516000032
1520.0	0.0004165	143.562999964
1520.0	0.0004163	143.594000101
1520.0	0.0004165	143.641000032
1520.0	0.0004163	143.687999964
1520.0	0.0004161	143.719000101
1520.0	0.0004156	143.766000032
1520.0	0.0004157	143.812999964
1520.0	0.0004157	143.844000101
1520.0	0.0004155	143.891000032
1520.0	0.0004152	143.921999931
1520.0	0.0004155	143.969000101
1520.0	0.0004155	144.016000032
1530.0	0.0004156	144.280999899
1530.0	0.0004155	144.328000069
1530.0	0.0004155	144.358999968
1530.0	0.0004155	144.405999899
1530.0	0.0004151	144.437999964
1530.0	0.0004151	144.483999968
1530.0	0.0004151	144.530999899
1530.0	0.0004148	144.562999964
1530.0	0.0004146	144.608999968
1530.0	0.0004145	144.655999899
1530.0	0.0004148	144.687999964
1530.0	0.0004146	144.733999968
1530.0	0.0004145	144.780999899
1530.0	0.0004145	144.812999964
1530.0	0.0004143	144.858999968
1530.0	0.0004142	144.891000032
1530.0	0.0004138	144.937999964
1530.0	0.0004138	144.983999968
1530.0	0.0004138	145.030999899
1530.0	0.0004138	145.062999964
1530.0	0.0004138	145.108999968
1530.0	0.0004138	145.141000032
1530.0	0.000414	145.187999964
1530.0	0.000414	145.233999968
1530.0	0.000414	145.266000032
1530.0	0.0004146	145.312999964
1530.0	0.000415	145.358999968
1530.0	0.0004152	145.391000032
1530.0	0.000415	145.437999964
1530.0	0.0004148	145.469000101
1530.0	0.0004145	145.516000032
1530.0	0.0004148	145.562999964
1530.0	0.000415	145.594000101
1530.0	0.000415	145.641000032
1530.0	0.0004151	145.687999964
1530.0	0.0004152	145.719000101
1530.0	0.0004151	145.766000032
1540.0	0.0004137	146.030999899
1540.0	0.0004132	146.078000069
1540.0	0.000413	146.125
1540.0	0.0004121	146.155999899
1540.0	0.0004115	146.203000069
1540.0	0.0004108	146.25
1540.0	0.0004105	146.280999899
1540.0	0.0004098	146.328000069
1540.0	0.0004096	146.358999968
1540.0	0.0004101	146.405999899
1540.0	0.0004102	146.453000069
1540.0	0.00041	146.483999968
1540.0	0.00041	146.530999899
1540.0	0.0004096	146.578000069
1540.0	0.0004095	146.608999968
1540.0	0.0004095	146.655999899
1540.0	0.0004095	146.703000069
1540.0	0.0004095	146.733999968
1540.0	0.0004093	146.780999899
1540.0	0.0004093	146.812999964
1540.0	0.0004095	146.858999968
1540.0	0.0004096	146.905999899
1540.0	0.00041	146.937999964
1540.0	0.0004101	146.983999968
1540.0	0.0004098	147.030999899
1540.0	0.0004095	147.062999964
1540.0	0.0004088	147.108999968
1540.0	0.0004086	147.141000032
1540.0	0.0004087	147.187999964
1540.0	0.0004088	147.233999968
1540.0	0.0004088	147.266000032
1540.0	0.0004088	147.312999964
1540.0	0.0004092	147.358999968
1540.0	0.000409	147.391000032
1540.0	0.0004092	147.437999964
1540.0	0.0004096	147.469000101
1540.0	0.0004098	147.516000032
1550.0	0.0004075	147.796999931
1550.0	0.0004067	147.828000069
1550.0	0.0004058	147.875
1550.0	0.000405	147.921999931
1550.0	0.000404	147.953000069
1550.0	0.0004036	148.0
1550.0	0.0004032	148.030999899
1550.0	0.0004031	148.078000069
1550.0	0.0004031	148.125
1550.0	0.0004032	148.155999899
1550.0	0.0004031	148.203000069
1550.0	0.000403	148.25
1550.0	0.0004026	148.280999899
1550.0	0.0004025	148.328000069
1550.0	0.0004023	148.375
1550.0	0.000402	148.405999899
1550.0	0.0004017	148.453000069
1550.0	0.0004015	148.483999968
1550.0	0.0004012	148.530999899
1550.0	0.0004013	148.578000069
1550.0	0.0004013	148.608999968
1550.0	0.0004015	148.655999899
1550.0	0.0004017	148.703000069
1550.0	0.0004017	148.733999968
1550.0	0.0004015	148.780999899
1550.0	0.0004017	148.812999964
1550.0	0.0004018	148.858999968
1550.0	0.0004017	148.905999899
1550.0	0.0004015	148.937999964
1550.0	0.0004013	148.983999968
1550.0	0.0004007	149.030999899
1550.0	0.0004007	149.062999964
1550.0	0.0004007	149.108999968
1550.0	0.0004005	149.141000032
1550.0	0.0004005	149.187999964
1550.0	0.0004006	149.233999968
1550.0	0.0004007	149.266000032
1560.0	0.0003986	149.546999931
1560.0	0.000397	149.594000101
1560.0	0.0003956	149.625
1560.0	0.0003945	149.671999931
1560.0	0.0003937	149.703000069
1560.0	0.000393	149.75
1560.0	0.0003923	149.796999931
1560.0	0.000392	149.828000069
1560.0	0.0003917	149.875
1560.0	0.000392	149.921999931
1560.0	0.000392	149.953000069
1560.0	0.0003918	150.0
1560.0	0.000392	150.046999931
1560.0	0.0003918	150.078000069
1560.0	0.0003912	150.125
1560.0	0.0003906	150.155999899
1560.0	0.0003906	150.203000069
1560.0	0.0003902	150.25
1560.0	0.0003898	150.280999899
1560.0	0.00039	150.328000069
1560.0	0.0003901	150.375
1560.0	0.0003905	150.405999899
1560.0	0.0003906	150.453000069
1560.0	0.0003906	150.483999968
1560.0	0.0003906	150.530999899
1560.0	0.0003905	150.578000069
1560.0	0.0003905	150.608999968
1560.0	0.0003906	150.655999899
1560.0	0.0003905	150.703000069
1560.0	0.0003905	150.733999968
1560.0	0.0003902	150.780999899
1560.0	0.0003901	150.812999964
1560.0	0.0003906	150.858999968
1560.0	0.0003907	150.905999899
1560.0	0.0003907	150.937999964
1560.0	0.0003912	150.983999968
1560.0	0.0003915	151.030999899
1570.0	0.0003855	151.296999931
1570.0	0.0003826	151.344000101
1570.0	0.0003805	151.375
1570.0	0.000379	151.421999931
1570.0	0.0003777	151.469000101
1570.0	0.0003767	151.5
1570.0	0.0003762	151.546999931
1570.0	0.0003763	151.594000101
1570.0	0.0003761	151.625
1570.0	0.0003758	151.671999931
1570.0	0.0003757	151.719000101
1570.0	0.0003756	151.75
1570.0	0.0003751	151.796999931
1570.0	0.0003748	151.828000069
1570.0	0.0003746	151.875
1570.0	0.0003743	151.921999931
1570.0	0.0003743	151.953000069
1570.0	0.0003746	152.0
1570.0	0.0003745	152.046999931
1570.0	0.0003743	152.078000069
1570.0	0.0003742	152.125
1570.0	0.0003742	152.155999899
1570.0	0.0003742	152.203000069
1570.0	0.0003743	152.25
1570.0	0.0003742	152.280999899
1570.0	0.000374	152.328000069
1570.0	0.0003743	152.375
1570.0	0.0003746	152.405999899
1570.0	0.0003748	152.453000069
1570.0	0.000375	152.483999968
1570.0	0.000375	152.530999899
1570.0	0.0003748	152.578000069
1570.0	0.0003745	152.608999968
1570.0	0.0003743	152.655999899
1570.0	0.0003742	152.703000069
1570.0	0.0003742	152.733999968
1570.0	0.0003743	152.780999899
1580.0	0.0003677	153.062999964
1580.0	0.0003651	153.094000101
1580.0	0.000363	153.141000032
1580.0	0.0003615	153.187999964
1580.0	0.0003601	153.219000101
1580.0	0.0003587	153.266000032
1580.0	0.0003582	153.312999964
1580.0	0.0003576	153.344000101
1580.0	0.0003571	153.391000032
1580.0	0.000357	153.421999931
1580.0	0.000357	153.469000101
1580.0	0.0003565	153.516000032
1580.0	0.0003563	153.546999931
1580.0	0.0003565	153.594000101
1580.0	0.0003563	153.641000032
1580.0	0.0003562	153.671999931
1580.0	0.0003561	153.719000101
1580.0	0.0003557	153.75
1580.0	0.0003556	153.796999931
1580.0	0.0003558	153.844000101
1580.0	0.0003561	153.875
1580.0	0.0003562	153.921999931
1580.0	0.0003563	153.969000101
1580.0	0.0003563	154.0
1580.0	0.0003563	154.046999931
1580.0	0.0003563	154.078000069
1580.0	0.0003562	154.125
1580.0	0.0003562	154.171999931
1580.0	0.0003563	154.203000069
1580.0	0.0003565	154.25
1580.0	0.0003563	154.296999931
1580.0	0.0003563	154.328000069
1580.0	0.0003563	154.375
1580.0	0.0003561	154.405999899
1580.0	0.0003557	154.453000069
1580.0	0.0003557	154.5
1580.0	0.0003558	154.530999899
1590.0	0.0003471	154.812999964
1590.0	0.0003443	154.858999968
1590.0	0.0003415	154.891000032
1590.0	0.0003392	154.937999964
1590.0	0.0003376	154.983999968
1590.0	0.0003365	155.016000032
1590.0	0.0003355	155.062999964
1590.0	0.0003348	155.094000101
1590.0	0.0003343	155.141000032
1590.0	0.0003337	155.187999964
1590.0	0.0003336	155.219000101
1590.0	0.0003336	155.266000032
1590.0	0.0003338	155.312999964
1590.0	0.0003343	155.344000101
1590.0	0.0003343	155.391000032
1590.0	0.000334	155.421999931
1590.0	0.000334	155.469000101
1590.0	0.0003338	155.516000032
1590.0	0.0003338	155.546999931
1590.0	0.0003337	155.594000101
1590.0	0.0003337	155.641000032
1590.0	0.0003336	155.671999931
1590.0	0.0003333	155.719000101
1590.0	0.0003336	155.75
1590.0	0.0003336	155.796999931
1590.0	0.0003337	155.844000101
1590.0	0.000334	155.875
1590.0	0.000334	155.921999931
1590.0	0.0003336	155.969000101
1590.0	0.0003336	156.0
1590.0	0.0003337	156.046999931
1590.0	0.0003332	156.078000069
1590.0	0.0003333	156.125
1590.0	0.0003337	156.171999931
1590.0	0.0003336	156.203000069
1590.0	0.0003333	156.25
1590.0	0.0003333	156.296999931
1600.0	0.0003243	156.562999964
1600.0	0.0003213	156.608999968
1600.0	0.0003188	156.641000032
1600.0	0.0003165	156.687999964
1600.0	0.0003147	156.733999968
1600.0	0.0003133	156.766000032
1600.0	0.0003122	156.812999964
1600.0	0.0003118	156.858999968
1600.0	0.0003118	156.891000032
1600.0	0.0003116	156.937999964
1600.0	0.0003113	156.983999968
1600.0	0.0003112	157.016000032
1600.0	0.0003107	157.062999964
1600.0	0.0003103	157.094000101
1600.0	0.00031	157.141000032
1600.0	0.0003096	157.187999964
1600.0	0.0003097	157.219000101
1600.0	0.0003097	157.266000032
1600.0	0.0003097	157.312999964
1600.0	0.0003097	157.344000101
1600.0	0.0003102	157.391000032
1600.0	0.0003102	157.421999931
1600.0	0.0003101	157.469000101
1600.0	0.0003102	157.516000032
1600.0	0.0003103	157.546999931
1600.0	0.0003102	157.594000101
1600.0	0.0003103	157.641000032
1600.0	0.0003102	157.671999931
1600.0	0.0003097	157.719000101
1600.0	0.0003096	157.75
1600.0	0.0003096	157.796999931
1600.0	0.0003095	157.844000101
1600.0	0.0003097	157.875
1600.0	0.0003097	157.921999931
1600.0	0.0003096	157.969000101
1600.0	0.0003096	158.0
1600.0	0.0003096	158.046999931
1610.0	0.0002996	158.328000069
1610.0	0.0002963	158.358999968
1610.0	0.0002933	158.405999899
1610.0	0.0002908	158.453000069
1610.0	0.0002891	158.483999968
1610.0	0.0002871	158.530999899
1610.0	0.0002857	158.562999964
1610.0	0.000285	158.608999968
1610.0	0.0002843	158.655999899
1610.0	0.0002837	158.687999964
1610.0	0.0002832	158.733999968
1610.0	0.0002831	158.780999899
1610.0	0.0002828	158.812999964
1610.0	0.0002828	158.858999968
1610.0	0.0002828	158.905999899
1610.0	0.0002831	158.937999964
1610.0	0.0002831	158.983999968
1610.0	0.0002832	159.016000032
1610.0	0.0002832	159.062999964
1610.0	0.0002835	159.108999968
1610.0	0.000284	159.141000032
1610.0	0.0002838	159.187999964
1610.0	0.0002835	159.233999968
1610.0	0.0002833	159.266000032
1610.0	0.0002835	159.312999964
1610.0	0.0002837	159.344000101
1610.0	0.0002835	159.391000032
1610.0	0.0002835	159.437999964
1610.0	0.0002837	159.469000101
1610.0	0.0002837	159.516000032
1610.0	0.0002835	159.562999964
1610.0	0.0002833	159.594000101
1610.0	0.0002831	159.641000032
1610.0	0.0002833	159.671999931
1610.0	0.0002835	159.719000101
1610.0	0.0002837	159.766000032
1610.0	0.0002838	159.796999931
1620.0	0.0002751	160.078000069
1620.0	0.0002713	160.125
1620.0	0.0002678	160.155999899
1620.0	0.0002652	160.203000069
1620.0	0.0002631	160.25
1620.0	0.0002616	160.280999899
1620.0	0.0002602	160.328000069
1620.0	0.0002595	160.375
1620.0	0.000259	160.405999899
1620.0	0.0002582	160.453000069
1620.0	0.0002572	160.483999968
1620.0	0.0002568	160.530999899
1620.0	0.0002562	160.578000069
1620.0	0.0002562	160.608999968
1620.0	0.0002562	160.655999899
1620.0	0.0002568	160.703000069
1620.0	0.0002571	160.733999968
1620.0	0.0002572	160.780999899
1620.0	0.0002572	160.828000069
1620.0	0.0002571	160.858999968
1620.0	0.0002571	160.905999899
1620.0	0.000257	160.937999964
1620.0	0.0002568	160.983999968
1620.0	0.000257	161.030999899
1620.0	0.0002566	161.062999964
1620.0	0.0002565	161.108999968
1620.0	0.0002565	161.155999899
1620.0	0.0002565	161.187999964
1620.0	0.0002562	161.233999968
1620.0	0.0002565	161.266000032
1620.0	0.0002565	161.312999964
1620.0	0.0002563	161.358999968
1620.0	0.0002562	161.391000032
1620.0	0.0002562	161.437999964
1620.0	0.000256	161.483999968
1620.0	0.0002557	161.516000032
1620.0	0.000256	161.562999964
1630.0	0.0002468	161.844000101
1630.0	0.0002432	161.891000032
1630.0	0.0002403	161.921999931
1630.0	0.0002381	161.969000101
1630.0	0.0002358	162.016000032
1630.0	0.0002341	162.046999931
1630.0	0.0002327	162.094000101
1630.0	0.0002318	162.125
1630.0	0.0002308	162.171999931
1630.0	0.0002302	162.219000101
1630.0	0.0002302	162.25
1630.0	0.00023	162.296999931
1630.0	0.0002296	162.344000101
1630.0	0.0002293	162.375
1630.0	0.0002293	162.421999931
1630.0	0.0002296	162.453000069
1630.0	0.0002297	162.5
1630.0	0.0002302	162.546999931
1630.0	0.0002306	162.578000069
1630.0	0.0002308	162.625
1630.0	0.0002307	162.671999931
1630.0	0.0002302	162.703000069
1630.0	0.0002302	162.75
1630.0	0.0002302	162.780999899
1630.0	0.0002296	162.828000069
1630.0	0.0002295	162.875
1630.0	0.00023	162.905999899
1630.0	0.0002301	162.953000069
1630.0	0.0002296	163.0
1630.0	0.0002295	163.030999899
1630.0	0.0002295	163.078000069
1630.0	0.0002296	163.108999968
1630.0	0.0002296	163.155999899
1630.0	0.00023	163.203000069
1630.0	0.0002301	163.233999968
1630.0	0.0002302	163.280999899
1630.0	0.0002301	163.328000069
1640.0	0.0002212	163.594000101
1640.0	0.0002181	163.641000032
1640.0	0.0002151	163.687999964
1640.0	0.0002126	163.719000101
1640.0	0.0002106	163.766000032
1640.0	0.0002093	163.812999964
1640.0	0.0002087	163.844000101
1640.0	0.0002081	163.891000032
1640.0	0.0002071	163.937999964
1640.0	0.0002062	163.969000101
1640.0	0.0002057	164.016000032
1640.0	0.0002053	164.046999931
1640.0	0.0002051	164.094000101
1640.0	0.000205	164.141000032
1640.0	0.0002051	164.171999931
1640.0	0.0002051	164.219000101
1640.0	0.0002052	164.266000032
1640.0	0.0002052	164.296999931
1640.0	0.0002052	164.344000101
1640.0	0.0002047	164.375
1640.0	0.0002043	164.421999931
1640.0	0.0002038	164.469000101
1640.0	0.0002037	164.5
1640.0	0.0002037	164.546999931
1640.0	0.0002038	164.594000101
1640.0	0.000204	164.625
1640.0	0.0002045	164.671999931
1640.0	0.0002046	164.703000069
1640.0	0.0002045	164.75
1640.0	0.0002046	164.796999931
1640.0	0.0002045	164.828000069
1640.0	0.000204	164.875
1640.0	0.000204	164.921999931
1640.0	0.0002041	164.953000069
1640.0	0.0002043	165.0
1640.0	0.0002041	165.030999899
1640.0	0.0002041	165.078000069
1650.0	0.000196	165.358999968
1650.0	0.0001931	165.405999899
1650.0	0.00019	165.437999964
1650.0	0.0001875	165.483999968
1650.0	0.0001856	165.530999899
1650.0	0.000184	165.562999964
1650.0	0.0001832	165.608999968
1650.0	0.0001825	165.641000032
1650.0	0.0001816	165.687999964
1650.0	0.0001812	165.733999968
1650.0	0.0001812	165.766000032
1650.0	0.0001812	165.812999964
1650.0	0.0001812	165.858999968
1650.0	0.000181	165.891000032
1650.0	0.0001808	165.937999964
1650.0	0.0001808	165.969000101
1650.0	0.0001807	166.016000032
1650.0	0.0001806	166.062999964
1650.0	0.0001803	166.094000101
1650.0	0.0001806	166.141000032
1650.0	0.0001807	166.187999964
1650.0	0.0001803	166.219000101
1650.0	0.0001806	166.266000032
1650.0	0.0001807	166.296999931
1650.0	0.0001808	166.344000101
1650.0	0.0001812	166.391000032
1650.0	0.0001815	166.421999931
1650.0	0.0001818	166.469000101
1650.0	0.0001818	166.516000032
1650.0	0.0001818	166.546999931
1650.0	0.0001815	166.594000101
1650.0	0.000181	166.625
1650.0	0.0001808	166.671999931
1650.0	0.000181	166.719000101
1650.0	0.0001808	166.75
1650.0	0.0001808	166.796999931
1650.0	0.0001806	166.844000101
1660.0	0.0001731	167.125
1660.0	0.0001703	167.171999931
1660.0	0.0001683	167.203000069
1660.0	0.0001666	167.25
1660.0	0.0001652	167.296999931
1660.0	0.0001643	167.328000069
1660.0	0.0001632	167.375
1660.0	0.0001621	167.405999899
1660.0	0.0001618	167.453000069
1660.0	0.0001615	167.5
1660.0	0.0001612	167.530999899
1660.0	0.000161	167.578000069
1660.0	0.0001608	167.625
1660.0	0.0001606	167.655999899
1660.0	0.0001603	167.703000069
1660.0	0.0001603	167.733999968
1660.0	0.0001602	167.780999899
1660.0	0.0001602	167.828000069
1660.0	0.0001606	167.858999968
1660.0	0.0001608	167.905999899
1660.0	0.0001607	167.953000069
1660.0	0.0001606	167.983999968
1660.0	0.0001606	168.030999899
1660.0	0.0001603	168.062999964
1660.0	0.0001601	168.108999968
1660.0	0.0001602	168.155999899
1660.0	0.0001601	168.187999964
1660.0	0.0001601	168.233999968
1660.0	0.0001603	168.280999899
1660.0	0.0001606	168.312999964
1660.0	0.0001607	168.358999968
1660.0	0.0001608	168.391000032
1660.0	0.0001615	168.437999964
1660.0	0.000162	168.483999968
1660.0	0.0001618	168.516000032
1660.0	0.0001618	168.562999964
1660.0	0.0001615	168.608999968
1670.0	0.0001532	168.891000032
1670.0	0.0001507	168.937999964
1670.0	0.0001488	168.969000101
1670.0	0.0001472	169.016000032
1670.0	0.0001462	169.062999964
1670.0	0.0001451	169.094000101
1670.0	0.0001441	169.141000032
1670.0	0.0001435	169.171999931
1670.0	0.0001432	169.219000101
1670.0	0.0001428	169.266000032
1670.0	0.0001427	169.296999931
1670.0	0.0001422	169.344000101
1670.0	0.000142	169.391000032
1670.0	0.0001421	169.421999931
1670.0	0.0001422	169.469000101
1670.0	0.0001422	169.516000032
1670.0	0.0001422	169.546999931
1670.0	0.0001422	169.594000101
1670.0	0.0001425	169.625
1670.0	0.0001427	169.671999931
1670.0	0.0001428	169.719000101
1670.0	0.0001432	169.75
1670.0	0.0001432	169.796999931
1670.0	0.0001435	169.844000101
1670.0	0.0001433	169.875
1670.0	0.0001431	169.921999931
1670.0	0.0001428	169.953000069
1670.0	0.0001431	170.0
1670.0	0.0001431	170.046999931
1670.0	0.0001432	170.078000069
1670.0	0.0001431	170.125
1670.0	0.0001428	170.171999931
1670.0	0.0001431	170.203000069
1670.0	0.0001435	170.25
1670.0	0.000144	170.280999899
1670.0	0.0001437	170.328000069
1670.0	0.0001433	170.375
1680.0	0.0001371	170.655999899
1680.0	0.0001352	170.703000069
1680.0	0.0001331	170.733999968
1680.0	0.0001316	170.780999899
1680.0	0.0001303	170.828000069
1680.0	0.0001293	170.858999968
1680.0	0.0001283	170.905999899
1680.0	0.0001276	170.937999964
1680.0	0.0001272	170.983999968
1680.0	0.0001271	171.030999899
1680.0	0.0001272	171.062999964
1680.0	0.0001271	171.108999968
1680.0	0.0001272	171.155999899
1680.0	0.0001276	171.187999964
1680.0	0.0001277	171.233999968
1680.0	0.0001277	171.280999899
1680.0	0.0001276	171.312999964
1680.0	0.0001272	171.358999968
1680.0	0.000127	171.391000032
1680.0	0.0001268	171.437999964
1680.0	0.0001265	171.483999968
1680.0	0.0001265	171.516000032
1680.0	0.0001268	171.562999964
1680.0	0.000127	171.608999968
1680.0	0.0001266	171.641000032
1680.0	0.0001266	171.687999964
1680.0	0.0001265	171.719000101
1680.0	0.000126	171.766000032
1680.0	0.0001256	171.812999964
1680.0	0.0001256	171.844000101
1680.0	0.0001258	171.891000032
1680.0	0.000126	171.937999964
1680.0	0.0001265	171.969000101
1680.0	0.0001265	172.016000032
1680.0	0.0001265	172.046999931
1680.0	0.0001262	172.094000101
1680.0	0.0001262	172.141000032
1690.0	0.0001213	172.421999931
1690.0	0.0001195	172.469000101
1690.0	0.0001182	172.5
1690.0	0.0001172	172.546999931
1690.0	0.0001162	172.594000101
1690.0	0.0001152	172.625
1690.0	0.0001147	172.671999931
1690.0	0.0001143	172.719000101
1690.0	0.000114	172.75
1690.0	0.0001138	172.796999931
1690.0	0.0001135	172.828000069
1690.0	0.0001135	172.875
1690.0	0.0001135	172.921999931
1690.0	0.0001132	172.953000069
1690.0	0.0001131	173.0
1690.0	0.0001132	173.046999931
1690.0	0.0001133	173.078000069
1690.0	0.0001135	173.125
1690.0	0.0001137	173.155999899
1690.0	0.0001138	173.203000069
1690.0	0.0001135	173.25
1690.0	0.0001133	173.280999899
1690.0	0.0001133	173.328000069
1690.0	0.0001133	173.375
1690.0	0.0001133	173.405999899
1690.0	0.0001135	173.453000069
1690.0	0.0001135	173.483999968
1690.0	0.0001135	173.530999899
1690.0	0.0001137	173.578000069
1690.0	0.0001135	173.608999968
1690.0	0.0001135	173.655999899
1690.0	0.0001137	173.703000069
1690.0	0.0001141	173.733999968
1690.0	0.0001141	173.780999899
1690.0	0.000114	173.812999964
1690.0	0.000114	173.858999968
1690.0	0.0001137	173.905999899
1700.0	0.0001085	174.187999964
1700.0	0.0001068	174.233999968
1700.0	0.0001052	174.280999899
1700.0	0.0001041	174.312999964
1700.0	0.0001032	174.358999968
1700.0	0.0001022	174.405999899
1700.0	0.0001018	174.437999964
1700.0	0.0001018	174.483999968
1700.0	0.0001016	174.516000032
1700.0	0.0001015	174.562999964
1700.0	0.0001012	174.608999968
1700.0	0.0001012	174.641000032
1700.0	0.0001012	174.687999964
1700.0	0.0001013	174.733999968
1700.0	0.0001013	174.766000032
1700.0	0.0001013	174.812999964
1700.0	0.0001015	174.844000101
1700.0	0.0001018	174.891000032
1700.0	0.0001021	174.937999964
1700.0	0.0001021	174.969000101
1700.0	0.0001022	175.016000032
1700.0	0.0001021	175.062999964
1700.0	0.0001018	175.094000101
1700.0	0.0001016	175.141000032
1700.0	0.0001015	175.187999964
1700.0	0.000101	175.219000101
1700.0	0.000101	175.266000032
1700.0	0.0001008	175.296999931
1700.0	0.0001008	175.344000101
1700.0	0.000101	175.391000032
1700.0	0.0001013	175.421999931
1700.0	0.0001013	175.469000101
1700.0	0.0001012	175.516000032
1700.0	0.0001015	175.546999931
1700.0	0.0001016	175.594000101
1700.0	0.0001015	175.625
1700.0	0.0001016	175.671999931
1710.0	9.71e-05	175.953000069
1710.0	9.56e-05	175.983999968
1710.0	9.43e-05	176.030999899
1710.0	9.31e-05	176.062999964
1710.0	9.22e-05	176.094000101
1710.0	9.16e-05	176.141000032
1710.0	9.13e-05	176.171999931
1710.0	9.12e-05	176.203000069
1710.0	9.08e-05	176.25
1710.0	9.06e-05	176.280999899
1710.0	9.02e-05	176.328000069
1710.0	9.03e-05	176.358999968
1710.0	9.06e-05	176.391000032
1710.0	9.07e-05	176.437999964
1710.0	9.07e-05	176.469000101
1710.0	9.06e-05	176.5
1710.0	9.03e-05	176.546999931
1710.0	9.01e-05	176.578000069
1710.0	9e-05	176.608999968
1710.0	9.02e-05	176.655999899
1710.0	9.06e-05	176.687999964
1710.0	9.06e-05	176.733999968
1710.0	9.07e-05	176.766000032
1710.0	9.07e-05	176.796999931
1710.0	9.06e-05	176.844000101
1710.0	9.03e-05	176.875
1710.0	9.03e-05	176.905999899
1710.0	9.06e-05	176.953000069
1710.0	9.03e-05	176.983999968
1710.0	9.02e-05	177.030999899
1710.0	9.03e-05	177.062999964
1710.0	9.03e-05	177.094000101
1710.0	9e-05	177.141000032
1710.0	8.97e-05	177.171999931
1710.0	8.97e-05	177.203000069
1710.0	8.95e-05	177.25
1710.0	8.93e-05	177.280999899
1710.0	8.93e-05	177.312999964
1710.0	8.96e-05	177.358999968
1710.0	9.01e-05	177.391000032
1710.0	9.03e-05	177.437999964
1720.0	8.77e-05	177.719000101
1720.0	8.7e-05	177.75
1720.0	8.62e-05	177.780999899
1720.0	8.53e-05	177.828000069
1720.0	8.47e-05	177.858999968
1720.0	8.45e-05	177.905999899
1720.0	8.43e-05	177.937999964
1720.0	8.38e-05	177.969000101
1720.0	8.32e-05	178.016000032
1720.0	8.27e-05	178.046999931
1720.0	8.2e-05	178.078000069
1720.0	8.15e-05	178.125
1720.0	8.13e-05	178.155999899
1720.0	8.13e-05	178.187999964
1720.0	8.13e-05	178.233999968
1720.0	8.15e-05	178.266000032
1720.0	8.16e-05	178.312999964
1720.0	8.15e-05	178.344000101
1720.0	8.15e-05	178.375
1720.0	8.12e-05	178.421999931
1720.0	8.12e-05	178.453000069
1720.0	8.16e-05	178.483999968
1720.0	8.18e-05	178.530999899
1720.0	8.21e-05	178.562999964
1720.0	8.22e-05	178.594000101
1720.0	8.22e-05	178.641000032
1720.0	8.2e-05	178.671999931
1720.0	8.18e-05	178.719000101
1720.0	8.18e-05	178.75
1720.0	8.16e-05	178.780999899
1720.0	8.13e-05	178.828000069
1720.0	8.13e-05	178.858999968
1720.0	8.16e-05	178.891000032
1720.0	8.2e-05	178.937999964
1720.0	8.2e-05	178.969000101
1720.0	8.18e-05	179.016000032
1720.0	8.13e-05	179.046999931
1720.0	8.12e-05	179.078000069
1720.0	8.15e-05	179.125
1720.0	8.18e-05	179.155999899
1720.0	8.21e-05	179.187999964
1730.0	7.93e-05	179.469000101
1730.0	7.85e-05	179.516000032
1730.0	7.78e-05	179.546999931
1730.0	7.72e-05	179.578000069
1730.0	7.68e-05	179.625
1730.0	7.66e-05	179.655999899
1730.0	7.62e-05	179.687999964
1730.0	7.58e-05	179.733999968
1730.0	7.57e-05	179.766000032
1730.0	7.57e-05	179.796999931
1730.0	7.57e-05	179.844000101
1730.0	7.62e-05	179.875
1730.0	7.65e-05	179.921999931
1730.0	7.65e-05	179.953000069
1730.0	7.63e-05	179.983999968
1730.0	7.58e-05	180.030999899
1730.0	7.57e-05	180.062999964
1730.0	7.58e-05	180.094000101
1730.0	7.57e-05	180.141000032
1730.0	7.53e-05	180.171999931
1730.0	7.53e-05	180.219000101
1730.0	7.56e-05	180.25
1730.0	7.57e-05	180.280999899
1730.0	7.57e-05	180.328000069
1730.0	7.57e-05	180.358999968
1730.0	7.53e-05	180.391000032
1730.0	7.52e-05	180.437999964
1730.0	7.52e-05	180.469000101
1730.0	7.56e-05	180.5
1730.0	7.57e-05	180.546999931
1730.0	7.57e-05	180.578000069
1730.0	7.56e-05	180.625
1730.0	7.56e-05	180.655999899
1730.0	7.53e-05	180.687999964
1730.0	7.53e-05	180.733999968
1730.0	7.56e-05	180.766000032
1730.0	7.57e-05	180.796999931
1730.0	7.57e-05	180.844000101
1730.0	7.56e-05	180.875
1730.0	7.52e-05	180.905999899
1730.0	7.52e-05	180.953000069
1740.0	7.27e-05	181.233999968
1740.0	7.2e-05	181.266000032
1740.0	7.08e-05	181.296999931
1740.0	7.01e-05	181.344000101
1740.0	6.95e-05	181.375
1740.0	6.91e-05	181.405999899
1740.0	6.88e-05	181.453000069
1740.0	6.83e-05	181.483999968
1740.0	6.82e-05	181.530999899
1740.0	6.78e-05	181.562999964
1740.0	6.76e-05	181.594000101
1740.0	6.75e-05	181.641000032
1740.0	6.76e-05	181.671999931
1740.0	6.78e-05	181.703000069
1740.0	6.82e-05	181.75
1740.0	6.82e-05	181.780999899
1740.0	6.82e-05	181.828000069
1740.0	6.85e-05	181.858999968
1740.0	6.87e-05	181.891000032
1740.0	6.87e-05	181.937999964
1740.0	6.87e-05	181.969000101
1740.0	6.87e-05	182.0
1740.0	6.88e-05	182.046999931
1740.0	6.88e-05	182.078000069
1740.0	6.87e-05	182.108999968
1740.0	6.85e-05	182.155999899
1740.0	6.83e-05	182.187999964
1740.0	6.83e-05	182.233999968
1740.0	6.83e-05	182.266000032
1740.0	6.82e-05	182.296999931
1740.0	6.78e-05	182.344000101
1740.0	6.77e-05	182.375
1740.0	6.77e-05	182.405999899
1740.0	6.75e-05	182.453000069
1740.0	6.72e-05	182.483999968
1740.0	6.72e-05	182.530999899
1740.0	6.75e-05	182.562999964
1740.0	6.76e-05	182.594000101
1740.0	6.81e-05	182.641000032
1740.0	6.83e-05	182.671999931
1740.0	6.85e-05	182.703000069
1750.0	6.57e-05	182.983999968
1750.0	6.46e-05	183.030999899
1750.0	6.37e-05	183.062999964
1750.0	6.32e-05	183.108999968
1750.0	6.32e-05	183.141000032
1750.0	6.31e-05	183.171999931
1750.0	6.31e-05	183.219000101
1750.0	6.28e-05	183.25
1750.0	6.28e-05	183.280999899
1750.0	6.26e-05	183.328000069
1750.0	6.21e-05	183.358999968
1750.0	6.18e-05	183.391000032
1750.0	6.18e-05	183.437999964
1750.0	6.16e-05	183.469000101
1750.0	6.15e-05	183.516000032
1750.0	6.15e-05	183.546999931
1750.0	6.15e-05	183.578000069
1750.0	6.13e-05	183.625
1750.0	6.1e-05	183.655999899
1750.0	6.08e-05	183.687999964
1750.0	6.08e-05	183.733999968
1750.0	6.1e-05	183.766000032
1750.0	6.12e-05	183.812999964
1750.0	6.15e-05	183.844000101
1750.0	6.16e-05	183.875
1750.0	6.18e-05	183.921999931
1750.0	6.21e-05	183.953000069
1750.0	6.21e-05	183.983999968
1750.0	6.21e-05	184.030999899
1750.0	6.22e-05	184.062999964
1750.0	6.22e-05	184.094000101
1750.0	6.26e-05	184.141000032
1750.0	6.31e-05	184.171999931
1750.0	6.32e-05	184.219000101
1750.0	6.33e-05	184.25
1750.0	6.31e-05	184.280999899
1750.0	6.28e-05	184.328000069
1750.0	6.28e-05	184.358999968
1750.0	6.27e-05	184.391000032
1750.0	6.26e-05	184.437999964
1750.0	6.26e-05	184.469000101
1760.0	5.95e-05	184.75
1760.0	5.88e-05	184.780999899
1760.0	5.85e-05	184.812999964
1760.0	5.83e-05	184.858999968
1760.0	5.82e-05	184.891000032
1760.0	5.78e-05	184.937999964
1760.0	5.75e-05	184.969000101
1760.0	5.71e-05	185.0
1760.0	5.66e-05	185.046999931
1760.0	5.66e-05	185.078000069
1760.0	5.68e-05	185.108999968
1760.0	5.66e-05	185.155999899
1760.0	5.63e-05	185.187999964
1760.0	5.62e-05	185.219000101
1760.0	5.62e-05	185.266000032
1760.0	5.63e-05	185.296999931
1760.0	5.65e-05	185.344000101
1760.0	5.66e-05	185.375
1760.0	5.63e-05	185.405999899
1760.0	5.6e-05	185.453000069
1760.0	5.6e-05	185.483999968
1760.0	5.62e-05	185.516000032
1760.0	5.62e-05	185.562999964
1760.0	5.58e-05	185.594000101
1760.0	5.53e-05	185.641000032
1760.0	5.51e-05	185.671999931
1760.0	5.53e-05	185.703000069
1760.0	5.58e-05	185.75
1760.0	5.6e-05	185.780999899
1760.0	5.58e-05	185.812999964
1760.0	5.57e-05	185.858999968
1760.0	5.58e-05	185.891000032
1760.0	5.6e-05	185.921999931
1760.0	5.62e-05	185.969000101
1760.0	5.65e-05	186.0
1760.0	5.63e-05	186.030999899
1760.0	5.63e-05	186.078000069
1760.0	5.62e-05	186.108999968
1760.0	5.62e-05	186.155999899
1760.0	5.63e-05	186.187999964
1760.0	5.62e-05	186.219000101
1770.0	5.46e-05	186.5
1770.0	5.38e-05	186.546999931
1770.0	5.32e-05	186.578000069
1770.0	5.28e-05	186.608999968
1770.0	5.27e-05	186.655999899
1770.0	5.22e-05	186.687999964
1770.0	5.2e-05	186.719000101
1770.0	5.16e-05	186.766000032
1770.0	5.15e-05	186.796999931
1770.0	5.15e-05	186.844000101
1770.0	5.15e-05	186.875
1770.0	5.18e-05	186.905999899
1770.0	5.18e-05	186.953000069
1770.0	5.16e-05	186.983999968
1770.0	5.15e-05	187.016000032
1770.0	5.16e-05	187.062999964
1770.0	5.16e-05	187.094000101
1770.0	5.15e-05	187.125
1770.0	5.13e-05	187.171999931
1770.0	5.15e-05	187.203000069
1770.0	5.16e-05	187.25
1770.0	5.18e-05	187.280999899
1770.0	5.21e-05	187.312999964
1770.0	5.2e-05	187.358999968
1770.0	5.16e-05	187.391000032
1770.0	5.13e-05	187.421999931
1770.0	5.12e-05	187.469000101
1770.0	5.12e-05	187.5
1770.0	5.12e-05	187.530999899
1770.0	5.12e-05	187.578000069
1770.0	5.08e-05	187.608999968
1770.0	5.08e-05	187.655999899
1770.0	5.07e-05	187.687999964
1770.0	5.07e-05	187.719000101
1770.0	5.07e-05	187.766000032
1770.0	5.07e-05	187.796999931
1770.0	5.12e-05	187.828000069
1770.0	5.15e-05	187.875
1770.0	5.15e-05	187.905999899
1770.0	5.15e-05	187.937999964
1770.0	5.15e-05	187.983999968
1780.0	4.91e-05	188.266000032
1780.0	4.82e-05	188.296999931
1780.0	4.77e-05	188.328000069
1780.0	4.75e-05	188.375
1780.0	4.72e-05	188.405999899
1780.0	4.71e-05	188.453000069
1780.0	4.68e-05	188.483999968
1780.0	4.66e-05	188.516000032
1780.0	4.63e-05	188.562999964
1780.0	4.63e-05	188.594000101
1780.0	4.63e-05	188.625
1780.0	4.63e-05	188.671999931
1780.0	4.6e-05	188.703000069
1780.0	4.57e-05	188.733999968
1780.0	4.53e-05	188.780999899
1780.0	4.53e-05	188.812999964
1780.0	4.53e-05	188.858999968
1780.0	4.56e-05	188.891000032
1780.0	4.56e-05	188.921999931
1780.0	4.53e-05	188.969000101
1780.0	4.56e-05	189.0
1780.0	4.57e-05	189.030999899
1780.0	4.58e-05	189.078000069
1780.0	4.58e-05	189.108999968
1780.0	4.58e-05	189.155999899
1780.0	4.6e-05	189.187999964
1780.0	4.53e-05	189.219000101
1780.0	4.5e-05	189.266000032
1780.0	4.47e-05	189.296999931
1780.0	4.46e-05	189.328000069
1780.0	4.46e-05	189.375
1780.0	4.52e-05	189.405999899
1780.0	4.56e-05	189.437999964
1780.0	4.58e-05	189.483999968
1780.0	4.58e-05	189.516000032
1780.0	4.57e-05	189.562999964
1780.0	4.53e-05	189.594000101
1780.0	4.52e-05	189.625
1780.0	4.51e-05	189.671999931
1780.0	4.51e-05	189.703000069
1780.0	4.5e-05	189.733999968
1790.0	4.43e-05	190.016000032
1790.0	4.35e-05	190.062999964
1790.0	4.26e-05	190.094000101
1790.0	4.21e-05	190.125
1790.0	4.16e-05	190.171999931
1790.0	4.15e-05	190.203000069
1790.0	4.13e-05	190.233999968
1790.0	4.12e-05	190.280999899
1790.0	4.12e-05	190.312999964
1790.0	4.1e-05	190.358999968
1790.0	4.02e-05	190.391000032
1790.0	3.96e-05	190.421999931
1790.0	3.91e-05	190.469000101
1790.0	3.87e-05	190.5
1790.0	3.87e-05	190.530999899
1790.0	3.88e-05	190.578000069
1790.0	3.91e-05	190.608999968
1790.0	3.93e-05	190.641000032
1790.0	3.96e-05	190.687999964
1790.0	3.96e-05	190.719000101
1790.0	4e-05	190.766000032
1790.0	4.02e-05	190.796999931
1790.0	4.01e-05	190.828000069
1790.0	4.03e-05	190.875
1790.0	4.06e-05	190.905999899
1790.0	4.03e-05	190.937999964
1790.0	4.02e-05	190.983999968
1790.0	4.02e-05	191.016000032
1790.0	4.02e-05	191.046999931
1790.0	4.01e-05	191.094000101
1790.0	4.02e-05	191.125
1790.0	4.06e-05	191.171999931
1790.0	4.07e-05	191.203000069
1790.0	4.12e-05	191.233999968
1790.0	4.15e-05	191.280999899
1790.0	4.13e-05	191.312999964
1790.0	4.12e-05	191.344000101
1790.0	4.16e-05	191.391000032
1790.0	4.2e-05	191.421999931
1790.0	4.18e-05	191.469000101
1790.0	4.13e-05	191.5
1800.0	3.83e-05	191.780999899
1800.0	3.76e-05	191.812999964
1800.0	3.7e-05	191.858999968
1800.0	3.68e-05	191.891000032
1800.0	3.66e-05	191.921999931
1800.0	3.63e-05	191.969000101
1800.0	3.58e-05	192.0
1800.0	3.53e-05	192.046999931
1800.0	3.52e-05	192.078000069
1800.0	3.52e-05	192.108999968
1800.0	3.52e-05	192.155999899
1800.0	3.51e-05	192.187999964
1800.0	3.51e-05	192.219000101
1800.0	3.51e-05	192.266000032
1800.0	3.52e-05	192.296999931
1800.0	3.52e-05	192.344000101
1800.0	3.52e-05	192.375
1800.0	3.52e-05	192.405999899
1800.0	3.53e-05	192.453000069
1800.0	3.53e-05	192.483999968
1800.0	3.56e-05	192.516000032
1800.0	3.57e-05	192.562999964
1800.0	3.57e-05	192.594000101
1800.0	3.56e-05	192.625
1800.0	3.53e-05	192.671999931
1800.0	3.53e-05	192.703000069
1800.0	3.52e-05	192.733999968
1800.0	3.53e-05	192.780999899
1800.0	3.53e-05	192.812999964
1800.0	3.52e-05	192.858999968
1800.0	3.51e-05	192.891000032
1800.0	3.47e-05	192.921999931
1800.0	3.47e-05	192.969000101
1800.0	3.47e-05	193.0
1800.0	3.47e-05	193.030999899
1800.0	3.45e-05	193.078000069
1800.0	3.45e-05	193.108999968
1800.0	3.45e-05	193.155999899
1800.0	3.46e-05	193.187999964
1800.0	3.47e-05	193.219000101
1800.0	3.51e-05	193.266000032
