Your edit line - do NOT delete this line
Wavelength [nm], Voltage [V], Elapsed time [s]
900.0	0.0001918	6.06200003624
900.0	0.0001875	6.09299993515
900.0	0.0001845	6.13999986649
900.0	0.0001825	6.17100000381
900.0	0.0001805	6.21799993515
900.0	0.000179	6.26499986649
900.0	0.000178	6.29600000381
900.0	0.000177	6.34299993515
900.0	0.0001768	6.38999986649
900.0	0.0001768	6.42100000381
900.0	0.0001768	6.46799993515
900.0	0.0001768	6.5
900.0	0.0001765	6.54600000381
900.0	0.0001765	6.59299993515
900.0	0.0001763	6.625
900.0	0.0001758	6.67100000381
900.0	0.0001758	6.71799993515
900.0	0.0001755	6.75
900.0	0.0001755	6.79600000381
900.0	0.0001755	6.82800006866
900.0	0.0001758	6.875
900.0	0.0001763	6.92100000381
900.0	0.0001763	6.95300006866
900.0	0.0001765	7.0
900.0	0.0001765	7.04600000381
900.0	0.0001758	7.07800006866
900.0	0.0001758	7.125
900.0	0.0001758	7.15599989891
900.0	0.0001755	7.20300006866
900.0	0.0001755	7.25
900.0	0.000175	7.28099989891
900.0	0.000175	7.32800006866
900.0	0.000175	7.375
900.0	0.000175	7.40599989891
900.0	0.0001753	7.45300006866
900.0	0.0001755	7.48399996758
900.0	0.0001755	7.53099989891
910.0	0.0001833	7.84299993515
910.0	0.0001855	7.875
910.0	0.0001875	7.92100000381
910.0	0.0001893	7.96799993515
910.0	0.0001903	8.0
910.0	0.0001913	8.04600000381
910.0	0.0001915	8.09299993515
910.0	0.000192	8.125
910.0	0.0001928	8.17100000381
910.0	0.000193	8.20300006866
910.0	0.0001938	8.25
910.0	0.0001938	8.29600000381
910.0	0.000194	8.32800006866
910.0	0.000194	8.375
910.0	0.000194	8.42100000381
910.0	0.0001943	8.45300006866
910.0	0.0001945	8.5
910.0	0.0001945	8.54600000381
910.0	0.0001945	8.57800006866
910.0	0.0001945	8.625
910.0	0.0001945	8.65599989891
910.0	0.0001945	8.70300006866
910.0	0.0001945	8.75
910.0	0.0001945	8.78099989891
910.0	0.0001945	8.82800006866
910.0	0.0001945	8.875
910.0	0.0001945	8.90599989891
910.0	0.0001945	8.95300006866
910.0	0.0001945	9.0
910.0	0.0001945	9.03099989891
910.0	0.0001945	9.07800006866
910.0	0.0001945	9.125
910.0	0.000195	9.15599989891
910.0	0.000195	9.20300006866
910.0	0.000195	9.23399996758
910.0	0.0001953	9.28099989891
910.0	0.0001953	9.32800006866
920.0	0.000204	9.625
920.0	0.0002065	9.67100000381
920.0	0.0002088	9.70300006866
920.0	0.0002105	9.75
920.0	0.000212	9.79600000381
920.0	0.000213	9.84299993515
920.0	0.000214	9.875
920.0	0.0002143	9.92100000381
920.0	0.0002145	9.95300006866
920.0	0.000215	10.0
920.0	0.0002153	10.0460000038
920.0	0.0002153	10.0780000687
920.0	0.0002153	10.125
920.0	0.0002158	10.1710000038
920.0	0.0002163	10.2030000687
920.0	0.0002163	10.25
920.0	0.0002165	10.2809998989
920.0	0.0002168	10.3280000687
920.0	0.000217	10.375
920.0	0.0002168	10.4059998989
920.0	0.0002168	10.4530000687
920.0	0.000217	10.5
920.0	0.0002168	10.5309998989
920.0	0.0002168	10.5780000687
920.0	0.000217	10.625
920.0	0.0002168	10.6559998989
920.0	0.0002168	10.7030000687
920.0	0.0002168	10.7339999676
920.0	0.0002168	10.7809998989
920.0	0.0002168	10.8280000687
920.0	0.0002168	10.875
920.0	0.0002168	10.9059998989
920.0	0.0002168	10.9530000687
920.0	0.0002168	10.9839999676
920.0	0.0002165	11.0309998989
920.0	0.0002163	11.0780000687
930.0	0.0002258	11.375
930.0	0.000229	11.4210000038
930.0	0.0002315	11.4530000687
930.0	0.0002338	11.5
930.0	0.0002355	11.5309998989
930.0	0.0002368	11.5780000687
930.0	0.0002375	11.625
930.0	0.000238	11.6559998989
930.0	0.000238	11.7030000687
930.0	0.0002383	11.75
930.0	0.0002383	11.7809998989
930.0	0.0002388	11.8280000687
930.0	0.0002383	11.8589999676
930.0	0.0002383	11.9059998989
930.0	0.0002388	11.9530000687
930.0	0.000239	11.9839999676
930.0	0.000239	12.0309998989
930.0	0.0002393	12.0780000687
930.0	0.0002395	12.1089999676
930.0	0.0002393	12.1559998989
930.0	0.0002395	12.2030000687
930.0	0.0002393	12.2339999676
930.0	0.0002395	12.2809998989
930.0	0.00024	12.3120000362
930.0	0.0002395	12.3589999676
930.0	0.00024	12.4059998989
930.0	0.00024	12.4370000362
930.0	0.00024	12.4839999676
930.0	0.00024	12.5309998989
930.0	0.00024	12.5620000362
930.0	0.0002403	12.6089999676
930.0	0.0002403	12.6399998665
930.0	0.00024	12.6870000362
930.0	0.00024	12.7339999676
930.0	0.0002395	12.7649998665
930.0	0.0002393	12.8120000362
930.0	0.0002393	12.8589999676
940.0	0.0002503	13.1559998989
940.0	0.0002533	13.1870000362
940.0	0.0002555	13.2339999676
940.0	0.0002575	13.2809998989
940.0	0.000259	13.3120000362
940.0	0.0002603	13.3589999676
940.0	0.0002613	13.3899998665
940.0	0.0002615	13.4370000362
940.0	0.0002618	13.4839999676
940.0	0.000262	13.5149998665
940.0	0.000262	13.5620000362
940.0	0.000262	13.6089999676
940.0	0.0002625	13.6399998665
940.0	0.0002625	13.6870000362
940.0	0.0002625	13.7339999676
940.0	0.0002625	13.7649998665
940.0	0.0002625	13.8120000362
940.0	0.0002628	13.8429999352
940.0	0.000263	13.8899998665
940.0	0.0002638	13.9370000362
940.0	0.000264	13.9679999352
940.0	0.0002638	14.0149998665
940.0	0.000263	14.0620000362
940.0	0.0002628	14.0929999352
940.0	0.0002628	14.1399998665
940.0	0.0002628	14.1710000038
940.0	0.0002628	14.2179999352
940.0	0.000263	14.2649998665
940.0	0.000263	14.2960000038
940.0	0.000263	14.3429999352
940.0	0.0002628	14.3899998665
940.0	0.0002628	14.4210000038
940.0	0.0002625	14.4679999352
940.0	0.000262	14.5
940.0	0.000262	14.5460000038
940.0	0.0002618	14.5929999352
940.0	0.0002618	14.625
950.0	0.0002715	14.9210000038
950.0	0.0002745	14.9679999352
950.0	0.0002768	15.0
950.0	0.0002788	15.0460000038
950.0	0.0002805	15.0929999352
950.0	0.000282	15.125
950.0	0.0002828	15.1710000038
950.0	0.0002838	15.2030000687
950.0	0.0002843	15.25
950.0	0.0002845	15.2960000038
950.0	0.0002845	15.3280000687
950.0	0.000285	15.375
950.0	0.000285	15.4210000038
950.0	0.0002853	15.4530000687
950.0	0.000285	15.5
950.0	0.000285	15.5309998989
950.0	0.000285	15.5780000687
950.0	0.000285	15.625
950.0	0.000285	15.6559998989
950.0	0.0002853	15.7030000687
950.0	0.0002853	15.75
950.0	0.0002855	15.7809998989
950.0	0.0002855	15.8280000687
950.0	0.0002853	15.8589999676
950.0	0.0002853	15.9059998989
950.0	0.0002853	15.9530000687
950.0	0.0002853	15.9839999676
950.0	0.0002855	16.0309998989
950.0	0.0002855	16.0780000687
950.0	0.0002855	16.1089999676
950.0	0.0002855	16.1559998989
950.0	0.0002855	16.2030000687
950.0	0.0002853	16.2339999676
950.0	0.0002853	16.2809998989
950.0	0.0002845	16.3120000362
950.0	0.0002845	16.3589999676
950.0	0.0002843	16.4059998989
960.0	0.000295	16.6870000362
960.0	0.000298	16.7339999676
960.0	0.0003005	16.7649998665
960.0	0.0003025	16.8120000362
960.0	0.000304	16.8589999676
960.0	0.0003053	16.8899998665
960.0	0.0003063	16.9370000362
960.0	0.0003068	16.9679999352
960.0	0.0003075	17.0149998665
960.0	0.000308	17.0620000362
960.0	0.000308	17.0929999352
960.0	0.0003088	17.1399998665
960.0	0.000309	17.1870000362
960.0	0.0003093	17.2179999352
960.0	0.0003093	17.2649998665
960.0	0.0003093	17.2960000038
960.0	0.0003093	17.3429999352
960.0	0.000309	17.3899998665
960.0	0.000309	17.4210000038
960.0	0.0003093	17.4679999352
960.0	0.0003093	17.5149998665
960.0	0.000309	17.5460000038
960.0	0.000309	17.5929999352
960.0	0.0003088	17.625
960.0	0.000309	17.6710000038
960.0	0.000309	17.7179999352
960.0	0.000309	17.75
960.0	0.000309	17.7960000038
960.0	0.000309	17.8429999352
960.0	0.000309	17.875
960.0	0.0003093	17.9210000038
960.0	0.000309	17.9679999352
960.0	0.000309	18.0
960.0	0.0003088	18.0460000038
960.0	0.0003088	18.0929999352
960.0	0.0003083	18.125
960.0	0.0003088	18.1710000038
970.0	0.0003178	18.4530000687
970.0	0.0003205	18.4839999676
970.0	0.0003238	18.5309998989
970.0	0.0003258	18.5780000687
970.0	0.0003278	18.6089999676
970.0	0.000329	18.6559998989
970.0	0.00033	18.7030000687
970.0	0.0003305	18.7339999676
970.0	0.0003308	18.7809998989
970.0	0.0003313	18.8120000362
970.0	0.0003315	18.8589999676
970.0	0.0003318	18.9059998989
970.0	0.0003318	18.9370000362
970.0	0.0003318	18.9839999676
970.0	0.0003318	19.0309998989
970.0	0.0003318	19.0620000362
970.0	0.000332	19.1089999676
970.0	0.000332	19.1559998989
970.0	0.000332	19.1870000362
970.0	0.000332	19.2339999676
970.0	0.0003325	19.2649998665
970.0	0.0003325	19.3120000362
970.0	0.0003325	19.3589999676
970.0	0.0003325	19.3899998665
970.0	0.0003325	19.4370000362
970.0	0.0003328	19.4839999676
970.0	0.0003325	19.5149998665
970.0	0.0003325	19.5620000362
970.0	0.0003325	19.5929999352
970.0	0.0003325	19.6399998665
970.0	0.0003325	19.6870000362
970.0	0.000332	19.7179999352
970.0	0.000332	19.7649998665
970.0	0.000332	19.8120000362
970.0	0.0003325	19.8429999352
970.0	0.0003325	19.8899998665
970.0	0.0003328	19.9370000362
980.0	0.0003418	20.2179999352
980.0	0.0003445	20.25
980.0	0.000347	20.2960000038
980.0	0.0003493	20.3280000687
980.0	0.0003513	20.375
980.0	0.000352	20.4210000038
980.0	0.0003528	20.4530000687
980.0	0.0003538	20.5
980.0	0.0003543	20.5460000038
980.0	0.000355	20.5780000687
980.0	0.0003553	20.625
980.0	0.0003553	20.6559998989
980.0	0.0003553	20.7030000687
980.0	0.0003553	20.75
980.0	0.0003553	20.7809998989
980.0	0.0003553	20.8280000687
980.0	0.0003553	20.875
980.0	0.0003555	20.9059998989
980.0	0.0003558	20.9530000687
980.0	0.0003558	21.0
980.0	0.0003558	21.0309998989
980.0	0.0003563	21.0780000687
980.0	0.0003563	21.125
980.0	0.0003563	21.1559998989
980.0	0.0003563	21.2030000687
980.0	0.0003563	21.25
980.0	0.0003565	21.2809998989
980.0	0.0003563	21.3280000687
980.0	0.0003563	21.3589999676
980.0	0.0003563	21.4059998989
980.0	0.0003563	21.4530000687
980.0	0.0003563	21.4839999676
980.0	0.0003563	21.5309998989
980.0	0.0003563	21.5780000687
980.0	0.0003563	21.6089999676
980.0	0.0003558	21.6559998989
980.0	0.0003558	21.6870000362
990.0	0.0003663	21.9679999352
990.0	0.000369	22.0149998665
990.0	0.0003715	22.0620000362
990.0	0.0003733	22.0929999352
990.0	0.000375	22.1399998665
990.0	0.0003763	22.1870000362
990.0	0.0003768	22.2179999352
990.0	0.0003775	22.2649998665
990.0	0.000378	22.2960000038
990.0	0.000378	22.3429999352
990.0	0.0003783	22.3899998665
990.0	0.0003783	22.4210000038
990.0	0.0003788	22.4679999352
990.0	0.000379	22.5
990.0	0.000379	22.5460000038
990.0	0.000379	22.5929999352
990.0	0.000379	22.625
990.0	0.000379	22.6710000038
990.0	0.000379	22.7179999352
990.0	0.0003793	22.75
990.0	0.000379	22.7960000038
990.0	0.0003793	22.8429999352
990.0	0.0003793	22.875
990.0	0.0003788	22.9210000038
990.0	0.0003788	22.9530000687
990.0	0.0003783	23.0
990.0	0.0003783	23.0460000038
990.0	0.0003788	23.0780000687
990.0	0.0003788	23.125
990.0	0.000379	23.1710000038
990.0	0.0003793	23.2030000687
990.0	0.0003793	23.25
990.0	0.0003793	23.2809998989
990.0	0.0003788	23.3280000687
990.0	0.0003783	23.375
990.0	0.0003783	23.4059998989
990.0	0.000378	23.4530000687
1000.0	0.0003868	23.7339999676
1000.0	0.0003903	23.7809998989
1000.0	0.0003928	23.8120000362
1000.0	0.000395	23.8589999676
1000.0	0.0003968	23.8899998665
1000.0	0.000398	23.9370000362
1000.0	0.000399	23.9839999676
1000.0	0.0004003	24.0149998665
1000.0	0.0004005	24.0620000362
1000.0	0.0004008	24.1089999676
1000.0	0.0004008	24.1399998665
1000.0	0.0004013	24.1870000362
1000.0	0.0004013	24.2179999352
1000.0	0.0004013	24.2649998665
1000.0	0.0004008	24.3120000362
1000.0	0.0004008	24.3429999352
1000.0	0.0004008	24.3899998665
1000.0	0.0004008	24.4370000362
1000.0	0.0004008	24.4679999352
1000.0	0.0004013	24.5149998665
1000.0	0.0004013	24.5460000038
1000.0	0.0004013	24.5929999352
1000.0	0.0004013	24.6399998665
1000.0	0.0004015	24.6710000038
1000.0	0.0004015	24.7179999352
1000.0	0.0004018	24.7649998665
1000.0	0.0004018	24.8120000362
1000.0	0.0004018	24.8429999352
1000.0	0.0004018	24.8899998665
1000.0	0.000402	24.9210000038
1000.0	0.000402	24.9679999352
1000.0	0.0004025	25.0149998665
1000.0	0.000402	25.0460000038
1000.0	0.000402	25.0929999352
1000.0	0.0004018	25.125
1000.0	0.0004013	25.1710000038
1000.0	0.0004008	25.2179999352
1010.0	0.0004095	25.5
1010.0	0.000413	25.5309998989
1010.0	0.0004158	25.5780000687
1010.0	0.0004178	25.625
1010.0	0.0004193	25.6559998989
1010.0	0.0004205	25.7030000687
1010.0	0.0004215	25.7339999676
1010.0	0.0004218	25.7809998989
1010.0	0.0004225	25.8280000687
1010.0	0.000423	25.8589999676
1010.0	0.0004238	25.9059998989
1010.0	0.0004238	25.9530000687
1010.0	0.0004238	25.9839999676
1010.0	0.0004238	26.0309998989
1010.0	0.0004238	26.0780000687
1010.0	0.0004238	26.1089999676
1010.0	0.0004238	26.1559998989
1010.0	0.0004233	26.2030000687
1010.0	0.0004233	26.2339999676
1010.0	0.0004233	26.2809998989
1010.0	0.000424	26.3120000362
1010.0	0.000424	26.3589999676
1010.0	0.0004243	26.4059998989
1010.0	0.0004243	26.4370000362
1010.0	0.0004243	26.4839999676
1010.0	0.000424	26.5309998989
1010.0	0.000424	26.5620000362
1010.0	0.0004238	26.6089999676
1010.0	0.0004238	26.6559998989
1010.0	0.000424	26.6870000362
1010.0	0.0004238	26.7339999676
1010.0	0.000424	26.7649998665
1010.0	0.000424	26.8120000362
1010.0	0.000424	26.8589999676
1010.0	0.000424	26.8899998665
1010.0	0.0004238	26.9370000362
1010.0	0.0004238	26.9839999676
1020.0	0.0004325	27.25
1020.0	0.0004353	27.2960000038
1020.0	0.0004378	27.3429999352
1020.0	0.0004403	27.375
1020.0	0.0004418	27.4210000038
1020.0	0.0004428	27.4679999352
1020.0	0.0004433	27.5
1020.0	0.000444	27.5460000038
1020.0	0.000445	27.5780000687
1020.0	0.0004455	27.625
1020.0	0.0004463	27.6710000038
1020.0	0.0004463	27.7030000687
1020.0	0.0004463	27.75
1020.0	0.0004465	27.7960000038
1020.0	0.0004468	27.8280000687
1020.0	0.0004465	27.875
1020.0	0.0004465	27.9059998989
1020.0	0.0004465	27.9530000687
1020.0	0.0004465	28.0
1020.0	0.0004465	28.0309998989
1020.0	0.0004465	28.0780000687
1020.0	0.0004468	28.125
1020.0	0.000447	28.1559998989
1020.0	0.0004475	28.2030000687
1020.0	0.0004475	28.2339999676
1020.0	0.0004475	28.2809998989
1020.0	0.0004475	28.3280000687
1020.0	0.0004475	28.3589999676
1020.0	0.0004478	28.4059998989
1020.0	0.0004478	28.4530000687
1020.0	0.000448	28.4839999676
1020.0	0.000448	28.5309998989
1020.0	0.0004483	28.5780000687
1020.0	0.0004488	28.6089999676
1020.0	0.000449	28.6559998989
1020.0	0.0004493	28.6870000362
1020.0	0.0004493	28.7339999676
1030.0	0.0004578	29.0149998665
1030.0	0.0004613	29.0620000362
1030.0	0.0004633	29.0929999352
1030.0	0.0004653	29.1399998665
1030.0	0.0004665	29.1870000362
1030.0	0.0004678	29.2339999676
1030.0	0.0004688	29.2649998665
1030.0	0.0004695	29.3120000362
1030.0	0.0004703	29.3429999352
1030.0	0.0004708	29.3899998665
1030.0	0.0004713	29.4370000362
1030.0	0.0004715	29.4679999352
1030.0	0.0004715	29.5149998665
1030.0	0.0004715	29.5620000362
1030.0	0.0004718	29.5929999352
1030.0	0.0004718	29.6399998665
1030.0	0.0004725	29.6870000362
1030.0	0.0004725	29.7179999352
1030.0	0.0004728	29.7649998665
1030.0	0.000473	29.7960000038
1030.0	0.000473	29.8429999352
1030.0	0.0004733	29.8899998665
1030.0	0.0004738	29.9210000038
1030.0	0.0004733	29.9679999352
1030.0	0.0004728	30.0
1030.0	0.0004725	30.0460000038
1030.0	0.0004725	30.0929999352
1030.0	0.0004725	30.125
1030.0	0.0004725	30.1710000038
1030.0	0.000472	30.2179999352
1030.0	0.0004725	30.25
1030.0	0.0004728	30.2960000038
1030.0	0.0004728	30.3429999352
1030.0	0.0004728	30.375
1030.0	0.0004728	30.4210000038
1030.0	0.000473	30.4530000687
1040.0	0.0004815	30.75
1040.0	0.0004843	30.7809998989
1040.0	0.000487	30.8280000687
1040.0	0.0004893	30.8589999676
1040.0	0.0004913	30.9059998989
1040.0	0.0004925	30.9530000687
1040.0	0.0004933	30.9839999676
1040.0	0.000494	31.0309998989
1040.0	0.0004943	31.0780000687
1040.0	0.0004945	31.1089999676
1040.0	0.0004945	31.1559998989
1040.0	0.000495	31.1870000362
1040.0	0.000495	31.2339999676
1040.0	0.0004953	31.2809998989
1040.0	0.000495	31.3120000362
1040.0	0.000495	31.3589999676
1040.0	0.0004955	31.4059998989
1040.0	0.0004955	31.4370000362
1040.0	0.0004958	31.4839999676
1040.0	0.0004955	31.5309998989
1040.0	0.0004955	31.5620000362
1040.0	0.0004955	31.6089999676
1040.0	0.0004955	31.6399998665
1040.0	0.0004955	31.6870000362
1040.0	0.0004958	31.7339999676
1040.0	0.0004963	31.7649998665
1040.0	0.0004965	31.8120000362
1040.0	0.0004965	31.8589999676
1040.0	0.0004963	31.8899998665
1040.0	0.0004958	31.9370000362
1040.0	0.0004958	31.9839999676
1040.0	0.0004958	32.0149998665
1040.0	0.0004958	32.0620000362
1040.0	0.0004955	32.1089999676
1040.0	0.0004958	32.1399998665
1040.0	0.0004958	32.1870000362
1040.0	0.0004963	32.2179999352
1050.0	0.0005055	32.5149998665
1050.0	0.0005088	32.5460000038
1050.0	0.0005113	32.5929999352
1050.0	0.000513	32.625
1050.0	0.0005143	32.6710000038
1050.0	0.0005155	32.7179999352
1050.0	0.0005163	32.75
1050.0	0.0005168	32.7960000038
1050.0	0.0005175	32.8429999352
1050.0	0.0005175	32.875
1050.0	0.000518	32.9210000038
1050.0	0.0005183	32.9530000687
1050.0	0.0005188	33.0
1050.0	0.0005188	33.0460000038
1050.0	0.0005188	33.0780000687
1050.0	0.000519	33.125
1050.0	0.0005188	33.1710000038
1050.0	0.0005183	33.2030000687
1050.0	0.0005183	33.25
1050.0	0.0005188	33.2960000038
1050.0	0.0005188	33.3280000687
1050.0	0.000519	33.375
1050.0	0.000519	33.4059998989
1050.0	0.0005193	33.4530000687
1050.0	0.0005193	33.5
1050.0	0.000519	33.5309998989
1050.0	0.000519	33.5780000687
1050.0	0.000519	33.625
1050.0	0.000519	33.6559998989
1050.0	0.000519	33.7030000687
1050.0	0.0005193	33.7339999676
1050.0	0.0005193	33.7809998989
1050.0	0.0005193	33.8280000687
1050.0	0.00052	33.8589999676
1050.0	0.00052	33.9059998989
1050.0	0.0005195	33.9530000687
1050.0	0.0005195	33.9839999676
1060.0	0.0005275	34.2649998665
1060.0	0.0005305	34.3120000362
1060.0	0.000533	34.3589999676
1060.0	0.0005353	34.3899998665
1060.0	0.0005368	34.4370000362
1060.0	0.0005378	34.4839999676
1060.0	0.000539	34.5149998665
1060.0	0.0005395	34.5620000362
1060.0	0.0005403	34.5929999352
1060.0	0.0005405	34.6399998665
1060.0	0.0005408	34.6870000362
1060.0	0.0005408	34.7179999352
1060.0	0.0005413	34.7649998665
1060.0	0.0005413	34.8120000362
1060.0	0.0005413	34.8429999352
1060.0	0.0005418	34.8899998665
1060.0	0.0005415	34.9210000038
1060.0	0.0005413	34.9679999352
1060.0	0.0005415	35.0149998665
1060.0	0.0005415	35.0620000362
1060.0	0.0005415	35.0929999352
1060.0	0.0005415	35.1399998665
1060.0	0.0005415	35.1710000038
1060.0	0.0005418	35.2179999352
1060.0	0.0005415	35.2649998665
1060.0	0.0005415	35.2960000038
1060.0	0.0005415	35.3429999352
1060.0	0.0005418	35.3899998665
1060.0	0.0005415	35.4210000038
1060.0	0.0005415	35.4679999352
1060.0	0.0005413	35.5
1060.0	0.0005415	35.5460000038
1060.0	0.0005415	35.5929999352
1060.0	0.0005415	35.625
1060.0	0.0005418	35.6710000038
1060.0	0.0005415	35.7179999352
1060.0	0.0005415	35.75
1070.0	0.00055	36.0309998989
1070.0	0.0005525	36.0780000687
1070.0	0.0005545	36.125
1070.0	0.0005563	36.1559998989
1070.0	0.0005575	36.2030000687
1070.0	0.0005588	36.25
1070.0	0.0005593	36.2809998989
1070.0	0.0005603	36.3280000687
1070.0	0.0005613	36.3589999676
1070.0	0.0005615	36.4059998989
1070.0	0.0005615	36.4530000687
1070.0	0.0005615	36.5
1070.0	0.0005615	36.5309998989
1070.0	0.000562	36.5780000687
1070.0	0.000562	36.6089999676
1070.0	0.0005625	36.6559998989
1070.0	0.0005628	36.7030000687
1070.0	0.000563	36.7339999676
1070.0	0.000563	36.7809998989
1070.0	0.000563	36.8280000687
1070.0	0.000563	36.8589999676
1070.0	0.000563	36.9059998989
1070.0	0.0005628	36.9370000362
1070.0	0.0005628	36.9839999676
1070.0	0.0005628	37.0309998989
1070.0	0.0005625	37.0620000362
1070.0	0.0005625	37.1089999676
1070.0	0.0005628	37.1559998989
1070.0	0.0005625	37.1870000362
1070.0	0.0005625	37.2339999676
1070.0	0.0005625	37.2809998989
1070.0	0.0005625	37.3120000362
1070.0	0.0005625	37.3589999676
1070.0	0.000562	37.3899998665
1070.0	0.000562	37.4370000362
1070.0	0.000562	37.4839999676
1070.0	0.0005625	37.5149998665
1080.0	0.0005708	37.7960000038
1080.0	0.000573	37.8429999352
1080.0	0.000575	37.8899998665
1080.0	0.0005768	37.9210000038
1080.0	0.000578	37.9679999352
1080.0	0.0005793	38.0149998665
1080.0	0.0005803	38.0460000038
1080.0	0.0005808	38.0929999352
1080.0	0.0005818	38.125
1080.0	0.0005818	38.1710000038
1080.0	0.000582	38.2179999352
1080.0	0.0005825	38.25
1080.0	0.0005825	38.2960000038
1080.0	0.0005828	38.3429999352
1080.0	0.0005828	38.375
1080.0	0.000582	38.4210000038
1080.0	0.000582	38.4530000687
1080.0	0.0005818	38.5
1080.0	0.0005815	38.5460000038
1080.0	0.0005818	38.5780000687
1080.0	0.0005818	38.625
1080.0	0.0005818	38.6710000038
1080.0	0.000582	38.7030000687
1080.0	0.0005825	38.75
1080.0	0.0005825	38.7960000038
1080.0	0.0005825	38.8280000687
1080.0	0.000582	38.875
1080.0	0.000582	38.9059998989
1080.0	0.000582	38.9530000687
1080.0	0.000582	39.0
1080.0	0.000582	39.0460000038
1080.0	0.0005818	39.0780000687
1080.0	0.0005818	39.125
1080.0	0.0005818	39.1559998989
1080.0	0.000582	39.2030000687
1080.0	0.0005825	39.25
1080.0	0.0005828	39.2809998989
1090.0	0.00059	39.5620000362
1090.0	0.000592	39.6089999676
1090.0	0.000594	39.6399998665
1090.0	0.0005955	39.6870000362
1090.0	0.0005968	39.7339999676
1090.0	0.0005975	39.7649998665
1090.0	0.000598	39.8120000362
1090.0	0.0005988	39.8589999676
1090.0	0.0005993	39.8899998665
1090.0	0.0006	39.9370000362
1090.0	0.0006005	39.9839999676
1090.0	0.0006005	40.0149998665
1090.0	0.0006003	40.0620000362
1090.0	0.0006	40.0929999352
1090.0	0.0005995	40.1399998665
1090.0	0.0005993	40.1870000362
1090.0	0.0005993	40.2179999352
1090.0	0.0005993	40.2649998665
1090.0	0.0005995	40.3120000362
1090.0	0.0006	40.3429999352
1090.0	0.0006003	40.3899998665
1090.0	0.0006	40.4210000038
1090.0	0.0006	40.4679999352
1090.0	0.0006	40.5149998665
1090.0	0.0006008	40.5460000038
1090.0	0.0006013	40.5929999352
1090.0	0.0006013	40.6399998665
1090.0	0.0006013	40.6710000038
1090.0	0.0006015	40.7179999352
1090.0	0.0006015	40.75
1090.0	0.0006013	40.7960000038
1090.0	0.0006008	40.8429999352
1090.0	0.0006005	40.875
1090.0	0.0006003	40.9210000038
1090.0	0.0006003	40.9679999352
1090.0	0.0006003	41.0
1090.0	0.0006	41.0460000038
1100.0	0.0006058	41.3280000687
1100.0	0.0006078	41.3589999676
1100.0	0.0006093	41.4059998989
1100.0	0.0006105	41.4530000687
1100.0	0.0006118	41.4839999676
1100.0	0.0006128	41.5309998989
1100.0	0.000613	41.5620000362
1100.0	0.0006133	41.6089999676
1100.0	0.0006138	41.6559998989
1100.0	0.0006133	41.6870000362
1100.0	0.0006138	41.7339999676
1100.0	0.0006138	41.7809998989
1100.0	0.0006143	41.8120000362
1100.0	0.0006145	41.8589999676
1100.0	0.000615	41.9059998989
1100.0	0.0006153	41.9370000362
1100.0	0.0006153	41.9839999676
1100.0	0.0006155	42.0149998665
1100.0	0.0006155	42.0620000362
1100.0	0.0006155	42.1089999676
1100.0	0.000615	42.1399998665
1100.0	0.000615	42.1870000362
1100.0	0.000615	42.2339999676
1100.0	0.0006145	42.2649998665
1100.0	0.0006145	42.3120000362
1100.0	0.0006145	42.3429999352
1100.0	0.0006145	42.3899998665
1100.0	0.0006143	42.4370000362
1100.0	0.000614	42.4679999352
1100.0	0.000614	42.5149998665
1100.0	0.0006138	42.5620000362
1100.0	0.000614	42.5929999352
1100.0	0.0006143	42.6399998665
1100.0	0.0006145	42.6710000038
1100.0	0.0006145	42.7179999352
1100.0	0.0006145	42.7649998665
1100.0	0.0006145	42.7960000038
1110.0	0.0006183	43.0780000687
1110.0	0.00062	43.125
1110.0	0.0006213	43.1559998989
1110.0	0.0006225	43.2030000687
1110.0	0.0006238	43.25
1110.0	0.0006243	43.2809998989
1110.0	0.000625	43.3280000687
1110.0	0.0006253	43.375
1110.0	0.0006255	43.4059998989
1110.0	0.0006253	43.4530000687
1110.0	0.000625	43.4839999676
1110.0	0.000625	43.5309998989
1110.0	0.000625	43.5780000687
1110.0	0.000625	43.6089999676
1110.0	0.0006255	43.6559998989
1110.0	0.0006255	43.7030000687
1110.0	0.0006255	43.7339999676
1110.0	0.0006258	43.7809998989
1110.0	0.0006255	43.8280000687
1110.0	0.0006263	43.8589999676
1110.0	0.0006263	43.9059998989
1110.0	0.0006265	43.9370000362
1110.0	0.0006263	43.9839999676
1110.0	0.0006263	44.0309998989
1110.0	0.0006255	44.0620000362
1110.0	0.0006258	44.1089999676
1110.0	0.0006258	44.1559998989
1110.0	0.0006258	44.1870000362
1110.0	0.0006258	44.2339999676
1110.0	0.0006263	44.2649998665
1110.0	0.0006263	44.3120000362
1110.0	0.0006258	44.3589999676
1110.0	0.0006255	44.3899998665
1110.0	0.0006255	44.4370000362
1110.0	0.0006255	44.4839999676
1110.0	0.0006255	44.5149998665
1110.0	0.0006258	44.5620000362
1120.0	0.0006283	44.8280000687
1120.0	0.0006293	44.875
1120.0	0.0006303	44.9210000038
1120.0	0.0006313	44.9530000687
1120.0	0.000632	45.0
1120.0	0.0006328	45.0460000038
1120.0	0.000633	45.0780000687
1120.0	0.0006333	45.125
1120.0	0.0006333	45.1710000038
1120.0	0.0006333	45.2030000687
1120.0	0.0006338	45.25
1120.0	0.0006333	45.2960000038
1120.0	0.0006333	45.3280000687
1120.0	0.0006333	45.375
1120.0	0.0006333	45.4059998989
1120.0	0.0006333	45.4530000687
1120.0	0.0006333	45.5
1120.0	0.0006333	45.5309998989
1120.0	0.0006333	45.5780000687
1120.0	0.0006333	45.625
1120.0	0.000633	45.6559998989
1120.0	0.0006328	45.7030000687
1120.0	0.000632	45.75
1120.0	0.0006325	45.7809998989
1120.0	0.000632	45.8280000687
1120.0	0.0006325	45.8589999676
1120.0	0.0006325	45.9059998989
1120.0	0.0006328	45.9530000687
1120.0	0.0006328	45.9839999676
1120.0	0.000633	46.0309998989
1120.0	0.000633	46.0780000687
1120.0	0.000633	46.1089999676
1120.0	0.000633	46.1559998989
1120.0	0.0006328	46.1870000362
1120.0	0.0006328	46.2339999676
1120.0	0.000633	46.2809998989
1120.0	0.000633	46.3120000362
1130.0	0.0006353	46.5929999352
1130.0	0.0006358	46.6399998665
1130.0	0.0006365	46.6710000038
1130.0	0.0006368	46.7179999352
1130.0	0.0006368	46.75
1130.0	0.0006368	46.7960000038
1130.0	0.0006365	46.8429999352
1130.0	0.0006368	46.8899998665
1130.0	0.0006368	46.9210000038
1130.0	0.000637	46.9679999352
1130.0	0.000637	47.0
1130.0	0.0006368	47.0460000038
1130.0	0.0006368	47.0929999352
1130.0	0.0006368	47.125
1130.0	0.0006368	47.1710000038
1130.0	0.0006368	47.2179999352
1130.0	0.0006375	47.25
1130.0	0.0006378	47.2960000038
1130.0	0.000638	47.3429999352
1130.0	0.000638	47.375
1130.0	0.000638	47.4210000038
1130.0	0.000638	47.4530000687
1130.0	0.0006383	47.5
1130.0	0.0006383	47.5460000038
1130.0	0.0006388	47.5780000687
1130.0	0.0006388	47.625
1130.0	0.0006388	47.6710000038
1130.0	0.0006388	47.7030000687
1130.0	0.0006388	47.75
1130.0	0.0006388	47.7809998989
1130.0	0.0006388	47.8280000687
1130.0	0.000638	47.875
1130.0	0.000638	47.9059998989
1130.0	0.0006378	47.9530000687
1130.0	0.0006375	48.0
1130.0	0.0006375	48.0309998989
1130.0	0.0006378	48.0780000687
1140.0	0.000638	48.3429999352
1140.0	0.0006388	48.3899998665
1140.0	0.000639	48.4370000362
1140.0	0.0006395	48.4679999352
1140.0	0.0006398	48.5149998665
1140.0	0.0006398	48.5620000362
1140.0	0.0006403	48.5929999352
1140.0	0.0006403	48.6399998665
1140.0	0.0006405	48.6710000038
1140.0	0.0006403	48.7179999352
1140.0	0.0006405	48.7649998665
1140.0	0.0006405	48.7960000038
1140.0	0.0006405	48.8429999352
1140.0	0.000641	48.8899998665
1140.0	0.0006405	48.9210000038
1140.0	0.0006403	48.9679999352
1140.0	0.00064	49.0
1140.0	0.00064	49.0460000038
1140.0	0.0006398	49.0929999352
1140.0	0.00064	49.125
1140.0	0.00064	49.1710000038
1140.0	0.0006398	49.2179999352
1140.0	0.00064	49.25
1140.0	0.0006403	49.2960000038
1140.0	0.0006403	49.3429999352
1140.0	0.0006403	49.375
1140.0	0.0006398	49.4210000038
1140.0	0.0006398	49.4530000687
1140.0	0.00064	49.5
1140.0	0.00064	49.5460000038
1140.0	0.0006403	49.5929999352
1140.0	0.0006405	49.625
1140.0	0.0006405	49.6710000038
1140.0	0.0006405	49.7030000687
1140.0	0.0006403	49.75
1140.0	0.00064	49.7960000038
1150.0	0.000641	50.0620000362
1150.0	0.000641	50.0929999352
1150.0	0.000641	50.1399998665
1150.0	0.0006413	50.1870000362
1150.0	0.0006415	50.2179999352
1150.0	0.0006415	50.2649998665
1150.0	0.0006415	50.3120000362
1150.0	0.0006415	50.3589999676
1150.0	0.0006415	50.3899998665
1150.0	0.0006413	50.4370000362
1150.0	0.000641	50.4839999676
1150.0	0.0006405	50.5309998989
1150.0	0.0006403	50.5620000362
1150.0	0.0006405	50.6089999676
1150.0	0.000641	50.6559998989
1150.0	0.0006413	50.6870000362
1150.0	0.0006413	50.7339999676
1150.0	0.0006413	50.7809998989
1150.0	0.0006413	50.8120000362
1150.0	0.0006413	50.8589999676
1150.0	0.0006413	50.8899998665
1150.0	0.0006413	50.9370000362
1150.0	0.0006413	50.9839999676
1150.0	0.0006413	51.0149998665
1150.0	0.0006415	51.0620000362
1150.0	0.0006415	51.1089999676
1150.0	0.0006415	51.1399998665
1150.0	0.0006415	51.1870000362
1150.0	0.0006415	51.2179999352
1150.0	0.0006418	51.2649998665
1150.0	0.0006418	51.3120000362
1150.0	0.0006423	51.3429999352
1150.0	0.0006423	51.3899998665
1150.0	0.0006423	51.4370000362
1150.0	0.0006415	51.4679999352
1150.0	0.0006415	51.5149998665
1160.0	0.0006405	51.7809998989
1160.0	0.000641	51.8120000362
1160.0	0.000641	51.8589999676
1160.0	0.000641	51.9059998989
1160.0	0.000641	51.9370000362
1160.0	0.000641	51.9839999676
1160.0	0.000641	52.0149998665
1160.0	0.000641	52.0620000362
1160.0	0.000641	52.1089999676
1160.0	0.0006405	52.1399998665
1160.0	0.000641	52.1870000362
1160.0	0.0006405	52.2339999676
1160.0	0.0006405	52.2649998665
1160.0	0.0006405	52.3120000362
1160.0	0.0006405	52.3589999676
1160.0	0.000641	52.3899998665
1160.0	0.0006415	52.4370000362
1160.0	0.0006418	52.4679999352
1160.0	0.0006418	52.5149998665
1160.0	0.0006423	52.5620000362
1160.0	0.0006423	52.5929999352
1160.0	0.0006423	52.6399998665
1160.0	0.0006418	52.6870000362
1160.0	0.0006415	52.7179999352
1160.0	0.0006413	52.7649998665
1160.0	0.0006405	52.7960000038
1160.0	0.0006405	52.8429999352
1160.0	0.000641	52.8899998665
1160.0	0.0006413	52.9210000038
1160.0	0.0006415	52.9679999352
1160.0	0.0006413	53.0149998665
1160.0	0.000641	53.0460000038
1160.0	0.0006413	53.0929999352
1160.0	0.0006413	53.125
1160.0	0.0006413	53.1710000038
1160.0	0.0006413	53.2179999352
1160.0	0.0006413	53.25
1170.0	0.0006413	53.5149998665
1170.0	0.0006413	53.5460000038
1170.0	0.0006413	53.5929999352
1170.0	0.0006415	53.6399998665
1170.0	0.0006415	53.6710000038
1170.0	0.0006415	53.7179999352
1170.0	0.0006415	53.7649998665
1170.0	0.0006418	53.7960000038
1170.0	0.0006423	53.8429999352
1170.0	0.0006423	53.8899998665
1170.0	0.0006418	53.9210000038
1170.0	0.0006415	53.9679999352
1170.0	0.0006415	54.0
1170.0	0.0006418	54.0460000038
1170.0	0.0006415	54.0929999352
1170.0	0.0006415	54.125
1170.0	0.0006418	54.1710000038
1170.0	0.0006418	54.2179999352
1170.0	0.0006415	54.25
1170.0	0.0006415	54.2960000038
1170.0	0.0006415	54.3280000687
1170.0	0.0006415	54.375
1170.0	0.0006418	54.4210000038
1170.0	0.0006423	54.4530000687
1170.0	0.0006418	54.5
1170.0	0.0006418	54.5460000038
1170.0	0.0006415	54.5780000687
1170.0	0.0006415	54.625
1170.0	0.0006415	54.6710000038
1170.0	0.0006415	54.7030000687
1170.0	0.0006415	54.75
1170.0	0.0006415	54.7960000038
1170.0	0.0006413	54.8280000687
1170.0	0.000641	54.875
1170.0	0.0006405	54.9210000038
1170.0	0.0006403	54.9530000687
1170.0	0.0006403	55.0
1180.0	0.000641	55.25
1180.0	0.0006413	55.2960000038
1180.0	0.0006418	55.3429999352
1180.0	0.0006423	55.375
1180.0	0.0006425	55.4210000038
1180.0	0.0006428	55.4530000687
1180.0	0.0006428	55.5
1180.0	0.0006428	55.5460000038
1180.0	0.0006428	55.5780000687
1180.0	0.000643	55.625
1180.0	0.0006435	55.6710000038
1180.0	0.0006435	55.7030000687
1180.0	0.0006435	55.75
1180.0	0.0006438	55.7809998989
1180.0	0.0006438	55.8280000687
1180.0	0.000643	55.875
1180.0	0.000643	55.9059998989
1180.0	0.000643	55.9530000687
1180.0	0.0006428	56.0
1180.0	0.0006428	56.0460000038
1180.0	0.0006428	56.0780000687
1180.0	0.0006428	56.125
1180.0	0.0006428	56.1559998989
1180.0	0.0006428	56.2030000687
1180.0	0.000643	56.25
1180.0	0.000643	56.2809998989
1180.0	0.000643	56.3280000687
1180.0	0.0006425	56.375
1180.0	0.0006423	56.4059998989
1180.0	0.0006423	56.4530000687
1180.0	0.0006425	56.4839999676
1180.0	0.0006428	56.5309998989
1180.0	0.0006428	56.5780000687
1180.0	0.0006428	56.6089999676
1180.0	0.0006428	56.6559998989
1180.0	0.0006428	56.7030000687
1180.0	0.0006428	56.7339999676
1190.0	0.0006435	57.0
1190.0	0.000644	57.0309998989
1190.0	0.000644	57.0780000687
1190.0	0.0006443	57.125
1190.0	0.0006448	57.1559998989
1190.0	0.0006443	57.2030000687
1190.0	0.0006448	57.25
1190.0	0.000645	57.2809998989
1190.0	0.000645	57.3280000687
1190.0	0.0006453	57.3589999676
1190.0	0.0006453	57.4059998989
1190.0	0.0006453	57.4530000687
1190.0	0.0006455	57.4839999676
1190.0	0.000646	57.5309998989
1190.0	0.000646	57.5780000687
1190.0	0.000646	57.6089999676
1190.0	0.000646	57.6559998989
1190.0	0.000646	57.6870000362
1190.0	0.0006455	57.7339999676
1190.0	0.0006453	57.7809998989
1190.0	0.0006453	57.8120000362
1190.0	0.000645	57.8589999676
1190.0	0.000645	57.9059998989
1190.0	0.000645	57.9370000362
1190.0	0.000645	57.9839999676
1190.0	0.000645	58.0309998989
1190.0	0.0006453	58.0620000362
1190.0	0.0006453	58.1089999676
1190.0	0.000645	58.1399998665
1190.0	0.000645	58.1870000362
1190.0	0.0006453	58.2339999676
1190.0	0.000646	58.2649998665
1190.0	0.0006463	58.3120000362
1190.0	0.0006463	58.3589999676
1190.0	0.000646	58.3899998665
1190.0	0.000646	58.4370000362
1190.0	0.000646	58.4679999352
1200.0	0.0006468	58.7339999676
1200.0	0.0006473	58.7809998989
1200.0	0.0006478	58.8280000687
1200.0	0.0006485	58.8589999676
1200.0	0.0006488	58.9059998989
1200.0	0.000649	58.9370000362
1200.0	0.0006493	58.9839999676
1200.0	0.00065	59.0309998989
1200.0	0.00065	59.0620000362
1200.0	0.00065	59.1089999676
1200.0	0.0006498	59.1559998989
1200.0	0.00065	59.1870000362
1200.0	0.00065	59.2339999676
1200.0	0.0006503	59.2809998989
1200.0	0.0006503	59.3120000362
1200.0	0.0006505	59.3589999676
1200.0	0.000651	59.4059998989
1200.0	0.000651	59.4370000362
1200.0	0.000651	59.4839999676
1200.0	0.0006505	59.5149998665
1200.0	0.0006505	59.5620000362
1200.0	0.000651	59.6089999676
1200.0	0.0006505	59.6399998665
1200.0	0.0006505	59.6870000362
1200.0	0.0006503	59.7339999676
1200.0	0.0006503	59.7649998665
1200.0	0.0006503	59.8120000362
1200.0	0.0006503	59.8429999352
1200.0	0.0006503	59.8899998665
1200.0	0.0006503	59.9370000362
1200.0	0.000651	59.9679999352
1200.0	0.000651	60.0149998665
1200.0	0.000651	60.0620000362
1200.0	0.0006503	60.0929999352
1200.0	0.0006503	60.1399998665
1200.0	0.0006503	60.1870000362
1200.0	0.0006503	60.2179999352
1210.0	0.0006523	60.4839999676
1210.0	0.000653	60.5309998989
1210.0	0.000654	60.5620000362
1210.0	0.0006548	60.6089999676
1210.0	0.0006553	60.6399998665
1210.0	0.0006555	60.6870000362
1210.0	0.000656	60.7339999676
1210.0	0.0006563	60.7809998989
1210.0	0.0006565	60.8120000362
1210.0	0.0006565	60.8589999676
1210.0	0.0006568	60.9059998989
1210.0	0.0006573	60.9370000362
1210.0	0.0006568	60.9839999676
1210.0	0.0006568	61.0149998665
1210.0	0.0006565	61.0620000362
1210.0	0.0006563	61.1089999676
1210.0	0.0006563	61.1399998665
1210.0	0.0006565	61.1870000362
1210.0	0.0006568	61.2339999676
1210.0	0.0006573	61.2649998665
1210.0	0.0006573	61.3120000362
1210.0	0.0006568	61.3429999352
1210.0	0.0006573	61.3899998665
1210.0	0.0006575	61.4370000362
1210.0	0.0006573	61.4679999352
1210.0	0.0006573	61.5149998665
1210.0	0.0006573	61.5620000362
1210.0	0.0006568	61.5929999352
1210.0	0.0006573	61.6399998665
1210.0	0.0006568	61.6870000362
1210.0	0.0006573	61.7179999352
1210.0	0.0006573	61.7649998665
1210.0	0.0006573	61.8120000362
1210.0	0.0006573	61.8429999352
1210.0	0.0006568	61.8899998665
1210.0	0.0006568	61.9370000362
1220.0	0.0006598	62.2030000687
1220.0	0.000661	62.2339999676
1220.0	0.0006623	62.2809998989
1220.0	0.0006628	62.3120000362
1220.0	0.0006635	62.3589999676
1220.0	0.000664	62.4059998989
1220.0	0.0006643	62.4370000362
1220.0	0.0006648	62.4839999676
1220.0	0.0006653	62.5309998989
1220.0	0.0006653	62.5620000362
1220.0	0.0006655	62.6089999676
1220.0	0.0006655	62.6399998665
1220.0	0.0006655	62.6870000362
1220.0	0.0006655	62.7339999676
1220.0	0.0006653	62.7649998665
1220.0	0.0006653	62.8120000362
1220.0	0.0006655	62.8589999676
1220.0	0.000666	62.8899998665
1220.0	0.000666	62.9370000362
1220.0	0.0006663	62.9839999676
1220.0	0.0006663	63.0149998665
1220.0	0.0006665	63.0620000362
1220.0	0.0006663	63.0929999352
1220.0	0.0006663	63.1399998665
1220.0	0.0006665	63.1870000362
1220.0	0.0006665	63.2179999352
1220.0	0.0006665	63.2649998665
1220.0	0.0006663	63.3120000362
1220.0	0.0006663	63.3429999352
1220.0	0.0006665	63.3899998665
1220.0	0.0006668	63.4210000038
1220.0	0.0006665	63.4679999352
1220.0	0.0006665	63.5149998665
1220.0	0.0006665	63.5460000038
1220.0	0.0006663	63.5929999352
1220.0	0.0006663	63.6399998665
1220.0	0.0006663	63.6710000038
1230.0	0.0006693	63.9530000687
1230.0	0.000671	63.9839999676
1230.0	0.0006723	64.0309998989
1230.0	0.0006735	64.0620000362
1230.0	0.000674	64.1089999676
1230.0	0.0006743	64.1559998989
1230.0	0.000675	64.1870000362
1230.0	0.0006753	64.2339999676
1230.0	0.000676	64.2809998989
1230.0	0.0006765	64.3120000362
1230.0	0.0006768	64.3589999676
1230.0	0.0006768	64.3899998665
1230.0	0.0006773	64.4370000362
1230.0	0.0006773	64.4839999676
1230.0	0.0006768	64.5149998665
1230.0	0.0006765	64.5620000362
1230.0	0.0006765	64.6089999676
1230.0	0.0006765	64.6399998665
1230.0	0.0006763	64.6870000362
1230.0	0.000676	64.7339999676
1230.0	0.0006763	64.7649998665
1230.0	0.0006765	64.8120000362
1230.0	0.0006768	64.8429999352
1230.0	0.0006768	64.8899998665
1230.0	0.0006768	64.9370000362
1230.0	0.0006768	64.9679999352
1230.0	0.0006765	65.0149998665
1230.0	0.0006765	65.0620000362
1230.0	0.0006765	65.0929999352
1230.0	0.000676	65.1399998665
1230.0	0.0006753	65.1710000038
1230.0	0.0006753	65.2179999352
1230.0	0.0006753	65.2649998665
1230.0	0.0006753	65.2960000038
1230.0	0.0006755	65.3429999352
1230.0	0.0006753	65.3899998665
1230.0	0.0006753	65.4210000038
1240.0	0.0006798	65.7030000687
1240.0	0.0006813	65.7339999676
1240.0	0.0006825	65.7809998989
1240.0	0.000684	65.8120000362
1240.0	0.0006853	65.8589999676
1240.0	0.0006865	65.9059998989
1240.0	0.0006873	65.9370000362
1240.0	0.0006878	65.9839999676
1240.0	0.0006885	66.0309998989
1240.0	0.000689	66.0620000362
1240.0	0.000689	66.1089999676
1240.0	0.000689	66.1559998989
1240.0	0.000689	66.1870000362
1240.0	0.000689	66.2339999676
1240.0	0.000689	66.2809998989
1240.0	0.0006888	66.3120000362
1240.0	0.0006888	66.3589999676
1240.0	0.0006888	66.4059998989
1240.0	0.0006888	66.4370000362
1240.0	0.0006888	66.4839999676
1240.0	0.0006885	66.5309998989
1240.0	0.0006888	66.5620000362
1240.0	0.0006888	66.6089999676
1240.0	0.0006888	66.6559998989
1240.0	0.0006888	66.6870000362
1240.0	0.0006888	66.7339999676
1240.0	0.000689	66.7649998665
1240.0	0.000689	66.8120000362
1240.0	0.000689	66.8589999676
1240.0	0.000689	66.9059998989
1240.0	0.000689	66.9370000362
1240.0	0.000689	66.9839999676
1240.0	0.000689	67.0149998665
1240.0	0.0006888	67.0620000362
1240.0	0.0006885	67.1089999676
1240.0	0.0006885	67.1399998665
1240.0	0.0006885	67.1870000362
1250.0	0.000693	67.4530000687
1250.0	0.0006948	67.5
1250.0	0.0006963	67.5460000038
1250.0	0.0006975	67.5780000687
1250.0	0.0006985	67.625
1250.0	0.0006988	67.6559998989
1250.0	0.0006998	67.7030000687
1250.0	0.0007	67.75
1250.0	0.0007003	67.7809998989
1250.0	0.0007005	67.8280000687
1250.0	0.000701	67.875
1250.0	0.0007013	67.9059998989
1250.0	0.0007015	67.9530000687
1250.0	0.0007018	67.9839999676
1250.0	0.0007023	68.0309998989
1250.0	0.0007023	68.0780000687
1250.0	0.0007018	68.1089999676
1250.0	0.0007018	68.1559998989
1250.0	0.0007015	68.2030000687
1250.0	0.0007015	68.2339999676
1250.0	0.0007013	68.2809998989
1250.0	0.0007013	68.3280000687
1250.0	0.0007013	68.3589999676
1250.0	0.000701	68.4059998989
1250.0	0.0007005	68.4370000362
1250.0	0.0007005	68.4839999676
1250.0	0.0007005	68.5309998989
1250.0	0.000701	68.5620000362
1250.0	0.000701	68.6089999676
1250.0	0.000701	68.6559998989
1250.0	0.0007013	68.6870000362
1250.0	0.0007013	68.7339999676
1250.0	0.0007015	68.7649998665
1250.0	0.0007013	68.8120000362
1250.0	0.0007015	68.8589999676
1250.0	0.0007015	68.8899998665
1250.0	0.0007018	68.9370000362
1260.0	0.000706	69.2030000687
1260.0	0.0007073	69.25
1260.0	0.0007088	69.2809998989
1260.0	0.0007103	69.3280000687
1260.0	0.0007113	69.375
1260.0	0.0007118	69.4059998989
1260.0	0.0007125	69.4530000687
1260.0	0.000713	69.4839999676
1260.0	0.0007135	69.5309998989
1260.0	0.0007135	69.5780000687
1260.0	0.0007135	69.6089999676
1260.0	0.0007135	69.6559998989
1260.0	0.000714	69.7030000687
1260.0	0.0007138	69.7339999676
1260.0	0.000714	69.7809998989
1260.0	0.000714	69.8120000362
1260.0	0.0007143	69.8589999676
1260.0	0.0007148	69.9059998989
1260.0	0.000715	69.9370000362
1260.0	0.000715	69.9839999676
1260.0	0.000715	70.0309998989
1260.0	0.000715	70.0620000362
1260.0	0.0007148	70.1089999676
1260.0	0.0007148	70.1559998989
1260.0	0.0007143	70.1870000362
1260.0	0.0007143	70.2339999676
1260.0	0.0007143	70.2809998989
1260.0	0.0007143	70.3280000687
1260.0	0.0007143	70.3589999676
1260.0	0.000714	70.4059998989
1260.0	0.0007138	70.4370000362
1260.0	0.0007135	70.4839999676
1260.0	0.0007135	70.5309998989
1260.0	0.0007135	70.5620000362
1260.0	0.0007138	70.6089999676
1260.0	0.000714	70.6559998989
1270.0	0.000718	70.9210000038
1270.0	0.0007198	70.9530000687
1270.0	0.000721	71.0
1270.0	0.0007218	71.0309998989
1270.0	0.000723	71.0780000687
1270.0	0.0007238	71.125
1270.0	0.0007248	71.1559998989
1270.0	0.0007253	71.2030000687
1270.0	0.0007253	71.25
1270.0	0.0007253	71.2809998989
1270.0	0.000725	71.3280000687
1270.0	0.0007248	71.375
1270.0	0.0007248	71.4059998989
1270.0	0.0007248	71.4530000687
1270.0	0.0007248	71.4839999676
1270.0	0.0007248	71.5309998989
1270.0	0.0007248	71.5780000687
1270.0	0.000725	71.6089999676
1270.0	0.000725	71.6559998989
1270.0	0.000725	71.7030000687
1270.0	0.000725	71.7339999676
1270.0	0.0007248	71.7809998989
1270.0	0.000725	71.8120000362
1270.0	0.000725	71.8589999676
1270.0	0.000725	71.9059998989
1270.0	0.0007253	71.9370000362
1270.0	0.0007253	71.9839999676
1270.0	0.0007255	72.0309998989
1270.0	0.000726	72.0620000362
1270.0	0.000726	72.1089999676
1270.0	0.000726	72.1559998989
1270.0	0.000726	72.1870000362
1270.0	0.0007255	72.2339999676
1270.0	0.0007253	72.2649998665
1270.0	0.0007248	72.3120000362
1270.0	0.0007248	72.3589999676
1270.0	0.0007248	72.3899998665
1280.0	0.0007285	72.6559998989
1280.0	0.000729	72.7030000687
1280.0	0.0007303	72.75
1280.0	0.0007315	72.7809998989
1280.0	0.0007323	72.8280000687
1280.0	0.0007325	72.8589999676
1280.0	0.0007328	72.9059998989
1280.0	0.0007328	72.9530000687
1280.0	0.0007328	72.9839999676
1280.0	0.000733	73.0309998989
1280.0	0.000733	73.0780000687
1280.0	0.0007328	73.1089999676
1280.0	0.0007328	73.1559998989
1280.0	0.0007328	73.2030000687
1280.0	0.000733	73.2339999676
1280.0	0.0007335	73.2809998989
1280.0	0.0007335	73.3120000362
1280.0	0.0007338	73.3589999676
1280.0	0.0007338	73.4059998989
1280.0	0.0007338	73.4370000362
1280.0	0.0007338	73.4839999676
1280.0	0.000734	73.5309998989
1280.0	0.0007343	73.5620000362
1280.0	0.000734	73.6089999676
1280.0	0.000734	73.6399998665
1280.0	0.000734	73.6870000362
1280.0	0.000734	73.7339999676
1280.0	0.000734	73.7649998665
1280.0	0.0007338	73.8120000362
1280.0	0.0007338	73.8589999676
1280.0	0.0007338	73.8899998665
1280.0	0.000734	73.9370000362
1280.0	0.000734	73.9679999352
1280.0	0.0007338	74.0149998665
1280.0	0.0007335	74.0620000362
1280.0	0.0007335	74.0929999352
1280.0	0.000733	74.1399998665
1290.0	0.000735	74.4059998989
1290.0	0.0007353	74.4370000362
1290.0	0.0007353	74.4839999676
1290.0	0.0007355	74.5309998989
1290.0	0.0007355	74.5620000362
1290.0	0.0007353	74.6089999676
1290.0	0.0007353	74.6559998989
1290.0	0.0007353	74.6870000362
1290.0	0.0007355	74.7339999676
1290.0	0.000736	74.7649998665
1290.0	0.000736	74.8120000362
1290.0	0.000736	74.8589999676
1290.0	0.000736	74.8899998665
1290.0	0.000736	74.9370000362
1290.0	0.000736	74.9839999676
1290.0	0.0007363	75.0149998665
1290.0	0.0007363	75.0620000362
1290.0	0.000736	75.1089999676
1290.0	0.0007355	75.1399998665
1290.0	0.0007353	75.1870000362
1290.0	0.0007353	75.2179999352
1290.0	0.0007353	75.2649998665
1290.0	0.0007353	75.3120000362
1290.0	0.0007353	75.3429999352
1290.0	0.0007353	75.3899998665
1290.0	0.0007355	75.4210000038
1290.0	0.0007355	75.4679999352
1290.0	0.0007355	75.5149998665
1290.0	0.0007353	75.5460000038
1290.0	0.0007353	75.5929999352
1290.0	0.0007355	75.6399998665
1290.0	0.000736	75.6710000038
1290.0	0.0007355	75.7179999352
1290.0	0.0007355	75.7649998665
1290.0	0.000736	75.7960000038
1290.0	0.000736	75.8429999352
1290.0	0.000736	75.875
1300.0	0.0007353	76.1399998665
1300.0	0.0007353	76.1870000362
1300.0	0.0007353	76.2339999676
1300.0	0.0007348	76.2649998665
1300.0	0.0007343	76.3120000362
1300.0	0.0007343	76.3429999352
1300.0	0.000734	76.3899998665
1300.0	0.000734	76.4370000362
1300.0	0.000734	76.4679999352
1300.0	0.0007338	76.5149998665
1300.0	0.000734	76.5620000362
1300.0	0.0007338	76.5929999352
1300.0	0.0007338	76.6399998665
1300.0	0.000734	76.6710000038
1300.0	0.000734	76.7179999352
1300.0	0.0007343	76.7649998665
1300.0	0.0007343	76.7960000038
1300.0	0.0007338	76.8429999352
1300.0	0.0007335	76.8899998665
1300.0	0.0007335	76.9210000038
1300.0	0.0007335	76.9679999352
1300.0	0.0007335	77.0
1300.0	0.0007335	77.0460000038
1300.0	0.0007338	77.0929999352
1300.0	0.0007338	77.125
1300.0	0.0007338	77.1710000038
1300.0	0.0007335	77.2179999352
1300.0	0.0007338	77.25
1300.0	0.0007338	77.2960000038
1300.0	0.0007338	77.3280000687
1300.0	0.0007335	77.375
1300.0	0.0007335	77.4210000038
1300.0	0.0007335	77.4530000687
1300.0	0.0007335	77.5
1300.0	0.0007335	77.5460000038
1300.0	0.0007335	77.5780000687
1300.0	0.0007335	77.625
1310.0	0.0007305	77.8899998665
1310.0	0.0007293	77.9210000038
1310.0	0.000728	77.9679999352
1310.0	0.0007273	78.0149998665
1310.0	0.0007268	78.0460000038
1310.0	0.0007263	78.0929999352
1310.0	0.0007255	78.125
1310.0	0.000725	78.1710000038
1310.0	0.000725	78.2179999352
1310.0	0.000725	78.25
1310.0	0.000725	78.2960000038
1310.0	0.000725	78.3429999352
1310.0	0.0007253	78.375
1310.0	0.000725	78.4210000038
1310.0	0.0007253	78.4679999352
1310.0	0.0007253	78.5
1310.0	0.0007253	78.5460000038
1310.0	0.0007253	78.5929999352
1310.0	0.000725	78.625
1310.0	0.000725	78.6710000038
1310.0	0.0007253	78.7179999352
1310.0	0.0007253	78.75
1310.0	0.0007253	78.7960000038
1310.0	0.0007253	78.8280000687
1310.0	0.0007253	78.875
1310.0	0.0007253	78.9210000038
1310.0	0.0007253	78.9530000687
1310.0	0.000725	79.0
1310.0	0.0007248	79.0460000038
1310.0	0.0007243	79.0780000687
1310.0	0.0007243	79.125
1310.0	0.0007243	79.1559998989
1310.0	0.000724	79.2030000687
1310.0	0.0007243	79.25
1310.0	0.0007243	79.2809998989
1310.0	0.0007238	79.3280000687
1310.0	0.0007238	79.375
1320.0	0.000719	79.625
1320.0	0.0007165	79.6710000038
1320.0	0.000715	79.7179999352
1320.0	0.0007135	79.75
1320.0	0.0007123	79.7960000038
1320.0	0.0007115	79.8429999352
1320.0	0.000711	79.875
1320.0	0.0007105	79.9210000038
1320.0	0.00071	79.9530000687
1320.0	0.0007103	80.0
1320.0	0.00071	80.0460000038
1320.0	0.0007103	80.0780000687
1320.0	0.0007105	80.125
1320.0	0.000711	80.1710000038
1320.0	0.0007105	80.2030000687
1320.0	0.0007103	80.25
1320.0	0.0007103	80.2809998989
1320.0	0.0007105	80.3280000687
1320.0	0.0007105	80.375
1320.0	0.0007103	80.4059998989
1320.0	0.00071	80.4530000687
1320.0	0.00071	80.5
1320.0	0.0007098	80.5309998989
1320.0	0.0007098	80.5780000687
1320.0	0.000709	80.625
1320.0	0.000709	80.6559998989
1320.0	0.000709	80.7030000687
1320.0	0.000709	80.7339999676
1320.0	0.0007093	80.7809998989
1320.0	0.000709	80.8280000687
1320.0	0.000709	80.8589999676
1320.0	0.0007093	80.9059998989
1320.0	0.0007093	80.9530000687
1320.0	0.000709	80.9839999676
1320.0	0.000709	81.0309998989
1320.0	0.0007093	81.0620000362
1320.0	0.000709	81.1089999676
1330.0	0.000703	81.375
1330.0	0.0007005	81.4059998989
1330.0	0.0006985	81.4530000687
1330.0	0.0006963	81.5
1330.0	0.0006948	81.5460000038
1330.0	0.0006935	81.5780000687
1330.0	0.0006928	81.625
1330.0	0.0006923	81.6710000038
1330.0	0.0006915	81.7030000687
1330.0	0.0006913	81.75
1330.0	0.000691	81.7809998989
1330.0	0.0006905	81.8280000687
1330.0	0.0006903	81.875
1330.0	0.0006903	81.9059998989
1330.0	0.00069	81.9530000687
1330.0	0.0006893	82.0
1330.0	0.0006893	82.0309998989
1330.0	0.0006893	82.0780000687
1330.0	0.0006893	82.1089999676
1330.0	0.0006893	82.1559998989
1330.0	0.0006893	82.2030000687
1330.0	0.0006893	82.2339999676
1330.0	0.000689	82.2809998989
1330.0	0.0006893	82.3280000687
1330.0	0.0006893	82.375
1330.0	0.0006893	82.4059998989
1330.0	0.0006893	82.4530000687
1330.0	0.000689	82.5
1330.0	0.0006893	82.5309998989
1330.0	0.0006893	82.5780000687
1330.0	0.0006893	82.625
1330.0	0.0006888	82.6559998989
1330.0	0.0006888	82.7030000687
1330.0	0.000689	82.7339999676
1330.0	0.0006893	82.7809998989
1330.0	0.000689	82.8280000687
1340.0	0.0006813	83.0780000687
1340.0	0.0006775	83.125
1340.0	0.0006748	83.1710000038
1340.0	0.0006725	83.2179999352
1340.0	0.00067	83.25
1340.0	0.0006688	83.2960000038
1340.0	0.0006678	83.3429999352
1340.0	0.0006668	83.375
1340.0	0.000666	83.4210000038
1340.0	0.0006653	83.4679999352
1340.0	0.0006648	83.5
1340.0	0.0006643	83.5460000038
1340.0	0.000664	83.5929999352
1340.0	0.000664	83.625
1340.0	0.000664	83.6710000038
1340.0	0.0006638	83.7030000687
1340.0	0.0006638	83.75
1340.0	0.0006638	83.7960000038
1340.0	0.0006635	83.8280000687
1340.0	0.0006638	83.875
1340.0	0.0006638	83.9210000038
1340.0	0.0006635	83.9530000687
1340.0	0.0006638	84.0
1340.0	0.0006638	84.0309998989
1340.0	0.0006643	84.0780000687
1340.0	0.0006648	84.125
1340.0	0.0006653	84.1559998989
1340.0	0.000665	84.2030000687
1340.0	0.000665	84.25
1340.0	0.000665	84.2809998989
1340.0	0.0006648	84.3280000687
1340.0	0.000665	84.375
1340.0	0.0006653	84.4059998989
1340.0	0.0006653	84.4530000687
1340.0	0.000665	84.4839999676
1340.0	0.000665	84.5309998989
1340.0	0.0006648	84.5780000687
1350.0	0.0006543	84.8280000687
1350.0	0.0006503	84.875
1350.0	0.0006468	84.9210000038
1350.0	0.0006443	84.9530000687
1350.0	0.0006425	85.0
1350.0	0.000641	85.0460000038
1350.0	0.0006398	85.0780000687
1350.0	0.0006388	85.125
1350.0	0.0006378	85.1559998989
1350.0	0.000637	85.2030000687
1350.0	0.0006368	85.25
1350.0	0.0006368	85.2809998989
1350.0	0.0006368	85.3280000687
1350.0	0.0006363	85.375
1350.0	0.0006363	85.4059998989
1350.0	0.0006363	85.4530000687
1350.0	0.0006365	85.5
1350.0	0.0006365	85.5309998989
1350.0	0.0006365	85.5780000687
1350.0	0.0006365	85.6089999676
1350.0	0.0006363	85.6559998989
1350.0	0.0006358	85.7030000687
1350.0	0.0006355	85.7339999676
1350.0	0.0006353	85.7809998989
1350.0	0.0006353	85.8280000687
1350.0	0.000635	85.8589999676
1350.0	0.000635	85.9059998989
1350.0	0.000635	85.9370000362
1350.0	0.000635	85.9839999676
1350.0	0.0006353	86.0309998989
1350.0	0.0006353	86.0620000362
1350.0	0.0006355	86.1089999676
1350.0	0.0006355	86.1559998989
1350.0	0.0006353	86.1870000362
1350.0	0.0006355	86.2339999676
1350.0	0.0006355	86.2809998989
1350.0	0.0006355	86.3120000362
1360.0	0.0006263	86.5780000687
1360.0	0.0006218	86.625
1360.0	0.0006183	86.6559998989
1360.0	0.0006155	86.7030000687
1360.0	0.000613	86.7339999676
1360.0	0.0006113	86.7809998989
1360.0	0.00061	86.8280000687
1360.0	0.000609	86.8589999676
1360.0	0.0006083	86.9059998989
1360.0	0.0006075	86.9530000687
1360.0	0.0006068	86.9839999676
1360.0	0.0006065	87.0309998989
1360.0	0.0006063	87.0620000362
1360.0	0.0006058	87.1089999676
1360.0	0.0006053	87.1559998989
1360.0	0.000605	87.1870000362
1360.0	0.000605	87.2339999676
1360.0	0.0006045	87.2809998989
1360.0	0.0006045	87.3120000362
1360.0	0.000605	87.3589999676
1360.0	0.0006053	87.4059998989
1360.0	0.0006055	87.4370000362
1360.0	0.0006055	87.4839999676
1360.0	0.0006058	87.5149998665
1360.0	0.0006055	87.5620000362
1360.0	0.0006058	87.6089999676
1360.0	0.0006058	87.6399998665
1360.0	0.0006063	87.6870000362
1360.0	0.0006063	87.7339999676
1360.0	0.0006063	87.7649998665
1360.0	0.0006063	87.8120000362
1360.0	0.0006063	87.8429999352
1360.0	0.0006063	87.8899998665
1360.0	0.0006063	87.9370000362
1360.0	0.0006058	87.9679999352
1360.0	0.0006058	88.0149998665
1360.0	0.0006058	88.0620000362
1370.0	0.0005955	88.3120000362
1370.0	0.0005918	88.3589999676
1370.0	0.000588	88.4059998989
1370.0	0.000585	88.4370000362
1370.0	0.0005825	88.4839999676
1370.0	0.0005805	88.5309998989
1370.0	0.0005793	88.5620000362
1370.0	0.0005783	88.6089999676
1370.0	0.0005778	88.6399998665
1370.0	0.0005775	88.6870000362
1370.0	0.000577	88.7339999676
1370.0	0.0005765	88.7649998665
1370.0	0.0005763	88.8120000362
1370.0	0.0005758	88.8589999676
1370.0	0.0005758	88.8899998665
1370.0	0.0005758	88.9370000362
1370.0	0.0005763	88.9839999676
1370.0	0.0005765	89.0149998665
1370.0	0.0005768	89.0620000362
1370.0	0.0005768	89.1089999676
1370.0	0.0005768	89.1399998665
1370.0	0.0005765	89.1870000362
1370.0	0.0005763	89.2179999352
1370.0	0.0005763	89.2649998665
1370.0	0.0005763	89.3120000362
1370.0	0.0005763	89.3429999352
1370.0	0.0005763	89.3899998665
1370.0	0.0005763	89.4370000362
1370.0	0.0005758	89.4679999352
1370.0	0.0005758	89.5149998665
1370.0	0.0005758	89.5460000038
1370.0	0.0005763	89.5929999352
1370.0	0.0005758	89.6399998665
1370.0	0.0005755	89.6710000038
1370.0	0.0005763	89.7179999352
1370.0	0.0005763	89.7649998665
1370.0	0.0005765	89.7960000038
1380.0	0.0005658	90.0620000362
1380.0	0.000562	90.1089999676
1380.0	0.000559	90.1559998989
1380.0	0.0005563	90.1870000362
1380.0	0.0005538	90.2339999676
1380.0	0.000552	90.2809998989
1380.0	0.0005508	90.3120000362
1380.0	0.0005503	90.3589999676
1380.0	0.0005495	90.3899998665
1380.0	0.0005488	90.4370000362
1380.0	0.0005483	90.4839999676
1380.0	0.0005483	90.5149998665
1380.0	0.0005483	90.5620000362
1380.0	0.0005488	90.6089999676
1380.0	0.0005488	90.6399998665
1380.0	0.0005488	90.6870000362
1380.0	0.0005488	90.7179999352
1380.0	0.0005488	90.7649998665
1380.0	0.0005488	90.8120000362
1380.0	0.000549	90.8429999352
1380.0	0.000549	90.8899998665
1380.0	0.0005488	90.9370000362
1380.0	0.0005483	90.9679999352
1380.0	0.000548	91.0149998665
1380.0	0.000548	91.0460000038
1380.0	0.0005478	91.0929999352
1380.0	0.0005478	91.1399998665
1380.0	0.000548	91.1710000038
1380.0	0.000548	91.2179999352
1380.0	0.000548	91.2649998665
1380.0	0.000548	91.2960000038
1380.0	0.000548	91.3429999352
1380.0	0.0005483	91.375
1380.0	0.000548	91.4210000038
1380.0	0.0005478	91.4679999352
1380.0	0.000548	91.5
1380.0	0.000548	91.5460000038
1390.0	0.0005405	91.8120000362
1390.0	0.0005375	91.8429999352
1390.0	0.0005345	91.8899998665
1390.0	0.0005325	91.9370000362
1390.0	0.0005303	91.9679999352
1390.0	0.0005288	92.0149998665
1390.0	0.0005278	92.0620000362
1390.0	0.000527	92.0929999352
1390.0	0.0005263	92.1399998665
1390.0	0.0005255	92.1710000038
1390.0	0.000525	92.2179999352
1390.0	0.000525	92.2649998665
1390.0	0.000525	92.2960000038
1390.0	0.000525	92.3429999352
1390.0	0.0005253	92.3899998665
1390.0	0.0005253	92.4210000038
1390.0	0.0005253	92.4679999352
1390.0	0.0005253	92.5
1390.0	0.0005255	92.5460000038
1390.0	0.0005253	92.5929999352
1390.0	0.0005253	92.625
1390.0	0.000525	92.6710000038
1390.0	0.0005245	92.7179999352
1390.0	0.0005243	92.7649998665
1390.0	0.000524	92.7960000038
1390.0	0.0005243	92.8429999352
1390.0	0.0005238	92.8899998665
1390.0	0.0005238	92.9210000038
1390.0	0.0005233	92.9679999352
1390.0	0.000523	93.0149998665
1390.0	0.0005233	93.0460000038
1390.0	0.000524	93.0929999352
1390.0	0.000524	93.125
1390.0	0.0005238	93.1710000038
1390.0	0.0005238	93.2179999352
1390.0	0.000524	93.25
1390.0	0.0005243	93.2960000038
1400.0	0.0005168	93.5620000362
1400.0	0.000514	93.6089999676
1400.0	0.0005118	93.6399998665
1400.0	0.0005103	93.6870000362
1400.0	0.0005088	93.7339999676
1400.0	0.0005078	93.7649998665
1400.0	0.0005068	93.8120000362
1400.0	0.0005063	93.8589999676
1400.0	0.0005058	93.8899998665
1400.0	0.0005053	93.9370000362
1400.0	0.000505	93.9679999352
1400.0	0.0005045	94.0149998665
1400.0	0.000505	94.0620000362
1400.0	0.000505	94.0929999352
1400.0	0.000505	94.1399998665
1400.0	0.000505	94.1710000038
1400.0	0.0005053	94.2179999352
1400.0	0.0005055	94.2649998665
1400.0	0.0005055	94.2960000038
1400.0	0.0005058	94.3429999352
1400.0	0.0005058	94.3899998665
1400.0	0.0005058	94.4210000038
1400.0	0.0005055	94.4679999352
1400.0	0.0005053	94.5149998665
1400.0	0.0005055	94.5460000038
1400.0	0.0005055	94.5929999352
1400.0	0.0005055	94.6399998665
1400.0	0.0005058	94.6710000038
1400.0	0.0005058	94.7179999352
1400.0	0.0005058	94.7649998665
1400.0	0.0005058	94.7960000038
1400.0	0.0005055	94.8429999352
1400.0	0.0005055	94.875
1400.0	0.0005053	94.9210000038
1400.0	0.0005053	94.9679999352
1400.0	0.000505	95.0
1400.0	0.000505	95.0460000038
1410.0	0.0004993	95.3120000362
1410.0	0.0004978	95.3589999676
1410.0	0.0004963	95.3899998665
1410.0	0.000495	95.4370000362
1410.0	0.000494	95.4839999676
1410.0	0.000493	95.5149998665
1410.0	0.0004928	95.5620000362
1410.0	0.0004928	95.5929999352
1410.0	0.0004925	95.6399998665
1410.0	0.0004925	95.6870000362
1410.0	0.0004925	95.7179999352
1410.0	0.000492	95.7649998665
1410.0	0.000492	95.8120000362
1410.0	0.0004918	95.8589999676
1410.0	0.0004918	95.8899998665
1410.0	0.0004918	95.9370000362
1410.0	0.0004915	95.9679999352
1410.0	0.0004918	96.0149998665
1410.0	0.0004915	96.0620000362
1410.0	0.0004915	96.0929999352
1410.0	0.0004918	96.1399998665
1410.0	0.0004918	96.1710000038
1410.0	0.0004918	96.2179999352
1410.0	0.0004918	96.2649998665
1410.0	0.0004918	96.2960000038
1410.0	0.0004918	96.3429999352
1410.0	0.0004918	96.3899998665
1410.0	0.0004918	96.4210000038
1410.0	0.000492	96.4679999352
1410.0	0.0004925	96.5149998665
1410.0	0.000492	96.5460000038
1410.0	0.000492	96.5929999352
1410.0	0.000492	96.625
1410.0	0.000492	96.6710000038
1410.0	0.000492	96.7179999352
1410.0	0.0004925	96.75
1410.0	0.0004928	96.7960000038
1420.0	0.000489	97.0620000362
1420.0	0.0004875	97.1089999676
1420.0	0.0004863	97.1399998665
1420.0	0.0004853	97.1870000362
1420.0	0.0004845	97.2339999676
1420.0	0.000484	97.2649998665
1420.0	0.0004838	97.3120000362
1420.0	0.0004833	97.3589999676
1420.0	0.000483	97.3899998665
1420.0	0.000483	97.4370000362
1420.0	0.000483	97.4839999676
1420.0	0.0004828	97.5149998665
1420.0	0.0004825	97.5620000362
1420.0	0.0004825	97.5929999352
1420.0	0.0004825	97.6399998665
1420.0	0.0004825	97.6870000362
1420.0	0.0004828	97.7179999352
1420.0	0.0004828	97.7649998665
1420.0	0.0004828	97.8120000362
1420.0	0.0004828	97.8429999352
1420.0	0.0004828	97.8899998665
1420.0	0.0004828	97.9210000038
1420.0	0.0004825	97.9679999352
1420.0	0.0004828	98.0149998665
1420.0	0.0004828	98.0460000038
1420.0	0.0004825	98.0929999352
1420.0	0.0004825	98.1399998665
1420.0	0.0004825	98.1710000038
1420.0	0.0004828	98.2179999352
1420.0	0.0004828	98.2649998665
1420.0	0.0004828	98.2960000038
1420.0	0.0004825	98.3429999352
1420.0	0.0004825	98.3899998665
1420.0	0.0004825	98.4210000038
1420.0	0.0004825	98.4679999352
1420.0	0.0004825	98.5149998665
1430.0	0.0004805	98.7809998989
1430.0	0.0004803	98.8120000362
1430.0	0.00048	98.8589999676
1430.0	0.0004793	98.9059998989
1430.0	0.0004793	98.9370000362
1430.0	0.0004793	98.9839999676
1430.0	0.000479	99.0149998665
1430.0	0.0004793	99.0620000362
1430.0	0.0004793	99.1089999676
1430.0	0.0004793	99.1559998989
1430.0	0.0004793	99.1870000362
1430.0	0.000479	99.2339999676
1430.0	0.000479	99.2649998665
1430.0	0.0004788	99.3120000362
1430.0	0.0004788	99.3589999676
1430.0	0.0004788	99.3899998665
1430.0	0.0004783	99.4370000362
1430.0	0.0004783	99.4839999676
1430.0	0.000478	99.5149998665
1430.0	0.000478	99.5620000362
1430.0	0.0004783	99.6089999676
1430.0	0.0004783	99.6399998665
1430.0	0.000478	99.6870000362
1430.0	0.000478	99.7179999352
1430.0	0.000478	99.7649998665
1430.0	0.000478	99.8120000362
1430.0	0.0004778	99.8429999352
1430.0	0.0004778	99.8899998665
1430.0	0.000478	99.9210000038
1430.0	0.000478	99.9679999352
1430.0	0.0004783	100.014999866
1430.0	0.0004788	100.046000004
1430.0	0.0004788	100.092999935
1430.0	0.0004783	100.139999866
1430.0	0.0004783	100.171000004
1430.0	0.000478	100.217999935
1430.0	0.000478	100.264999866
1440.0	0.000478	100.530999899
1440.0	0.0004783	100.562000036
1440.0	0.0004788	100.608999968
1440.0	0.0004793	100.655999899
1440.0	0.00048	100.687000036
1440.0	0.0004803	100.733999968
1440.0	0.00048	100.764999866
1440.0	0.0004795	100.812000036
1440.0	0.00048	100.858999968
1440.0	0.00048	100.889999866
1440.0	0.00048	100.937000036
1440.0	0.00048	100.983999968
1440.0	0.0004795	101.014999866
1440.0	0.0004793	101.062000036
1440.0	0.0004793	101.092999935
1440.0	0.000479	101.139999866
1440.0	0.0004793	101.187000036
1440.0	0.000479	101.217999935
1440.0	0.0004793	101.264999866
1440.0	0.0004793	101.312000036
1440.0	0.0004793	101.342999935
1440.0	0.0004793	101.389999866
1440.0	0.0004795	101.421000004
1440.0	0.00048	101.467999935
1440.0	0.00048	101.514999866
1440.0	0.00048	101.546000004
1440.0	0.00048	101.592999935
1440.0	0.0004795	101.639999866
1440.0	0.00048	101.671000004
1440.0	0.00048	101.717999935
1440.0	0.00048	101.75
1440.0	0.0004795	101.796000004
1440.0	0.0004793	101.842999935
1440.0	0.0004793	101.875
1440.0	0.0004793	101.921000004
1440.0	0.0004795	101.967999935
1440.0	0.0004795	102.0
1450.0	0.000482	102.264999866
1450.0	0.000483	102.312000036
1450.0	0.000484	102.358999968
1450.0	0.000485	102.389999866
1450.0	0.0004855	102.437000036
1450.0	0.0004858	102.467999935
1450.0	0.0004865	102.514999866
1450.0	0.0004865	102.562000036
1450.0	0.0004868	102.592999935
1450.0	0.0004865	102.639999866
1450.0	0.0004863	102.687000036
1450.0	0.0004858	102.717999935
1450.0	0.0004858	102.764999866
1450.0	0.0004863	102.796000004
1450.0	0.0004863	102.842999935
1450.0	0.0004865	102.889999866
1450.0	0.0004863	102.921000004
1450.0	0.0004865	102.967999935
1450.0	0.0004865	103.014999866
1450.0	0.0004868	103.046000004
1450.0	0.000487	103.092999935
1450.0	0.0004875	103.125
1450.0	0.0004878	103.171000004
1450.0	0.0004875	103.217999935
1450.0	0.0004875	103.25
1450.0	0.0004878	103.296000004
1450.0	0.0004878	103.342999935
1450.0	0.0004875	103.375
1450.0	0.0004875	103.421000004
1450.0	0.0004875	103.467999935
1450.0	0.000487	103.5
1450.0	0.0004875	103.546000004
1450.0	0.0004875	103.578000069
1450.0	0.0004875	103.625
1450.0	0.0004878	103.671000004
1450.0	0.0004875	103.703000069
1450.0	0.0004875	103.75
1460.0	0.0004903	104.014999866
1460.0	0.0004918	104.062000036
1460.0	0.0004928	104.092999935
1460.0	0.0004938	104.139999866
1460.0	0.000494	104.187000036
1460.0	0.0004943	104.217999935
1460.0	0.000495	104.264999866
1460.0	0.0004953	104.312000036
1460.0	0.0004955	104.342999935
1460.0	0.0004963	104.389999866
1460.0	0.0004963	104.437000036
1460.0	0.0004963	104.467999935
1460.0	0.0004963	104.514999866
1460.0	0.0004963	104.546000004
1460.0	0.0004963	104.592999935
1460.0	0.0004965	104.639999866
1460.0	0.0004965	104.671000004
1460.0	0.0004965	104.717999935
1460.0	0.000497	104.764999866
1460.0	0.000497	104.796000004
1460.0	0.0004968	104.842999935
1460.0	0.0004968	104.875
1460.0	0.0004968	104.921000004
1460.0	0.0004968	104.967999935
1460.0	0.0004968	105.0
1460.0	0.0004968	105.092999935
1460.0	0.000497	105.125
1460.0	0.000497	105.171000004
1460.0	0.0004968	105.217999935
1460.0	0.0004965	105.25
1460.0	0.0004965	105.296000004
1460.0	0.0004965	105.342999935
1460.0	0.0004965	105.375
1460.0	0.0004968	105.421000004
1460.0	0.000497	105.467999935
1470.0	0.0005003	105.733999968
1470.0	0.0005018	105.780999899
1470.0	0.0005028	105.812000036
1470.0	0.0005038	105.858999968
1470.0	0.000504	105.889999866
1470.0	0.0005043	105.937000036
1470.0	0.0005043	105.983999968
1470.0	0.0005045	106.014999866
1470.0	0.0005045	106.062000036
1470.0	0.0005045	106.108999968
1470.0	0.000505	106.139999866
1470.0	0.000505	106.187000036
1470.0	0.000505	106.217999935
1470.0	0.000505	106.264999866
1470.0	0.0005053	106.312000036
1470.0	0.0005055	106.342999935
1470.0	0.0005058	106.389999866
1470.0	0.0005055	106.437000036
1470.0	0.0005055	106.467999935
1470.0	0.0005053	106.514999866
1470.0	0.0005053	106.546000004
1470.0	0.000505	106.592999935
1470.0	0.000505	106.639999866
1470.0	0.0005053	106.671000004
1470.0	0.000505	106.717999935
1470.0	0.000505	106.764999866
1470.0	0.0005045	106.796000004
1470.0	0.0005045	106.842999935
1470.0	0.0005045	106.875
1470.0	0.000505	106.921000004
1470.0	0.000505	106.967999935
1470.0	0.000505	107.0
1470.0	0.000505	107.046000004
1470.0	0.000505	107.092999935
1470.0	0.0005053	107.125
1470.0	0.0005053	107.171000004
1470.0	0.000505	107.217999935
1480.0	0.000508	107.483999968
1480.0	0.0005095	107.514999866
1480.0	0.0005113	107.562000036
1480.0	0.000512	107.608999968
1480.0	0.0005125	107.639999866
1480.0	0.000513	107.687000036
1480.0	0.0005133	107.733999968
1480.0	0.0005138	107.764999866
1480.0	0.000514	107.812000036
1480.0	0.000514	107.858999968
1480.0	0.0005143	107.889999866
1480.0	0.0005145	107.937000036
1480.0	0.0005143	107.967999935
1480.0	0.0005143	108.014999866
1480.0	0.0005143	108.062000036
1480.0	0.0005143	108.092999935
1480.0	0.0005143	108.139999866
1480.0	0.0005143	108.187000036
1480.0	0.0005145	108.217999935
1480.0	0.000515	108.264999866
1480.0	0.000515	108.296000004
1480.0	0.000515	108.342999935
1480.0	0.000515	108.389999866
1480.0	0.000515	108.421000004
1480.0	0.0005153	108.467999935
1480.0	0.0005153	108.514999866
1480.0	0.0005153	108.546000004
1480.0	0.000515	108.592999935
1480.0	0.000515	108.625
1480.0	0.000515	108.671000004
1480.0	0.0005153	108.717999935
1480.0	0.0005155	108.75
1480.0	0.0005155	108.796000004
1480.0	0.0005155	108.842999935
1480.0	0.0005153	108.875
1480.0	0.0005155	108.921000004
1480.0	0.0005155	108.967999935
1490.0	0.0005183	109.233999968
1490.0	0.0005195	109.280999899
1490.0	0.0005208	109.312000036
1490.0	0.0005218	109.358999968
1490.0	0.0005225	109.389999866
1490.0	0.000523	109.437000036
1490.0	0.0005238	109.483999968
1490.0	0.0005243	109.514999866
1490.0	0.000524	109.562000036
1490.0	0.0005243	109.608999968
1490.0	0.000524	109.639999866
1490.0	0.0005243	109.687000036
1490.0	0.0005243	109.717999935
1490.0	0.0005243	109.764999866
1490.0	0.000524	109.812000036
1490.0	0.000524	109.842999935
1490.0	0.000524	109.889999866
1490.0	0.0005243	109.937000036
1490.0	0.0005245	109.967999935
1490.0	0.0005245	110.014999866
1490.0	0.000525	110.046000004
1490.0	0.000525	110.092999935
1490.0	0.0005255	110.139999866
1490.0	0.0005255	110.187000036
1490.0	0.0005255	110.217999935
1490.0	0.0005255	110.264999866
1490.0	0.0005258	110.296000004
1490.0	0.0005258	110.342999935
1490.0	0.0005258	110.389999866
1490.0	0.0005258	110.421000004
1490.0	0.0005258	110.467999935
1490.0	0.0005255	110.514999866
1490.0	0.0005253	110.546000004
1490.0	0.0005253	110.592999935
1490.0	0.000525	110.625
1490.0	0.0005245	110.671000004
1490.0	0.0005245	110.717999935
1500.0	0.000527	110.983999968
1500.0	0.0005278	111.030999899
1500.0	0.0005283	111.062000036
1500.0	0.000529	111.108999968
1500.0	0.0005295	111.155999899
1500.0	0.00053	111.187000036
1500.0	0.0005295	111.233999968
1500.0	0.00053	111.280999899
1500.0	0.00053	111.312000036
1500.0	0.00053	111.358999968
1500.0	0.0005303	111.389999866
1500.0	0.0005305	111.437000036
1500.0	0.0005305	111.483999968
1500.0	0.0005308	111.530999899
1500.0	0.0005308	111.562000036
1500.0	0.0005308	111.608999968
1500.0	0.0005313	111.639999866
1500.0	0.0005313	111.687000036
1500.0	0.0005315	111.733999968
1500.0	0.0005318	111.764999866
1500.0	0.0005315	111.812000036
1500.0	0.0005313	111.858999968
1500.0	0.0005313	111.889999866
1500.0	0.0005313	111.937000036
1500.0	0.0005313	111.967999935
1500.0	0.0005313	112.014999866
1500.0	0.0005313	112.062000036
1500.0	0.0005313	112.092999935
1500.0	0.0005313	112.139999866
1500.0	0.0005315	112.187000036
1500.0	0.0005315	112.217999935
1500.0	0.0005315	112.264999866
1500.0	0.0005315	112.296000004
1500.0	0.0005313	112.342999935
1500.0	0.0005313	112.389999866
1500.0	0.0005313	112.421000004
1500.0	0.0005313	112.467999935
1510.0	0.0005328	112.733999968
1510.0	0.0005333	112.780999899
1510.0	0.000534	112.828000069
1510.0	0.0005345	112.875
1510.0	0.0005345	112.905999899
1510.0	0.0005345	112.953000069
1510.0	0.000535	112.983999968
1510.0	0.000535	113.030999899
1510.0	0.0005345	113.078000069
1510.0	0.0005345	113.108999968
1510.0	0.000535	113.155999899
1510.0	0.000535	113.203000069
1510.0	0.0005353	113.233999968
1510.0	0.000535	113.280999899
1510.0	0.0005345	113.312000036
1510.0	0.0005345	113.358999968
1510.0	0.0005343	113.405999899
1510.0	0.0005345	113.437000036
1510.0	0.0005343	113.483999968
1510.0	0.0005343	113.530999899
1510.0	0.0005345	113.562000036
1510.0	0.0005345	113.608999968
1510.0	0.000535	113.639999866
1510.0	0.000535	113.687000036
1510.0	0.000535	113.733999968
1510.0	0.0005353	113.764999866
1510.0	0.000535	113.812000036
1510.0	0.0005345	113.858999968
1510.0	0.0005343	113.889999866
1510.0	0.0005343	113.937000036
1510.0	0.000534	113.983999968
1510.0	0.000534	114.014999866
1510.0	0.000534	114.062000036
1510.0	0.000534	114.092999935
1510.0	0.0005343	114.139999866
1510.0	0.0005343	114.187000036
1510.0	0.0005343	114.217999935
1520.0	0.0005355	114.5
1520.0	0.0005355	114.530999899
1520.0	0.0005355	114.578000069
1520.0	0.0005355	114.608999968
1520.0	0.0005355	114.655999899
1520.0	0.0005355	114.703000069
1520.0	0.0005355	114.733999968
1520.0	0.0005355	114.780999899
1520.0	0.0005358	114.828000069
1520.0	0.0005358	114.858999968
1520.0	0.0005358	114.905999899
1520.0	0.0005363	114.953000069
1520.0	0.0005358	114.983999968
1520.0	0.0005358	115.030999899
1520.0	0.0005355	115.062000036
1520.0	0.0005355	115.108999968
1520.0	0.0005355	115.155999899
1520.0	0.0005355	115.187000036
1520.0	0.0005355	115.233999968
1520.0	0.0005353	115.280999899
1520.0	0.0005353	115.312000036
1520.0	0.0005353	115.358999968
1520.0	0.0005355	115.389999866
1520.0	0.0005363	115.437000036
1520.0	0.0005363	115.483999968
1520.0	0.0005365	115.530999899
1520.0	0.0005365	115.562000036
1520.0	0.0005363	115.608999968
1520.0	0.0005358	115.639999866
1520.0	0.0005358	115.687000036
1520.0	0.0005355	115.733999968
1520.0	0.0005355	115.764999866
1520.0	0.0005355	115.812000036
1520.0	0.0005353	115.858999968
1520.0	0.0005353	115.905999899
1520.0	0.0005353	115.937000036
1520.0	0.0005355	115.983999968
1530.0	0.0005353	116.25
1530.0	0.000535	116.296000004
1530.0	0.000535	116.342999935
1530.0	0.0005345	116.375
1530.0	0.0005345	116.421000004
1530.0	0.0005345	116.453000069
1530.0	0.0005343	116.5
1530.0	0.0005343	116.546000004
1530.0	0.0005343	116.578000069
1530.0	0.0005343	116.625
1530.0	0.0005345	116.671000004
1530.0	0.000535	116.703000069
1530.0	0.000535	116.75
1530.0	0.0005353	116.796000004
1530.0	0.0005353	116.828000069
1530.0	0.0005345	116.875
1530.0	0.0005345	116.905999899
1530.0	0.0005345	116.953000069
1530.0	0.000535	117.0
1530.0	0.000535	117.030999899
1530.0	0.000535	117.078000069
1530.0	0.0005345	117.125
1530.0	0.000535	117.155999899
1530.0	0.000535	117.203000069
1530.0	0.0005353	117.233999968
1530.0	0.0005353	117.280999899
1530.0	0.0005355	117.328000069
1530.0	0.0005355	117.358999968
1530.0	0.0005355	117.405999899
1530.0	0.0005355	117.453000069
1530.0	0.000535	117.483999968
1530.0	0.0005353	117.530999899
1530.0	0.000535	117.578000069
1530.0	0.000535	117.608999968
1530.0	0.0005345	117.655999899
1530.0	0.000535	117.687000036
1530.0	0.000535	117.733999968
1540.0	0.0005333	118.014999866
1540.0	0.0005333	118.046000004
1540.0	0.000533	118.092999935
1540.0	0.0005328	118.125
1540.0	0.0005325	118.171000004
1540.0	0.0005325	118.217999935
1540.0	0.000532	118.25
1540.0	0.0005318	118.296000004
1540.0	0.0005318	118.342999935
1540.0	0.0005318	118.375
1540.0	0.0005318	118.421000004
1540.0	0.0005318	118.467999935
1540.0	0.000532	118.5
1540.0	0.000532	118.546000004
1540.0	0.0005325	118.578000069
1540.0	0.0005325	118.625
1540.0	0.0005325	118.671000004
1540.0	0.000532	118.703000069
1540.0	0.0005325	118.75
1540.0	0.000532	118.796000004
1540.0	0.000532	118.828000069
1540.0	0.000532	118.875
1540.0	0.000532	118.905999899
1540.0	0.000532	118.953000069
1540.0	0.000532	119.0
1540.0	0.000532	119.030999899
1540.0	0.0005318	119.078000069
1540.0	0.000532	119.125
1540.0	0.000532	119.155999899
1540.0	0.0005318	119.203000069
1540.0	0.0005318	119.233999968
1540.0	0.0005318	119.280999899
1540.0	0.0005315	119.328000069
1540.0	0.0005315	119.358999968
1540.0	0.0005313	119.405999899
1540.0	0.0005313	119.453000069
1540.0	0.0005313	119.483999968
1550.0	0.00053	119.764999866
1550.0	0.0005293	119.796000004
1550.0	0.0005283	119.842999935
1550.0	0.0005275	119.875
1550.0	0.0005265	119.921000004
1550.0	0.0005263	119.967999935
1550.0	0.0005255	120.0
1550.0	0.0005255	120.046000004
1550.0	0.0005253	120.092999935
1550.0	0.0005253	120.125
1550.0	0.0005253	120.171000004
1550.0	0.0005255	120.203000069
1550.0	0.0005258	120.25
1550.0	0.0005263	120.296000004
1550.0	0.0005263	120.328000069
1550.0	0.0005265	120.375
1550.0	0.0005263	120.421000004
1550.0	0.0005263	120.453000069
1550.0	0.0005263	120.5
1550.0	0.0005263	120.546000004
1550.0	0.0005263	120.578000069
1550.0	0.0005265	120.625
1550.0	0.0005258	120.655999899
1550.0	0.0005258	120.703000069
1550.0	0.0005255	120.75
1550.0	0.0005253	120.780999899
1550.0	0.0005253	120.828000069
1550.0	0.0005253	120.875
1550.0	0.000525	120.905999899
1550.0	0.000525	120.953000069
1550.0	0.000525	120.983999968
1550.0	0.000525	121.030999899
1550.0	0.0005253	121.078000069
1550.0	0.000525	121.108999968
1550.0	0.0005255	121.155999899
1550.0	0.0005255	121.203000069
1550.0	0.0005255	121.233999968
1560.0	0.0005215	121.514999866
1560.0	0.00052	121.546000004
1560.0	0.000519	121.592999935
1560.0	0.0005178	121.625
1560.0	0.0005168	121.671000004
1560.0	0.0005165	121.717999935
1560.0	0.0005158	121.75
1560.0	0.0005153	121.796000004
1560.0	0.000515	121.842999935
1560.0	0.0005143	121.875
1560.0	0.000514	121.921000004
1560.0	0.000514	121.953000069
1560.0	0.000514	122.0
1560.0	0.000514	122.046000004
1560.0	0.0005143	122.078000069
1560.0	0.000514	122.125
1560.0	0.000514	122.171000004
1560.0	0.0005143	122.203000069
1560.0	0.0005143	122.25
1560.0	0.0005143	122.280999899
1560.0	0.0005145	122.328000069
1560.0	0.0005143	122.375
1560.0	0.000514	122.421000004
1560.0	0.000514	122.453000069
1560.0	0.000514	122.5
1560.0	0.0005143	122.546000004
1560.0	0.0005138	122.578000069
1560.0	0.0005138	122.625
1560.0	0.0005133	122.655999899
1560.0	0.0005133	122.703000069
1560.0	0.0005138	122.75
1560.0	0.0005138	122.780999899
1560.0	0.000514	122.828000069
1560.0	0.000514	122.875
1560.0	0.000514	122.905999899
1560.0	0.0005138	122.953000069
1560.0	0.0005138	122.983999968
1570.0	0.000508	123.264999866
1570.0	0.0005063	123.296000004
1570.0	0.0005043	123.342999935
1570.0	0.0005028	123.389999866
1570.0	0.0005018	123.421000004
1570.0	0.0005008	123.467999935
1570.0	0.0005003	123.514999866
1570.0	0.0004995	123.546000004
1570.0	0.000499	123.592999935
1570.0	0.0004988	123.625
1570.0	0.0004983	123.671000004
1570.0	0.000498	123.717999935
1570.0	0.000498	123.75
1570.0	0.000498	123.796000004
1570.0	0.0004978	123.842999935
1570.0	0.000498	123.875
1570.0	0.000498	123.921000004
1570.0	0.0004983	123.967999935
1570.0	0.000498	124.0
1570.0	0.000498	124.046000004
1570.0	0.000498	124.078000069
1570.0	0.0004983	124.125
1570.0	0.0004983	124.171000004
1570.0	0.0004988	124.203000069
1570.0	0.0004988	124.25
1570.0	0.0004988	124.296000004
1570.0	0.0004983	124.328000069
1570.0	0.0004978	124.375
1570.0	0.0004975	124.405999899
1570.0	0.0004975	124.453000069
1570.0	0.000497	124.5
1570.0	0.000497	124.530999899
1570.0	0.000497	124.578000069
1570.0	0.000497	124.625
1570.0	0.0004975	124.655999899
1570.0	0.0004978	124.703000069
1570.0	0.0004978	124.75
1580.0	0.00049	125.014999866
1580.0	0.000487	125.062000036
1580.0	0.0004853	125.108999968
1580.0	0.0004838	125.139999866
1580.0	0.0004825	125.187000036
1580.0	0.0004815	125.233999968
1580.0	0.0004805	125.264999866
1580.0	0.0004805	125.312000036
1580.0	0.00048	125.358999968
1580.0	0.0004793	125.389999866
1580.0	0.0004788	125.437000036
1580.0	0.0004783	125.483999968
1580.0	0.0004778	125.514999866
1580.0	0.0004778	125.562000036
1580.0	0.0004775	125.608999968
1580.0	0.0004778	125.639999866
1580.0	0.000478	125.687000036
1580.0	0.000478	125.733999968
1580.0	0.000478	125.764999866
1580.0	0.000478	125.812000036
1580.0	0.000478	125.842999935
1580.0	0.000478	125.889999866
1580.0	0.000478	125.937000036
1580.0	0.000478	125.967999935
1580.0	0.000478	126.014999866
1580.0	0.000478	126.062000036
1580.0	0.0004778	126.092999935
1580.0	0.000478	126.139999866
1580.0	0.0004788	126.171000004
1580.0	0.0004783	126.217999935
1580.0	0.0004783	126.264999866
1580.0	0.0004783	126.296000004
1580.0	0.0004788	126.342999935
1580.0	0.0004788	126.389999866
1580.0	0.000479	126.421000004
1580.0	0.0004788	126.467999935
1580.0	0.0004783	126.5
1590.0	0.0004703	126.780999899
1590.0	0.0004668	126.828000069
1590.0	0.000464	126.858999968
1590.0	0.0004618	126.905999899
1590.0	0.00046	126.953000069
1590.0	0.0004583	126.983999968
1590.0	0.0004575	127.030999899
1590.0	0.0004565	127.078000069
1590.0	0.0004558	127.108999968
1590.0	0.0004555	127.155999899
1590.0	0.0004553	127.203000069
1590.0	0.0004553	127.233999968
1590.0	0.000455	127.280999899
1590.0	0.000455	127.328000069
1590.0	0.0004553	127.358999968
1590.0	0.000455	127.405999899
1590.0	0.000455	127.437000036
1590.0	0.0004553	127.483999968
1590.0	0.000455	127.530999899
1590.0	0.000455	127.562000036
1590.0	0.0004545	127.608999968
1590.0	0.0004543	127.655999899
1590.0	0.0004543	127.687000036
1590.0	0.0004543	127.733999968
1590.0	0.0004543	127.764999866
1590.0	0.0004543	127.812000036
1590.0	0.0004543	127.858999968
1590.0	0.0004545	127.889999866
1590.0	0.000455	127.937000036
1590.0	0.000455	127.983999968
1590.0	0.000455	128.014999866
1590.0	0.0004553	128.062000036
1590.0	0.0004553	128.092999935
1590.0	0.0004553	128.139999866
1590.0	0.0004553	128.187000036
1590.0	0.0004553	128.217999935
1590.0	0.000455	128.264999866
1600.0	0.0004453	128.546000004
1600.0	0.0004415	128.578000069
1600.0	0.000438	128.625
1600.0	0.0004355	128.655999899
1600.0	0.0004338	128.703000069
1600.0	0.0004325	128.75
1600.0	0.0004313	128.780999899
1600.0	0.0004305	128.828000069
1600.0	0.0004303	128.875
1600.0	0.0004295	128.905999899
1600.0	0.0004293	128.953000069
1600.0	0.0004288	128.983999968
1600.0	0.0004283	129.030999899
1600.0	0.0004283	129.078000069
1600.0	0.0004283	129.108999968
1600.0	0.0004288	129.155999899
1600.0	0.0004288	129.203000069
1600.0	0.0004288	129.233999968
1600.0	0.0004288	129.280999899
1600.0	0.000429	129.328000069
1600.0	0.000429	129.358999968
1600.0	0.000429	129.405999899
1600.0	0.000429	129.437000036
1600.0	0.000429	129.483999968
1600.0	0.0004293	129.530999899
1600.0	0.000429	129.562000036
1600.0	0.0004293	129.608999968
1600.0	0.0004293	129.655999899
1600.0	0.000429	129.687000036
1600.0	0.000429	129.733999968
1600.0	0.0004283	129.764999866
1600.0	0.0004283	129.812000036
1600.0	0.000428	129.858999968
1600.0	0.000428	129.889999866
1600.0	0.000428	129.937000036
1600.0	0.000428	129.983999968
1600.0	0.000428	130.014999866
1610.0	0.0004175	130.296000004
1610.0	0.0004133	130.328000069
1610.0	0.00041	130.375
1610.0	0.000407	130.421000004
1610.0	0.000405	130.453000069
1610.0	0.0004033	130.5
1610.0	0.0004018	130.546000004
1610.0	0.0004008	130.578000069
1610.0	0.0004003	130.625
1610.0	0.0003993	130.655999899
1610.0	0.0003993	130.703000069
1610.0	0.000399	130.75
1610.0	0.0003988	130.780999899
1610.0	0.0003988	130.828000069
1610.0	0.0003983	130.875
1610.0	0.000398	130.905999899
1610.0	0.000398	130.953000069
1610.0	0.0003978	131.0
1610.0	0.000398	131.030999899
1610.0	0.000398	131.078000069
1610.0	0.0003983	131.108999968
1610.0	0.0003988	131.155999899
1610.0	0.000399	131.203000069
1610.0	0.0003993	131.233999968
1610.0	0.0003993	131.280999899
1610.0	0.0003993	131.328000069
1610.0	0.0003988	131.358999968
1610.0	0.0003988	131.405999899
1610.0	0.0003983	131.437000036
1610.0	0.0003983	131.483999968
1610.0	0.0003983	131.530999899
1610.0	0.000398	131.562000036
1610.0	0.000398	131.608999968
1610.0	0.000398	131.655999899
1610.0	0.0003978	131.687000036
1610.0	0.0003978	131.733999968
1610.0	0.0003978	131.764999866
1620.0	0.0003868	132.046000004
1620.0	0.0003825	132.092999935
1620.0	0.000379	132.139999866
1620.0	0.0003763	132.171000004
1620.0	0.000374	132.217999935
1620.0	0.0003728	132.25
1620.0	0.0003718	132.296000004
1620.0	0.0003705	132.342999935
1620.0	0.00037	132.375
1620.0	0.0003693	132.421000004
1620.0	0.0003688	132.467999935
1620.0	0.0003683	132.5
1620.0	0.0003683	132.546000004
1620.0	0.0003683	132.592999935
1620.0	0.0003683	132.625
1620.0	0.000368	132.671000004
1620.0	0.0003678	132.703000069
1620.0	0.0003675	132.75
1620.0	0.0003675	132.796000004
1620.0	0.0003675	132.828000069
1620.0	0.0003675	132.875
1620.0	0.0003675	132.921000004
1620.0	0.0003678	132.953000069
1620.0	0.000367	133.0
1620.0	0.0003668	133.030999899
1620.0	0.0003668	133.078000069
1620.0	0.000367	133.125
1620.0	0.000367	133.155999899
1620.0	0.000367	133.203000069
1620.0	0.000367	133.25
1620.0	0.000367	133.280999899
1620.0	0.000367	133.328000069
1620.0	0.0003668	133.358999968
1620.0	0.0003668	133.405999899
1620.0	0.0003668	133.453000069
1620.0	0.0003668	133.483999968
1620.0	0.0003668	133.530999899
1630.0	0.0003555	133.812000036
1630.0	0.0003515	133.842999935
1630.0	0.0003475	133.889999866
1630.0	0.0003443	133.937000036
1630.0	0.0003415	133.967999935
1630.0	0.0003395	134.014999866
1630.0	0.000338	134.062000036
1630.0	0.000337	134.092999935
1630.0	0.0003363	134.139999866
1630.0	0.0003353	134.171000004
1630.0	0.0003345	134.217999935
1630.0	0.0003343	134.264999866
1630.0	0.0003343	134.296000004
1630.0	0.0003343	134.342999935
1630.0	0.0003343	134.389999866
1630.0	0.0003343	134.421000004
1630.0	0.0003343	134.467999935
1630.0	0.0003343	134.5
1630.0	0.0003343	134.546000004
1630.0	0.0003343	134.592999935
1630.0	0.000334	134.625
1630.0	0.000334	134.671000004
1630.0	0.0003338	134.717999935
1630.0	0.000334	134.75
1630.0	0.000334	134.796000004
1630.0	0.000334	134.842999935
1630.0	0.0003343	134.875
1630.0	0.0003343	134.921000004
1630.0	0.0003343	134.953000069
1630.0	0.0003343	135.0
1630.0	0.0003343	135.046000004
1630.0	0.0003345	135.078000069
1630.0	0.0003345	135.125
1630.0	0.000335	135.171000004
1630.0	0.000335	135.203000069
1630.0	0.000335	135.25
1630.0	0.0003345	135.280999899
1640.0	0.0003218	135.578000069
1640.0	0.0003175	135.608999968
1640.0	0.0003138	135.655999899
1640.0	0.0003113	135.687000036
1640.0	0.000309	135.733999968
1640.0	0.000307	135.780999899
1640.0	0.0003058	135.812000036
1640.0	0.000305	135.858999968
1640.0	0.0003043	135.905999899
1640.0	0.0003038	135.937000036
1640.0	0.0003033	135.983999968
1640.0	0.0003033	136.030999899
1640.0	0.000303	136.062000036
1640.0	0.0003028	136.108999968
1640.0	0.0003025	136.139999866
1640.0	0.000302	136.187000036
1640.0	0.0003025	136.233999968
1640.0	0.000302	136.264999866
1640.0	0.000302	136.312000036
1640.0	0.0003018	136.358999968
1640.0	0.0003018	136.389999866
1640.0	0.0003015	136.437000036
1640.0	0.0003015	136.467999935
1640.0	0.0003015	136.514999866
1640.0	0.0003013	136.562000036
1640.0	0.0003013	136.592999935
1640.0	0.0003008	136.639999866
1640.0	0.0003013	136.687000036
1640.0	0.0003013	136.717999935
1640.0	0.0003008	136.764999866
1640.0	0.0003013	136.796000004
1640.0	0.0003015	136.842999935
1640.0	0.0003013	136.889999866
1640.0	0.0003015	136.921000004
1640.0	0.0003018	136.967999935
1640.0	0.0003018	137.014999866
1640.0	0.0003018	137.046000004
1650.0	0.0002893	137.328000069
1650.0	0.0002853	137.375
1650.0	0.0002815	137.421000004
1650.0	0.0002788	137.453000069
1650.0	0.0002763	137.5
1650.0	0.0002743	137.546000004
1650.0	0.0002728	137.578000069
1650.0	0.0002715	137.625
1650.0	0.0002713	137.655999899
1650.0	0.0002708	137.703000069
1650.0	0.0002705	137.75
1650.0	0.0002705	137.780999899
1650.0	0.0002705	137.828000069
1650.0	0.00027	137.875
1650.0	0.00027	137.905999899
1650.0	0.0002695	137.953000069
1650.0	0.0002693	137.983999968
1650.0	0.0002693	138.030999899
1650.0	0.00027	138.078000069
1650.0	0.00027	138.108999968
1650.0	0.00027	138.155999899
1650.0	0.0002695	138.203000069
1650.0	0.0002695	138.233999968
1650.0	0.0002695	138.280999899
1650.0	0.0002695	138.312000036
1650.0	0.00027	138.358999968
1650.0	0.00027	138.405999899
1650.0	0.00027	138.437000036
1650.0	0.00027	138.483999968
1650.0	0.0002695	138.530999899
1650.0	0.0002695	138.562000036
1650.0	0.00027	138.608999968
1650.0	0.00027	138.655999899
1650.0	0.00027	138.687000036
1650.0	0.00027	138.733999968
1650.0	0.0002693	138.764999866
1650.0	0.0002693	138.812000036
1660.0	0.0002578	139.092999935
1660.0	0.000254	139.139999866
1660.0	0.0002508	139.171000004
1660.0	0.000248	139.217999935
1660.0	0.0002463	139.264999866
1660.0	0.0002445	139.296000004
1660.0	0.0002433	139.342999935
1660.0	0.0002425	139.389999866
1660.0	0.0002415	139.421000004
1660.0	0.0002408	139.467999935
1660.0	0.0002403	139.5
1660.0	0.00024	139.546000004
1660.0	0.00024	139.592999935
1660.0	0.00024	139.625
1660.0	0.00024	139.671000004
1660.0	0.0002395	139.717999935
1660.0	0.00024	139.75
1660.0	0.0002395	139.796000004
1660.0	0.0002395	139.828000069
1660.0	0.0002393	139.875
1660.0	0.0002393	139.921000004
1660.0	0.0002395	139.953000069
1660.0	0.00024	140.0
1660.0	0.00024	140.046000004
1660.0	0.00024	140.078000069
1660.0	0.00024	140.125
1660.0	0.00024	140.155999899
1660.0	0.0002395	140.203000069
1660.0	0.0002393	140.25
1660.0	0.0002393	140.280999899
1660.0	0.000239	140.328000069
1660.0	0.000239	140.375
1660.0	0.000239	140.405999899
1660.0	0.0002383	140.453000069
1660.0	0.000238	140.5
1660.0	0.000238	140.530999899
1660.0	0.0002383	140.578000069
1670.0	0.0002288	140.858999968
1670.0	0.000225	140.905999899
1670.0	0.000222	140.937000036
1670.0	0.0002193	140.983999968
1670.0	0.0002175	141.030999899
1670.0	0.0002158	141.062000036
1670.0	0.000215	141.108999968
1670.0	0.0002143	141.155999899
1670.0	0.0002138	141.187000036
1670.0	0.000213	141.233999968
1670.0	0.0002128	141.264999866
1670.0	0.0002125	141.312000036
1670.0	0.0002125	141.358999968
1670.0	0.0002125	141.389999866
1670.0	0.0002125	141.437000036
1670.0	0.000212	141.483999968
1670.0	0.000212	141.514999866
1670.0	0.000212	141.562000036
1670.0	0.0002118	141.608999968
1670.0	0.0002118	141.639999866
1670.0	0.0002115	141.687000036
1670.0	0.0002115	141.717999935
1670.0	0.0002118	141.764999866
1670.0	0.0002118	141.812000036
1670.0	0.0002118	141.842999935
1670.0	0.0002118	141.889999866
1670.0	0.0002118	141.921000004
1670.0	0.0002118	141.967999935
1670.0	0.0002118	142.014999866
1670.0	0.0002118	142.046000004
1670.0	0.0002118	142.092999935
1670.0	0.0002115	142.139999866
1670.0	0.0002115	142.171000004
1670.0	0.0002113	142.217999935
1670.0	0.0002113	142.264999866
1670.0	0.0002113	142.296000004
1670.0	0.0002118	142.342999935
1680.0	0.000202	142.625
1680.0	0.0001988	142.671000004
1680.0	0.0001963	142.703000069
1680.0	0.0001943	142.75
1680.0	0.0001928	142.796000004
1680.0	0.0001913	142.828000069
1680.0	0.0001905	142.875
1680.0	0.00019	142.921000004
1680.0	0.0001893	142.953000069
1680.0	0.0001888	143.0
1680.0	0.0001883	143.046000004
1680.0	0.000188	143.078000069
1680.0	0.0001878	143.125
1680.0	0.0001878	143.155999899
1680.0	0.0001875	143.203000069
1680.0	0.0001875	143.25
1680.0	0.0001875	143.280999899
1680.0	0.000187	143.328000069
1680.0	0.000187	143.375
1680.0	0.000187	143.405999899
1680.0	0.000187	143.453000069
1680.0	0.000187	143.483999968
1680.0	0.000187	143.530999899
1680.0	0.000187	143.578000069
1680.0	0.000187	143.625
1680.0	0.0001868	143.655999899
1680.0	0.0001868	143.703000069
1680.0	0.000187	143.733999968
1680.0	0.000187	143.780999899
1680.0	0.0001875	143.828000069
1680.0	0.0001875	143.858999968
1680.0	0.0001878	143.905999899
1680.0	0.000188	143.953000069
1680.0	0.0001878	143.983999968
1680.0	0.0001875	144.030999899
1680.0	0.0001878	144.062000036
1680.0	0.0001878	144.108999968
1690.0	0.000179	144.405999899
1690.0	0.0001758	144.437000036
1690.0	0.0001733	144.483999968
1690.0	0.0001713	144.514999866
1690.0	0.0001695	144.562000036
1690.0	0.0001688	144.608999968
1690.0	0.0001678	144.655999899
1690.0	0.000167	144.687000036
1690.0	0.0001665	144.733999968
1690.0	0.0001663	144.764999866
1690.0	0.0001658	144.812000036
1690.0	0.0001658	144.858999968
1690.0	0.0001658	144.889999866
1690.0	0.0001655	144.937000036
1690.0	0.0001655	144.983999968
1690.0	0.0001655	145.014999866
1690.0	0.0001655	145.062000036
1690.0	0.0001655	145.092999935
1690.0	0.0001655	145.139999866
1690.0	0.0001658	145.187000036
1690.0	0.0001663	145.217999935
1690.0	0.0001663	145.264999866
1690.0	0.0001658	145.312000036
1690.0	0.0001658	145.342999935
1690.0	0.0001658	145.389999866
1690.0	0.0001663	145.421000004
1690.0	0.0001665	145.467999935
1690.0	0.0001665	145.514999866
1690.0	0.0001665	145.546000004
1690.0	0.0001663	145.592999935
1690.0	0.0001663	145.639999866
1690.0	0.0001663	145.671000004
1690.0	0.0001658	145.717999935
1690.0	0.0001655	145.764999866
1690.0	0.0001655	145.796000004
1690.0	0.0001655	145.842999935
1690.0	0.0001655	145.875
1700.0	0.0001583	146.171000004
1700.0	0.0001558	146.203000069
1700.0	0.0001538	146.25
1700.0	0.0001518	146.296000004
1700.0	0.0001508	146.328000069
1700.0	0.00015	146.375
1700.0	0.000149	146.421000004
1700.0	0.0001488	146.453000069
1700.0	0.000148	146.5
1700.0	0.000148	146.530999899
1700.0	0.0001483	146.578000069
1700.0	0.0001483	146.625
1700.0	0.0001483	146.655999899
1700.0	0.000148	146.703000069
1700.0	0.0001478	146.75
1700.0	0.0001478	146.780999899
1700.0	0.0001475	146.828000069
1700.0	0.000147	146.858999968
1700.0	0.0001468	146.905999899
1700.0	0.0001468	146.953000069
1700.0	0.0001468	146.983999968
1700.0	0.0001468	147.030999899
1700.0	0.0001468	147.078000069
1700.0	0.0001468	147.108999968
1700.0	0.000147	147.155999899
1700.0	0.000147	147.203000069
1700.0	0.000147	147.233999968
1700.0	0.000147	147.280999899
1700.0	0.0001468	147.312000036
1700.0	0.000147	147.358999968
1700.0	0.000147	147.405999899
1700.0	0.0001475	147.437000036
1700.0	0.0001478	147.483999968
1700.0	0.0001478	147.530999899
1700.0	0.000148	147.562000036
1700.0	0.000148	147.608999968
1700.0	0.0001478	147.639999866
1710.0	0.0001413	147.937000036
1710.0	0.0001388	147.967999935
1710.0	0.0001368	148.014999866
1710.0	0.0001355	148.062000036
1710.0	0.0001343	148.092999935
1710.0	0.0001333	148.139999866
1710.0	0.0001325	148.187000036
1710.0	0.0001318	148.217999935
1710.0	0.0001318	148.264999866
1710.0	0.0001315	148.312000036
1710.0	0.0001318	148.342999935
1710.0	0.0001318	148.389999866
1710.0	0.0001318	148.437000036
1710.0	0.0001318	148.467999935
1710.0	0.0001315	148.514999866
1710.0	0.0001313	148.546000004
1710.0	0.0001313	148.592999935
1710.0	0.0001313	148.639999866
1710.0	0.0001313	148.671000004
1710.0	0.0001313	148.717999935
1710.0	0.0001313	148.764999866
1710.0	0.0001315	148.796000004
1710.0	0.0001315	148.842999935
1710.0	0.0001315	148.889999866
1710.0	0.0001313	148.921000004
1710.0	0.0001308	148.967999935
1710.0	0.0001308	149.0
1710.0	0.0001305	149.046000004
1710.0	0.0001305	149.092999935
1710.0	0.0001308	149.125
1710.0	0.0001308	149.171000004
1710.0	0.0001305	149.217999935
1710.0	0.0001305	149.25
1710.0	0.0001308	149.296000004
1710.0	0.0001305	149.328000069
1710.0	0.0001305	149.375
1710.0	0.0001305	149.421000004
1720.0	0.0001263	149.703000069
1720.0	0.0001245	149.75
1720.0	0.000123	149.780999899
1720.0	0.000122	149.828000069
1720.0	0.0001205	149.875
1720.0	0.00012	149.905999899
1720.0	0.0001195	149.953000069
1720.0	0.000119	150.0
1720.0	0.000119	150.030999899
1720.0	0.0001183	150.078000069
1720.0	0.0001178	150.108999968
1720.0	0.000118	150.155999899
1720.0	0.0001178	150.203000069
1720.0	0.0001178	150.233999968
1720.0	0.0001178	150.280999899
1720.0	0.0001178	150.328000069
1720.0	0.000118	150.358999968
1720.0	0.000118	150.405999899
1720.0	0.0001178	150.437000036
1720.0	0.0001178	150.483999968
1720.0	0.0001178	150.530999899
1720.0	0.0001175	150.562000036
1720.0	0.0001175	150.608999968
1720.0	0.000117	150.655999899
1720.0	0.0001168	150.687000036
1720.0	0.0001168	150.733999968
1720.0	0.0001168	150.764999866
1720.0	0.000117	150.812000036
1720.0	0.0001175	150.858999968
1720.0	0.0001175	150.889999866
1720.0	0.000118	150.937000036
1720.0	0.0001183	150.983999968
1720.0	0.0001188	151.014999866
1720.0	0.0001183	151.062000036
1720.0	0.000118	151.108999968
1720.0	0.000118	151.139999866
1720.0	0.0001178	151.187000036
1730.0	0.0001128	151.467999935
1730.0	0.0001113	151.514999866
1730.0	0.00011	151.562000036
1730.0	0.0001088	151.592999935
1730.0	0.000108	151.639999866
1730.0	0.0001075	151.687000036
1730.0	0.0001065	151.717999935
1730.0	0.0001063	151.764999866
1730.0	0.0001055	151.796000004
1730.0	0.0001055	151.842999935
1730.0	0.0001055	151.889999866
1730.0	0.0001055	151.921000004
1730.0	0.0001055	151.967999935
1730.0	0.0001058	152.014999866
1730.0	0.0001058	152.046000004
1730.0	0.0001063	152.092999935
1730.0	0.0001063	152.125
1730.0	0.0001065	152.171000004
1730.0	0.0001063	152.217999935
1730.0	0.0001063	152.25
1730.0	0.0001058	152.296000004
1730.0	0.0001055	152.342999935
1730.0	0.0001053	152.375
1730.0	0.000105	152.421000004
1730.0	0.000105	152.453000069
1730.0	0.000105	152.5
1730.0	0.0001045	152.546000004
1730.0	0.000105	152.578000069
1730.0	0.000105	152.625
1730.0	0.0001053	152.671000004
1730.0	0.0001053	152.703000069
1730.0	0.0001055	152.75
1730.0	0.0001058	152.796000004
1730.0	0.0001058	152.828000069
1730.0	0.0001063	152.875
1730.0	0.0001058	152.905999899
1730.0	0.0001058	152.953000069
1740.0	0.0001008	153.25
1740.0	9.93e-05	153.280999899
1740.0	9.8e-05	153.328000069
1740.0	9.7e-05	153.375
1740.0	9.68e-05	153.405999899
1740.0	9.63e-05	153.453000069
1740.0	9.55e-05	153.483999968
1740.0	9.55e-05	153.530999899
1740.0	9.53e-05	153.578000069
1740.0	9.53e-05	153.608999968
1740.0	9.53e-05	153.655999899
1740.0	9.5e-05	153.703000069
1740.0	9.5e-05	153.733999968
1740.0	9.5e-05	153.780999899
1740.0	9.53e-05	153.828000069
1740.0	9.53e-05	153.858999968
1740.0	9.53e-05	153.905999899
1740.0	9.53e-05	153.937000036
1740.0	9.55e-05	153.983999968
1740.0	9.55e-05	154.030999899
1740.0	9.55e-05	154.062000036
1740.0	9.55e-05	154.108999968
1740.0	9.53e-05	154.155999899
1740.0	9.53e-05	154.187000036
1740.0	9.5e-05	154.233999968
1740.0	9.5e-05	154.264999866
1740.0	9.53e-05	154.312000036
1740.0	9.55e-05	154.358999968
1740.0	9.55e-05	154.389999866
1740.0	9.55e-05	154.437000036
1740.0	9.55e-05	154.483999968
1740.0	9.55e-05	154.514999866
1740.0	9.58e-05	154.562000036
1740.0	9.58e-05	154.592999935
1740.0	9.58e-05	154.639999866
1740.0	9.55e-05	154.687000036
1740.0	9.53e-05	154.717999935
1750.0	9.18e-05	155.014999866
1750.0	9.03e-05	155.062000036
1750.0	8.9e-05	155.108999968
1750.0	8.8e-05	155.139999866
1750.0	8.75e-05	155.187000036
1750.0	8.7e-05	155.217999935
1750.0	8.7e-05	155.264999866
1750.0	8.65e-05	155.312000036
1750.0	8.65e-05	155.342999935
1750.0	8.63e-05	155.389999866
1750.0	8.65e-05	155.437000036
1750.0	8.65e-05	155.467999935
1750.0	8.65e-05	155.514999866
1750.0	8.65e-05	155.546000004
1750.0	8.65e-05	155.592999935
1750.0	8.63e-05	155.639999866
1750.0	8.63e-05	155.671000004
1750.0	8.58e-05	155.717999935
1750.0	8.58e-05	155.764999866
1750.0	8.63e-05	155.796000004
1750.0	8.58e-05	155.842999935
1750.0	8.63e-05	155.875
1750.0	8.63e-05	155.921000004
1750.0	8.63e-05	155.967999935
1750.0	8.58e-05	156.0
1750.0	8.55e-05	156.046000004
1750.0	8.55e-05	156.092999935
1750.0	8.58e-05	156.125
1750.0	8.63e-05	156.171000004
1750.0	8.68e-05	156.203000069
1750.0	8.65e-05	156.25
1750.0	8.65e-05	156.296000004
1750.0	8.65e-05	156.328000069
1750.0	8.65e-05	156.375
1750.0	8.65e-05	156.421000004
1750.0	8.65e-05	156.453000069
1750.0	8.63e-05	156.5
1760.0	8.25e-05	156.796000004
1760.0	8.13e-05	156.842999935
1760.0	8.03e-05	156.875
1760.0	7.93e-05	156.921000004
1760.0	7.9e-05	156.967999935
1760.0	7.83e-05	157.0
1760.0	7.78e-05	157.046000004
1760.0	7.78e-05	157.078000069
1760.0	7.78e-05	157.125
1760.0	7.75e-05	157.171000004
1760.0	7.78e-05	157.203000069
1760.0	7.78e-05	157.25
1760.0	7.78e-05	157.296000004
1760.0	7.78e-05	157.328000069
1760.0	7.78e-05	157.375
1760.0	7.75e-05	157.421000004
1760.0	7.75e-05	157.453000069
1760.0	7.75e-05	157.5
1760.0	7.7e-05	157.530999899
1760.0	7.78e-05	157.578000069
1760.0	7.78e-05	157.625
1760.0	7.78e-05	157.655999899
1760.0	7.75e-05	157.703000069
1760.0	7.75e-05	157.75
1760.0	7.78e-05	157.780999899
1760.0	7.78e-05	157.828000069
1760.0	7.78e-05	157.858999968
1760.0	7.78e-05	157.905999899
1760.0	7.75e-05	157.953000069
1760.0	7.75e-05	157.983999968
1760.0	7.75e-05	158.030999899
1760.0	7.75e-05	158.078000069
1760.0	7.75e-05	158.108999968
1760.0	7.78e-05	158.155999899
1760.0	7.78e-05	158.187000036
1760.0	7.78e-05	158.233999968
1760.0	7.78e-05	158.280999899
1770.0	7.38e-05	158.578000069
1770.0	7.28e-05	158.625
1770.0	7.2e-05	158.655999899
1770.0	7.15e-05	158.703000069
1770.0	7.13e-05	158.75
1770.0	7.05e-05	158.780999899
1770.0	7.03e-05	158.828000069
1770.0	7.03e-05	158.875
1770.0	7.03e-05	158.905999899
1770.0	7.03e-05	158.953000069
1770.0	7e-05	158.983999968
1770.0	7e-05	159.030999899
1770.0	7e-05	159.078000069
1770.0	7e-05	159.108999968
1770.0	7e-05	159.155999899
1770.0	7e-05	159.203000069
1770.0	7e-05	159.233999968
1770.0	7e-05	159.280999899
1770.0	7e-05	159.312000036
1770.0	6.95e-05	159.358999968
1770.0	6.93e-05	159.405999899
1770.0	6.95e-05	159.437000036
1770.0	7e-05	159.483999968
1770.0	7.03e-05	159.530999899
1770.0	7.03e-05	159.562000036
1770.0	7.03e-05	159.608999968
1770.0	7.03e-05	159.655999899
1770.0	7.03e-05	159.687000036
1770.0	7e-05	159.733999968
1770.0	7e-05	159.764999866
1770.0	7e-05	159.812000036
1770.0	7.03e-05	159.858999968
1770.0	7e-05	159.905999899
1770.0	6.95e-05	159.937000036
1770.0	6.93e-05	159.983999968
1770.0	6.95e-05	160.014999866
1770.0	6.95e-05	160.062000036
1780.0	6.55e-05	160.358999968
1780.0	6.43e-05	160.405999899
1780.0	6.38e-05	160.453000069
1780.0	6.3e-05	160.483999968
1780.0	6.25e-05	160.530999899
1780.0	6.2e-05	160.578000069
1780.0	6.2e-05	160.608999968
1780.0	6.2e-05	160.655999899
1780.0	6.2e-05	160.703000069
1780.0	6.2e-05	160.733999968
1780.0	6.2e-05	160.780999899
1780.0	6.25e-05	160.828000069
1780.0	6.2e-05	160.858999968
1780.0	6.2e-05	160.905999899
1780.0	6.18e-05	160.953000069
1780.0	6.13e-05	160.983999968
1780.0	6.08e-05	161.030999899
1780.0	6.08e-05	161.062000036
1780.0	6.05e-05	161.108999968
1780.0	6.05e-05	161.155999899
1780.0	6.05e-05	161.187000036
1780.0	6.03e-05	161.233999968
1780.0	6.03e-05	161.280999899
1780.0	6.03e-05	161.312000036
1780.0	6.03e-05	161.358999968
1780.0	6e-05	161.405999899
1780.0	6e-05	161.437000036
1780.0	6e-05	161.483999968
1780.0	6.03e-05	161.514999866
1780.0	6.03e-05	161.562000036
1780.0	6.05e-05	161.608999968
1780.0	6.05e-05	161.639999866
1780.0	6.05e-05	161.687000036
1780.0	6.03e-05	161.733999968
1780.0	6.03e-05	161.764999866
1780.0	6.05e-05	161.812000036
1780.0	6.05e-05	161.842999935
1790.0	5.7e-05	162.155999899
1790.0	5.65e-05	162.187000036
1790.0	5.55e-05	162.233999968
1790.0	5.53e-05	162.280999899
1790.0	5.5e-05	162.312000036
1790.0	5.45e-05	162.358999968
1790.0	5.45e-05	162.405999899
1790.0	5.45e-05	162.437000036
1790.0	5.45e-05	162.483999968
1790.0	5.45e-05	162.530999899
1790.0	5.45e-05	162.562000036
1790.0	5.45e-05	162.608999968
1790.0	5.43e-05	162.639999866
1790.0	5.38e-05	162.687000036
1790.0	5.38e-05	162.733999968
1790.0	5.38e-05	162.764999866
1790.0	5.33e-05	162.812000036
1790.0	5.38e-05	162.858999968
1790.0	5.38e-05	162.889999866
1790.0	5.33e-05	162.937000036
1790.0	5.33e-05	162.967999935
1790.0	5.3e-05	163.014999866
1790.0	5.3e-05	163.062000036
1790.0	5.3e-05	163.092999935
1790.0	5.3e-05	163.139999866
1790.0	5.3e-05	163.187000036
1790.0	5.33e-05	163.217999935
1790.0	5.33e-05	163.264999866
1790.0	5.38e-05	163.296000004
1790.0	5.38e-05	163.342999935
1790.0	5.38e-05	163.389999866
1790.0	5.4e-05	163.421000004
1790.0	5.38e-05	163.467999935
1790.0	5.38e-05	163.514999866
1790.0	5.4e-05	163.546000004
1790.0	5.38e-05	163.592999935
1790.0	5.38e-05	163.639999866
1800.0	4.95e-05	163.937000036
1800.0	4.9e-05	163.983999968
1800.0	4.83e-05	164.014999866
1800.0	4.8e-05	164.062000036
1800.0	4.78e-05	164.092999935
1800.0	4.75e-05	164.139999866
1800.0	4.7e-05	164.187000036
1800.0	4.75e-05	164.217999935
1800.0	4.75e-05	164.264999866
1800.0	4.75e-05	164.312000036
1800.0	4.75e-05	164.342999935
1800.0	4.7e-05	164.389999866
1800.0	4.7e-05	164.421000004
1800.0	4.7e-05	164.467999935
1800.0	4.7e-05	164.514999866
1800.0	4.7e-05	164.546000004
1800.0	4.7e-05	164.592999935
1800.0	4.7e-05	164.639999866
1800.0	4.7e-05	164.671000004
1800.0	4.65e-05	164.717999935
1800.0	4.63e-05	164.75
1800.0	4.65e-05	164.796000004
1800.0	4.63e-05	164.842999935
1800.0	4.63e-05	164.875
1800.0	4.63e-05	164.921000004
1800.0	4.65e-05	164.967999935
1800.0	4.68e-05	165.0
1800.0	4.65e-05	165.046000004
1800.0	4.65e-05	165.092999935
1800.0	4.65e-05	165.125
1800.0	4.68e-05	165.171000004
1800.0	4.65e-05	165.203000069
1800.0	4.65e-05	165.25
1800.0	4.63e-05	165.296000004
1800.0	4.65e-05	165.328000069
1800.0	4.63e-05	165.375
1800.0	4.65e-05	165.421000004
