Your edit line - do NOT delete this line
Wavelength [nm], Voltage [V], Elapsed time [s]
1200.0	0.0008218	2.31300020218
1200.0	0.0008218	2.36000013351
1200.0	0.0008223	2.40700006485
1200.0	0.000823	2.43800020218
1200.0	0.000824	2.48500013351
1200.0	0.0008248	2.51600003242
1200.0	0.0008255	2.56300020218
1200.0	0.0008265	2.61000013351
1200.0	0.000826	2.64100003242
1200.0	0.0008253	2.68800020218
1200.0	0.000824	2.73500013351
1200.0	0.0008228	2.76600003242
1200.0	0.0008205	2.81300020218
1200.0	0.000819	2.84400010109
1200.0	0.0008185	2.89100003242
1200.0	0.0008178	2.93800020218
1200.0	0.0008178	2.96900010109
1200.0	0.0008168	3.01600003242
1200.0	0.0008173	3.06300020218
1200.0	0.000818	3.09400010109
1200.0	0.0008185	3.14100003242
1200.0	0.0008185	3.18800020218
1200.0	0.000819	3.21900010109
1200.0	0.0008188	3.26600003242
1200.0	0.0008193	3.29700016975
1200.0	0.0008203	3.34400010109
1200.0	0.0008213	3.39100003242
1200.0	0.0008218	3.42200016975
1200.0	0.0008215	3.46900010109
1200.0	0.0008228	3.51600003242
1200.0	0.0008235	3.54700016975
1200.0	0.0008228	3.59400010109
1200.0	0.0008218	3.625
1200.0	0.000821	3.67200016975
1200.0	0.00082	3.71900010109
1200.0	0.0008205	3.75
1200.0	0.0008218	3.79700016975
1210.0	0.000821	4.06300020218
1210.0	0.0008215	4.11000013351
1210.0	0.0008203	4.15700006485
1210.0	0.0008193	4.18800020218
1210.0	0.000819	4.23500013351
1210.0	0.000819	4.26600003242
1210.0	0.000818	4.31300020218
1210.0	0.0008178	4.36000013351
1210.0	0.000818	4.39100003242
1210.0	0.0008188	4.43800020218
1210.0	0.0008203	4.48500013351
1210.0	0.0008215	4.51600003242
1210.0	0.000821	4.56300020218
1210.0	0.00082	4.59400010109
1210.0	0.00082	4.64100003242
1210.0	0.0008193	4.68800020218
1210.0	0.0008185	4.71900010109
1210.0	0.0008188	4.76600003242
1210.0	0.0008185	4.81300020218
1210.0	0.0008178	4.84400010109
1210.0	0.0008168	4.89100003242
1210.0	0.0008168	4.93800020218
1210.0	0.0008173	4.96900010109
1210.0	0.0008168	5.01600003242
1210.0	0.0008175	5.04700016975
1210.0	0.0008185	5.09400010109
1210.0	0.0008198	5.14100003242
1210.0	0.0008205	5.17200016975
1210.0	0.0008203	5.21900010109
1210.0	0.0008203	5.26600003242
1210.0	0.00082	5.29700016975
1210.0	0.0008198	5.34400010109
1210.0	0.0008193	5.375
1210.0	0.000819	5.42200016975
1210.0	0.0008185	5.46900010109
1210.0	0.0008178	5.5
1210.0	0.000818	5.54700016975
1220.0	0.0008213	5.81300020218
1220.0	0.0008223	5.86000013351
1220.0	0.0008238	5.89100003242
1220.0	0.0008238	5.93800020218
1220.0	0.0008238	5.98500013351
1220.0	0.0008248	6.01600003242
1220.0	0.0008248	6.06300020218
1220.0	0.000825	6.09400010109
1220.0	0.0008253	6.14100003242
1220.0	0.0008255	6.18800020218
1220.0	0.0008248	6.21900010109
1220.0	0.0008238	6.26600003242
1220.0	0.0008228	6.31300020218
1220.0	0.000821	6.34400010109
1220.0	0.00082	6.39100003242
1220.0	0.0008205	6.42200016975
1220.0	0.0008215	6.46900010109
1220.0	0.0008218	6.51600003242
1220.0	0.0008218	6.54700016975
1220.0	0.0008218	6.59400010109
1220.0	0.0008223	6.64100003242
1220.0	0.0008225	6.67200016975
1220.0	0.0008223	6.71900010109
1220.0	0.0008223	6.76600003242
1220.0	0.0008215	6.79700016975
1220.0	0.0008215	6.84400010109
1220.0	0.0008213	6.875
1220.0	0.0008218	6.92200016975
1220.0	0.000823	6.96900010109
1220.0	0.0008223	7.0
1220.0	0.0008218	7.04700016975
1220.0	0.0008223	7.09400010109
1220.0	0.0008223	7.125
1220.0	0.0008215	7.17200016975
1220.0	0.000821	7.20300006866
1220.0	0.0008203	7.25
1220.0	0.0008198	7.29700016975
1230.0	0.0008235	7.54700016975
1230.0	0.000823	7.59400010109
1230.0	0.0008235	7.64100003242
1230.0	0.000824	7.67200016975
1230.0	0.000825	7.71900010109
1230.0	0.000826	7.76600003242
1230.0	0.0008268	7.79700016975
1230.0	0.000828	7.84400010109
1230.0	0.0008278	7.875
1230.0	0.0008278	7.92200016975
1230.0	0.0008278	7.96900010109
1230.0	0.0008275	8.0
1230.0	0.0008268	8.04700016975
1230.0	0.0008248	8.09400010109
1230.0	0.0008255	8.125
1230.0	0.000826	8.17200016975
1230.0	0.0008265	8.21900010109
1230.0	0.0008268	8.25
1230.0	0.0008263	8.29700016975
1230.0	0.0008263	8.32800006866
1230.0	0.000826	8.375
1230.0	0.000826	8.42200016975
1230.0	0.0008253	8.45300006866
1230.0	0.0008243	8.5
1230.0	0.000824	8.54700016975
1230.0	0.0008243	8.57800006866
1230.0	0.0008238	8.625
1230.0	0.000824	8.65700006485
1230.0	0.000824	8.70300006866
1230.0	0.0008253	8.75
1230.0	0.0008253	8.78200006485
1230.0	0.000825	8.82800006866
1230.0	0.0008253	8.875
1230.0	0.0008263	8.90700006485
1230.0	0.0008268	8.95300006866
1230.0	0.0008273	8.98500013351
1230.0	0.0008265	9.03200006485
1240.0	0.0008298	9.29700016975
1240.0	0.0008298	9.34400010109
1240.0	0.0008303	9.375
1240.0	0.0008305	9.42200016975
1240.0	0.0008318	9.46900010109
1240.0	0.0008335	9.5
1240.0	0.000833	9.54700016975
1240.0	0.0008315	9.59400010109
1240.0	0.000831	9.625
1240.0	0.0008298	9.67200016975
1240.0	0.0008303	9.70300006866
1240.0	0.0008318	9.75
1240.0	0.0008328	9.79700016975
1240.0	0.0008335	9.82800006866
1240.0	0.0008343	9.875
1240.0	0.0008343	9.92200016975
1240.0	0.0008338	9.95300006866
1240.0	0.000833	10.0
1240.0	0.0008325	10.0320000648
1240.0	0.0008305	10.0780000687
1240.0	0.000829	10.125
1240.0	0.0008285	10.1570000648
1240.0	0.0008278	10.2030000687
1240.0	0.0008275	10.25
1240.0	0.0008278	10.2820000648
1240.0	0.0008275	10.3280000687
1240.0	0.0008278	10.3600001335
1240.0	0.000829	10.4070000648
1240.0	0.00083	10.4530000687
1240.0	0.0008303	10.4850001335
1240.0	0.0008315	10.5320000648
1240.0	0.0008325	10.5780000687
1240.0	0.0008318	10.6100001335
1240.0	0.0008318	10.6570000648
1240.0	0.0008323	10.7030000687
1240.0	0.0008323	10.7350001335
1240.0	0.000831	10.7820000648
1250.0	0.0008355	11.0470001698
1250.0	0.0008375	11.0940001011
1250.0	0.0008385	11.125
1250.0	0.0008388	11.1720001698
1250.0	0.0008373	11.2030000687
1250.0	0.000836	11.25
1250.0	0.000836	11.2970001698
1250.0	0.000836	11.3280000687
1250.0	0.0008348	11.375
1250.0	0.0008338	11.4220001698
1250.0	0.0008328	11.4530000687
1250.0	0.0008328	11.5
1250.0	0.0008343	11.5320000648
1250.0	0.0008353	11.5780000687
1250.0	0.0008348	11.625
1250.0	0.000835	11.6570000648
1250.0	0.000835	11.7030000687
1250.0	0.000836	11.75
1250.0	0.0008378	11.7820000648
1250.0	0.0008378	11.8280000687
1250.0	0.0008365	11.8600001335
1250.0	0.0008373	11.9070000648
1250.0	0.0008378	11.9530000687
1250.0	0.0008378	11.9850001335
1250.0	0.000838	12.0320000648
1250.0	0.0008388	12.0780000687
1250.0	0.0008388	12.1100001335
1250.0	0.0008375	12.1570000648
1250.0	0.0008365	12.1880002022
1250.0	0.0008363	12.2350001335
1250.0	0.000835	12.2820000648
1250.0	0.000835	12.3130002022
1250.0	0.0008353	12.3600001335
1250.0	0.0008355	12.4070000648
1250.0	0.000835	12.4380002022
1250.0	0.0008353	12.4850001335
1250.0	0.000836	12.5320000648
1260.0	0.0008388	12.7820000648
1260.0	0.0008388	12.8280000687
1260.0	0.0008388	12.875
1260.0	0.0008393	12.9070000648
1260.0	0.000841	12.9530000687
1260.0	0.000841	12.9850001335
1260.0	0.0008405	13.0320000648
1260.0	0.0008405	13.0780000687
1260.0	0.0008405	13.1100001335
1260.0	0.0008418	13.1570000648
1260.0	0.0008415	13.2030000687
1260.0	0.0008415	13.2350001335
1260.0	0.000841	13.2820000648
1260.0	0.0008403	13.3280000687
1260.0	0.0008405	13.3600001335
1260.0	0.000841	13.4070000648
1260.0	0.0008418	13.4380002022
1260.0	0.000843	13.4850001335
1260.0	0.0008435	13.5320000648
1260.0	0.0008435	13.5630002022
1260.0	0.000843	13.6100001335
1260.0	0.000843	13.6570000648
1260.0	0.0008423	13.6880002022
1260.0	0.0008413	13.7350001335
1260.0	0.0008405	13.7660000324
1260.0	0.000838	13.8130002022
1260.0	0.0008365	13.8600001335
1260.0	0.0008363	13.8910000324
1260.0	0.000836	13.9380002022
1260.0	0.0008368	13.9850001335
1260.0	0.0008368	14.0160000324
1260.0	0.0008365	14.0630002022
1260.0	0.0008353	14.0940001011
1260.0	0.0008353	14.1410000324
1260.0	0.0008353	14.1880002022
1260.0	0.000836	14.2190001011
1260.0	0.0008378	14.2660000324
1270.0	0.0008423	14.5320000648
1270.0	0.000843	14.5780000687
1270.0	0.0008443	14.6100001335
1270.0	0.0008443	14.6570000648
1270.0	0.0008438	14.7030000687
1270.0	0.0008435	14.7350001335
1270.0	0.0008435	14.7820000648
1270.0	0.000841	14.8130002022
1270.0	0.0008398	14.8600001335
1270.0	0.0008385	14.9070000648
1270.0	0.0008385	14.9380002022
1270.0	0.0008388	14.9850001335
1270.0	0.0008403	15.0320000648
1270.0	0.000841	15.0630002022
1270.0	0.00084	15.1100001335
1270.0	0.0008398	15.1410000324
1270.0	0.0008403	15.1880002022
1270.0	0.000841	15.2350001335
1270.0	0.0008418	15.2660000324
1270.0	0.0008418	15.3130002022
1270.0	0.0008415	15.3600001335
1270.0	0.0008413	15.3910000324
1270.0	0.000841	15.4380002022
1270.0	0.000841	15.4850001335
1270.0	0.0008405	15.5160000324
1270.0	0.0008413	15.5630002022
1270.0	0.000841	15.5940001011
1270.0	0.0008405	15.6410000324
1270.0	0.0008413	15.6880002022
1270.0	0.0008435	15.7190001011
1270.0	0.0008435	15.7660000324
1270.0	0.0008428	15.8130002022
1270.0	0.0008428	15.8440001011
1270.0	0.0008425	15.8910000324
1270.0	0.0008415	15.9220001698
1270.0	0.000841	15.9690001011
1270.0	0.0008415	16.0160000324
1280.0	0.000844	16.2820000648
1280.0	0.0008435	16.3130002022
1280.0	0.0008428	16.3600001335
1280.0	0.0008415	16.4070000648
1280.0	0.0008413	16.4380002022
1280.0	0.0008393	16.4850001335
1280.0	0.0008378	16.5320000648
1280.0	0.0008368	16.5630002022
1280.0	0.000838	16.6100001335
1280.0	0.0008398	16.6410000324
1280.0	0.000841	16.6880002022
1280.0	0.0008413	16.7350001335
1280.0	0.0008405	16.7660000324
1280.0	0.0008405	16.8130002022
1280.0	0.0008403	16.8600001335
1280.0	0.00084	16.8910000324
1280.0	0.0008393	16.9380002022
1280.0	0.000839	16.9690001011
1280.0	0.0008373	17.0160000324
1280.0	0.0008373	17.0630002022
1280.0	0.0008385	17.0940001011
1280.0	0.000839	17.1410000324
1280.0	0.0008403	17.1880002022
1280.0	0.0008415	17.2190001011
1280.0	0.0008418	17.2660000324
1280.0	0.0008418	17.2970001698
1280.0	0.0008415	17.3440001011
1280.0	0.0008403	17.3910000324
1280.0	0.0008398	17.4220001698
1280.0	0.0008388	17.4690001011
1280.0	0.0008388	17.5160000324
1280.0	0.0008378	17.5470001698
1280.0	0.0008368	17.5940001011
1280.0	0.0008375	17.6410000324
1280.0	0.0008373	17.6720001698
1280.0	0.0008373	17.7190001011
1280.0	0.0008365	17.75
1290.0	0.0008335	18.0320000648
1290.0	0.0008338	18.0630002022
1290.0	0.0008328	18.1100001335
1290.0	0.0008328	18.1570000648
1290.0	0.0008323	18.1880002022
1290.0	0.0008313	18.2350001335
1290.0	0.0008315	18.2820000648
1290.0	0.0008325	18.3130002022
1290.0	0.0008318	18.3600001335
1290.0	0.000831	18.3910000324
1290.0	0.00083	18.4380002022
1290.0	0.0008303	18.4850001335
1290.0	0.0008303	18.5160000324
1290.0	0.0008298	18.5630002022
1290.0	0.000829	18.6100001335
1290.0	0.0008285	18.6410000324
1290.0	0.0008285	18.6880002022
1290.0	0.0008285	18.7190001011
1290.0	0.000829	18.7660000324
1290.0	0.0008293	18.8130002022
1290.0	0.0008288	18.8440001011
1290.0	0.0008275	18.8910000324
1290.0	0.0008265	18.9380002022
1290.0	0.0008265	18.9690001011
1290.0	0.0008273	19.0160000324
1290.0	0.0008273	19.0470001698
1290.0	0.0008265	19.0940001011
1290.0	0.0008273	19.1410000324
1290.0	0.0008288	19.1720001698
1290.0	0.0008298	19.2190001011
1290.0	0.0008305	19.2660000324
1290.0	0.0008315	19.2970001698
1290.0	0.0008325	19.3440001011
1290.0	0.000834	19.3910000324
1290.0	0.0008355	19.4220001698
1290.0	0.000836	19.4690001011
1290.0	0.000836	19.5
1300.0	0.0008268	19.7660000324
1300.0	0.000825	19.8130002022
1300.0	0.000824	19.8440001011
1300.0	0.0008235	19.8910000324
1300.0	0.0008228	19.9380002022
1300.0	0.0008218	19.9690001011
1300.0	0.000821	20.0160000324
1300.0	0.00082	20.0630002022
1300.0	0.0008213	20.0940001011
1300.0	0.0008213	20.1410000324
1300.0	0.000821	20.1880002022
1300.0	0.0008193	20.2190001011
1300.0	0.0008188	20.2660000324
1300.0	0.000819	20.2970001698
1300.0	0.000818	20.3440001011
1300.0	0.000818	20.3910000324
1300.0	0.0008168	20.4220001698
1300.0	0.000815	20.4690001011
1300.0	0.0008143	20.5160000324
1300.0	0.000814	20.5470001698
1300.0	0.0008143	20.5940001011
1300.0	0.000815	20.625
1300.0	0.000816	20.6720001698
1300.0	0.0008155	20.7190001011
1300.0	0.0008153	20.75
1300.0	0.0008153	20.7970001698
1300.0	0.0008143	20.8440001011
1300.0	0.0008135	20.875
1300.0	0.000814	20.9220001698
1300.0	0.0008148	20.9530000687
1300.0	0.000815	21.0
1300.0	0.0008155	21.0470001698
1300.0	0.0008163	21.0780000687
1300.0	0.0008173	21.125
1300.0	0.0008175	21.1720001698
1300.0	0.0008168	21.2030000687
1300.0	0.000815	21.25
1310.0	0.000809	21.5160000324
1310.0	0.0008063	21.5630002022
1310.0	0.000804	21.5940001011
1310.0	0.0008018	21.6410000324
1310.0	0.0008	21.6720001698
1310.0	0.0007985	21.7190001011
1310.0	0.0007978	21.7660000324
1310.0	0.0007973	21.7970001698
1310.0	0.0007953	21.8440001011
1310.0	0.0007955	21.8910000324
1310.0	0.0007968	21.9220001698
1310.0	0.0007965	21.9690001011
1310.0	0.000796	22.0
1310.0	0.0007965	22.0470001698
1310.0	0.000798	22.0940001011
1310.0	0.0007993	22.125
1310.0	0.0008003	22.1720001698
1310.0	0.0007998	22.2190001011
1310.0	0.0007978	22.25
1310.0	0.0007963	22.2970001698
1310.0	0.000796	22.3440001011
1310.0	0.000796	22.375
1310.0	0.0007965	22.4220001698
1310.0	0.0007965	22.4530000687
1310.0	0.000796	22.5
1310.0	0.000796	22.5470001698
1310.0	0.0007973	22.5780000687
1310.0	0.0007978	22.625
1310.0	0.0007978	22.6570000648
1310.0	0.0007975	22.7030000687
1310.0	0.0007993	22.75
1310.0	0.0008003	22.7820000648
1310.0	0.0008005	22.8280000687
1310.0	0.000799	22.875
1310.0	0.0007978	22.9070000648
1310.0	0.0007968	22.9530000687
1310.0	0.0007978	23.0
1320.0	0.0007838	23.2660000324
1320.0	0.0007805	23.3130002022
1320.0	0.0007778	23.3440001011
1320.0	0.0007753	23.3910000324
1320.0	0.0007735	23.4220001698
1320.0	0.0007723	23.4690001011
1320.0	0.000771	23.5160000324
1320.0	0.0007703	23.5470001698
1320.0	0.00077	23.5940001011
1320.0	0.000769	23.6410000324
1320.0	0.000769	23.6720001698
1320.0	0.000769	23.7190001011
1320.0	0.000768	23.75
1320.0	0.0007655	23.7970001698
1320.0	0.0007643	23.8440001011
1320.0	0.0007648	23.875
1320.0	0.000765	23.9220001698
1320.0	0.0007655	23.9690001011
1320.0	0.0007675	24.0
1320.0	0.0007685	24.0470001698
1320.0	0.000769	24.0780000687
1320.0	0.0007703	24.125
1320.0	0.000769	24.1720001698
1320.0	0.0007675	24.2030000687
1320.0	0.0007675	24.25
1320.0	0.000768	24.2970001698
1320.0	0.000769	24.3280000687
1320.0	0.000769	24.375
1320.0	0.0007685	24.4220001698
1320.0	0.0007678	24.4530000687
1320.0	0.000768	24.5
1320.0	0.000769	24.5320000648
1320.0	0.0007693	24.5780000687
1320.0	0.0007698	24.625
1320.0	0.0007703	24.6570000648
1320.0	0.000771	24.7030000687
1320.0	0.000771	24.75
1330.0	0.0007525	25.0160000324
1330.0	0.000749	25.0630002022
1330.0	0.0007455	25.0940001011
1330.0	0.0007423	25.1410000324
1330.0	0.0007393	25.1720001698
1330.0	0.0007375	25.2190001011
1330.0	0.0007365	25.2660000324
1330.0	0.0007353	25.2970001698
1330.0	0.000736	25.3440001011
1330.0	0.000736	25.3910000324
1330.0	0.0007363	25.4220001698
1330.0	0.0007343	25.4690001011
1330.0	0.0007328	25.5
1330.0	0.0007318	25.5470001698
1330.0	0.0007305	25.5940001011
1330.0	0.0007293	25.625
1330.0	0.000728	25.6720001698
1330.0	0.000728	25.7190001011
1330.0	0.000728	25.75
1330.0	0.000729	25.7970001698
1330.0	0.0007298	25.8280000687
1330.0	0.00073	25.875
1330.0	0.0007303	25.9220001698
1330.0	0.000731	25.9530000687
1330.0	0.0007328	26.0
1330.0	0.000734	26.0470001698
1330.0	0.0007328	26.0780000687
1330.0	0.0007313	26.125
1330.0	0.0007303	26.1570000648
1330.0	0.0007293	26.2030000687
1330.0	0.000729	26.25
1330.0	0.000729	26.2820000648
1330.0	0.0007293	26.3280000687
1330.0	0.0007293	26.375
1330.0	0.00073	26.4070000648
1330.0	0.0007303	26.4530000687
1330.0	0.0007303	26.4850001335
1340.0	0.0007128	26.7660000324
1340.0	0.0007073	26.8130002022
1340.0	0.0007035	26.8440001011
1340.0	0.0006998	26.8910000324
1340.0	0.000695	26.9220001698
1340.0	0.0006915	26.9690001011
1340.0	0.0006898	27.0160000324
1340.0	0.000688	27.0470001698
1340.0	0.0006875	27.0940001011
1340.0	0.0006873	27.1410000324
1340.0	0.0006878	27.1720001698
1340.0	0.0006868	27.2190001011
1340.0	0.000686	27.25
1340.0	0.000685	27.2970001698
1340.0	0.000683	27.3440001011
1340.0	0.0006818	27.375
1340.0	0.0006838	27.4220001698
1340.0	0.0006853	27.4690001011
1340.0	0.0006865	27.5
1340.0	0.000688	27.5470001698
1340.0	0.0006888	27.5780000687
1340.0	0.0006898	27.625
1340.0	0.0006903	27.6720001698
1340.0	0.0006888	27.7030000687
1340.0	0.0006875	27.75
1340.0	0.0006865	27.7970001698
1340.0	0.0006863	27.8280000687
1340.0	0.000686	27.875
1340.0	0.0006853	27.9070000648
1340.0	0.0006855	27.9530000687
1340.0	0.000686	28.0
1340.0	0.0006855	28.0320000648
1340.0	0.0006853	28.0780000687
1340.0	0.0006855	28.125
1340.0	0.0006865	28.1570000648
1340.0	0.0006885	28.2030000687
1340.0	0.0006898	28.2350001335
1350.0	0.0006713	28.5160000324
1350.0	0.0006648	28.5470001698
1350.0	0.00066	28.5940001011
1350.0	0.0006568	28.625
1350.0	0.0006538	28.6720001698
1350.0	0.0006505	28.7190001011
1350.0	0.0006488	28.75
1350.0	0.0006465	28.7970001698
1350.0	0.000646	28.8440001011
1350.0	0.0006465	28.875
1350.0	0.0006473	28.9220001698
1350.0	0.0006465	28.9690001011
1350.0	0.0006465	29.0
1350.0	0.0006465	29.0470001698
1350.0	0.0006468	29.0780000687
1350.0	0.0006463	29.125
1350.0	0.000646	29.1720001698
1350.0	0.0006463	29.2030000687
1350.0	0.000646	29.25
1350.0	0.0006455	29.2970001698
1350.0	0.0006455	29.3280000687
1350.0	0.0006455	29.375
1350.0	0.0006453	29.4070000648
1350.0	0.0006455	29.4530000687
1350.0	0.000646	29.5
1350.0	0.000646	29.5320000648
1350.0	0.0006463	29.5780000687
1350.0	0.0006465	29.625
1350.0	0.0006455	29.6570000648
1350.0	0.0006455	29.7030000687
1350.0	0.0006465	29.7350001335
1350.0	0.0006473	29.7820000648
1350.0	0.0006478	29.8280000687
1350.0	0.0006478	29.8600001335
1350.0	0.0006478	29.9070000648
1350.0	0.0006475	29.9530000687
1350.0	0.0006473	29.9850001335
1360.0	0.0006288	30.25
1360.0	0.000622	30.2970001698
1360.0	0.000617	30.3440001011
1360.0	0.000612	30.375
1360.0	0.0006088	30.4220001698
1360.0	0.0006058	30.4690001011
1360.0	0.000604	30.5
1360.0	0.0006038	30.5470001698
1360.0	0.000604	30.5780000687
1360.0	0.0006043	30.625
1360.0	0.0006043	30.6720001698
1360.0	0.0006038	30.7030000687
1360.0	0.000603	30.75
1360.0	0.0006033	30.7820000648
1360.0	0.0006043	30.8280000687
1360.0	0.0006045	30.875
1360.0	0.0006033	30.9070000648
1360.0	0.0006025	30.9530000687
1360.0	0.000602	31.0
1360.0	0.000602	31.0320000648
1360.0	0.0006028	31.0780000687
1360.0	0.000604	31.125
1360.0	0.000604	31.1570000648
1360.0	0.0006025	31.2030000687
1360.0	0.0006013	31.2350001335
1360.0	0.000602	31.2820000648
1360.0	0.000603	31.3280000687
1360.0	0.000604	31.3600001335
1360.0	0.0006043	31.4070000648
1360.0	0.0006038	31.4530000687
1360.0	0.0006028	31.4850001335
1360.0	0.000602	31.5320000648
1360.0	0.0006	31.5630002022
1360.0	0.000599	31.6100001335
1360.0	0.0005988	31.6570000648
1360.0	0.000599	31.6880002022
1360.0	0.000599	31.7350001335
1370.0	0.0005845	32.0
1370.0	0.0005788	32.0470001698
1370.0	0.000573	32.0780000687
1370.0	0.0005678	32.125
1370.0	0.0005643	32.1570000648
1370.0	0.0005605	32.2030000687
1370.0	0.0005593	32.25
1370.0	0.0005593	32.2820000648
1370.0	0.0005595	32.3280000687
1370.0	0.0005593	32.375
1370.0	0.0005588	32.4070000648
1370.0	0.0005578	32.4530000687
1370.0	0.0005565	32.5
1370.0	0.0005555	32.5320000648
1370.0	0.0005533	32.5780000687
1370.0	0.000553	32.6100001335
1370.0	0.000554	32.6570000648
1370.0	0.0005545	32.7030000687
1370.0	0.0005555	32.7350001335
1370.0	0.000557	32.7820000648
1370.0	0.0005578	32.8280000687
1370.0	0.0005588	32.8600001335
1370.0	0.000558	32.9070000648
1370.0	0.0005575	32.9380002022
1370.0	0.0005568	32.9850001335
1370.0	0.0005563	33.0320000648
1370.0	0.0005563	33.0630002022
1370.0	0.0005558	33.1100001335
1370.0	0.0005553	33.1570000648
1370.0	0.0005563	33.1880002022
1370.0	0.0005565	33.2350001335
1370.0	0.0005565	33.2820000648
1370.0	0.0005565	33.3130002022
1370.0	0.0005568	33.3600001335
1370.0	0.0005568	33.3910000324
1370.0	0.000558	33.4380002022
1370.0	0.0005568	33.4850001335
1380.0	0.0005425	33.75
1380.0	0.0005378	33.7820000648
1380.0	0.0005338	33.8280000687
1380.0	0.0005313	33.875
1380.0	0.000529	33.9070000648
1380.0	0.0005275	33.9530000687
1380.0	0.0005255	33.9850001335
1380.0	0.0005245	34.0320000648
1380.0	0.0005245	34.0780000687
1380.0	0.000524	34.1100001335
1380.0	0.0005228	34.1570000648
1380.0	0.0005215	34.2030000687
1380.0	0.00052	34.2350001335
1380.0	0.0005195	34.2820000648
1380.0	0.0005203	34.3280000687
1380.0	0.0005203	34.3600001335
1380.0	0.0005205	34.4070000648
1380.0	0.0005205	34.4380002022
1380.0	0.000519	34.4850001335
1380.0	0.000517	34.5320000648
1380.0	0.0005168	34.5630002022
1380.0	0.0005178	34.6100001335
1380.0	0.0005183	34.6570000648
1380.0	0.000519	34.6880002022
1380.0	0.0005195	34.7350001335
1380.0	0.000518	34.7660000324
1380.0	0.0005168	34.8130002022
1380.0	0.0005165	34.8600001335
1380.0	0.0005168	34.8910000324
1380.0	0.0005155	34.9380002022
1380.0	0.000515	34.9850001335
1380.0	0.0005155	35.0160000324
1380.0	0.0005163	35.0630002022
1380.0	0.000517	35.1100001335
1380.0	0.000518	35.1410000324
1380.0	0.0005193	35.1880002022
1380.0	0.0005195	35.2190001011
1390.0	0.0005068	35.4850001335
1390.0	0.0005025	35.5320000648
1390.0	0.0004978	35.5780000687
1390.0	0.0004945	35.6100001335
1390.0	0.000492	35.6570000648
1390.0	0.00049	35.7030000687
1390.0	0.0004883	35.7350001335
1390.0	0.0004868	35.7820000648
1390.0	0.0004865	35.8130002022
1390.0	0.0004868	35.8600001335
1390.0	0.0004878	35.9070000648
1390.0	0.0004868	35.9380002022
1390.0	0.0004863	35.9850001335
1390.0	0.0004858	36.0320000648
1390.0	0.0004868	36.0630002022
1390.0	0.0004875	36.1100001335
1390.0	0.0004888	36.1410000324
1390.0	0.000489	36.1880002022
1390.0	0.00049	36.2350001335
1390.0	0.00049	36.2660000324
1390.0	0.000489	36.3130002022
1390.0	0.0004893	36.3600001335
1390.0	0.000489	36.3910000324
1390.0	0.000488	36.4380002022
1390.0	0.0004878	36.4850001335
1390.0	0.0004888	36.5160000324
1390.0	0.0004888	36.5630002022
1390.0	0.0004883	36.5940001011
1390.0	0.000488	36.6410000324
1390.0	0.0004868	36.6880002022
1390.0	0.0004865	36.7190001011
1390.0	0.0004865	36.7660000324
1390.0	0.0004858	36.8130002022
1390.0	0.0004865	36.8440001011
1390.0	0.000488	36.8910000324
1390.0	0.0004888	36.9220001698
1390.0	0.000487	36.9690001011
1400.0	0.0004788	37.2350001335
1400.0	0.0004755	37.2820000648
1400.0	0.000473	37.3130002022
1400.0	0.0004715	37.3600001335
1400.0	0.0004708	37.4070000648
1400.0	0.00047	37.4380002022
1400.0	0.0004703	37.4850001335
1400.0	0.0004693	37.5320000648
1400.0	0.0004683	37.5630002022
1400.0	0.000468	37.6100001335
1400.0	0.0004688	37.6410000324
1400.0	0.0004693	37.6880002022
1400.0	0.0004693	37.7350001335
1400.0	0.0004683	37.7660000324
1400.0	0.0004675	37.8130002022
1400.0	0.0004658	37.8600001335
1400.0	0.0004645	37.8910000324
1400.0	0.0004643	37.9380002022
1400.0	0.0004643	37.9850001335
1400.0	0.000465	38.0160000324
1400.0	0.000465	38.0630002022
1400.0	0.0004655	38.0940001011
1400.0	0.0004665	38.1410000324
1400.0	0.000467	38.1880002022
1400.0	0.000468	38.2190001011
1400.0	0.0004688	38.2660000324
1400.0	0.0004688	38.3130002022
1400.0	0.0004683	38.3440001011
1400.0	0.0004668	38.3910000324
1400.0	0.0004665	38.4220001698
1400.0	0.0004665	38.4690001011
1400.0	0.0004655	38.5160000324
1400.0	0.0004643	38.5470001698
1400.0	0.000464	38.5940001011
1400.0	0.0004638	38.6410000324
1400.0	0.0004643	38.6720001698
1400.0	0.0004655	38.7190001011
1410.0	0.0004655	38.9850001335
1410.0	0.0004638	39.0160000324
1410.0	0.000462	39.0630002022
1410.0	0.0004608	39.1100001335
1410.0	0.0004595	39.1410000324
1410.0	0.0004583	39.1880002022
1410.0	0.000457	39.2350001335
1410.0	0.0004563	39.2660000324
1410.0	0.0004553	39.3130002022
1410.0	0.000455	39.3600001335
1410.0	0.0004545	39.3910000324
1410.0	0.0004543	39.4380002022
1410.0	0.0004538	39.4690001011
1410.0	0.0004538	39.5160000324
1410.0	0.0004543	39.5630002022
1410.0	0.000455	39.5940001011
1410.0	0.0004563	39.6410000324
1410.0	0.0004565	39.6880002022
1410.0	0.0004553	39.7190001011
1410.0	0.0004538	39.7660000324
1410.0	0.0004538	39.7970001698
1410.0	0.0004558	39.8440001011
1410.0	0.000458	39.8910000324
1410.0	0.0004595	39.9220001698
1410.0	0.0004593	39.9690001011
1410.0	0.0004593	40.0160000324
1410.0	0.0004593	40.0470001698
1410.0	0.0004593	40.0940001011
1410.0	0.0004593	40.1410000324
1410.0	0.00046	40.1720001698
1410.0	0.0004603	40.2190001011
1410.0	0.0004603	40.25
1410.0	0.0004588	40.2970001698
1410.0	0.0004568	40.3440001011
1410.0	0.0004555	40.375
1410.0	0.0004543	40.4220001698
1410.0	0.0004533	40.4690001011
1420.0	0.00045	40.7190001011
1420.0	0.0004508	40.7660000324
1420.0	0.0004525	40.8130002022
1420.0	0.000453	40.8440001011
1420.0	0.0004528	40.8910000324
1420.0	0.0004528	40.9220001698
1420.0	0.0004533	40.9690001011
1420.0	0.000454	41.0160000324
1420.0	0.0004538	41.0470001698
1420.0	0.0004545	41.0940001011
1420.0	0.0004545	41.1410000324
1420.0	0.0004538	41.1720001698
1420.0	0.0004533	41.2190001011
1420.0	0.0004538	41.2660000324
1420.0	0.0004538	41.2970001698
1420.0	0.000453	41.3440001011
1420.0	0.0004518	41.375
1420.0	0.0004503	41.4220001698
1420.0	0.0004503	41.4690001011
1420.0	0.0004513	41.5
1420.0	0.0004515	41.5470001698
1420.0	0.0004508	41.5940001011
1420.0	0.0004515	41.625
1420.0	0.000453	41.6720001698
1420.0	0.0004545	41.7030000687
1420.0	0.0004558	41.75
1420.0	0.0004565	41.7970001698
1420.0	0.0004563	41.8280000687
1420.0	0.0004563	41.875
1420.0	0.0004558	41.9220001698
1420.0	0.0004558	41.9530000687
1420.0	0.0004558	42.0
1420.0	0.0004563	42.0320000648
1420.0	0.0004558	42.0780000687
1420.0	0.0004555	42.125
1420.0	0.0004553	42.1570000648
1420.0	0.0004538	42.2030000687
1430.0	0.0004515	42.4690001011
1430.0	0.000452	42.5160000324
1430.0	0.0004518	42.5470001698
1430.0	0.000452	42.5940001011
1430.0	0.0004525	42.6410000324
1430.0	0.0004525	42.6720001698
1430.0	0.0004528	42.7190001011
1430.0	0.0004533	42.75
1430.0	0.0004543	42.7970001698
1430.0	0.0004545	42.8440001011
1430.0	0.0004545	42.875
1430.0	0.0004553	42.9220001698
1430.0	0.0004555	42.9690001011
1430.0	0.000455	43.0
1430.0	0.0004563	43.0470001698
1430.0	0.0004565	43.0940001011
1430.0	0.0004558	43.125
1430.0	0.000455	43.1720001698
1430.0	0.0004543	43.2030000687
1430.0	0.0004545	43.25
1430.0	0.0004543	43.2970001698
1430.0	0.0004528	43.3280000687
1430.0	0.0004518	43.375
1430.0	0.0004525	43.4220001698
1430.0	0.000454	43.4530000687
1430.0	0.0004553	43.5
1430.0	0.0004563	43.5320000648
1430.0	0.0004558	43.5780000687
1430.0	0.0004555	43.625
1430.0	0.0004555	43.6570000648
1430.0	0.000457	43.7030000687
1430.0	0.000457	43.75
1430.0	0.0004568	43.7820000648
1430.0	0.0004568	43.8280000687
1430.0	0.0004563	43.8600001335
1430.0	0.0004565	43.9070000648
1430.0	0.0004568	43.9530000687
1440.0	0.0004583	44.2190001011
1440.0	0.0004603	44.25
1440.0	0.000462	44.2970001698
1440.0	0.000462	44.3440001011
1440.0	0.000462	44.375
1440.0	0.0004618	44.4220001698
1440.0	0.0004625	44.4690001011
1440.0	0.0004625	44.5
1440.0	0.0004615	44.5470001698
1440.0	0.0004613	44.5780000687
1440.0	0.0004608	44.625
1440.0	0.0004613	44.6720001698
1440.0	0.0004625	44.7030000687
1440.0	0.000463	44.75
1440.0	0.0004643	44.7970001698
1440.0	0.000465	44.8280000687
1440.0	0.0004653	44.875
1440.0	0.0004663	44.9070000648
1440.0	0.0004668	44.9530000687
1440.0	0.0004663	45.0
1440.0	0.0004653	45.0320000648
1440.0	0.000465	45.0780000687
1440.0	0.000465	45.125
1440.0	0.0004658	45.1570000648
1440.0	0.0004668	45.2030000687
1440.0	0.0004668	45.2350001335
1440.0	0.0004663	45.2820000648
1440.0	0.0004665	45.3280000687
1440.0	0.000467	45.3600001335
1440.0	0.000467	45.4070000648
1440.0	0.0004658	45.4530000687
1440.0	0.0004643	45.4850001335
1440.0	0.0004638	45.5320000648
1440.0	0.0004628	45.5780000687
1440.0	0.0004615	45.6100001335
1440.0	0.0004613	45.6570000648
1440.0	0.0004618	45.6880002022
1450.0	0.0004675	45.9690001011
1450.0	0.0004688	46.0
1450.0	0.0004703	46.0470001698
1450.0	0.0004715	46.0780000687
1450.0	0.000472	46.125
1450.0	0.000473	46.1720001698
1450.0	0.0004755	46.2030000687
1450.0	0.0004765	46.25
1450.0	0.0004775	46.2820000648
1450.0	0.0004793	46.3280000687
1450.0	0.0004793	46.375
1450.0	0.0004793	46.4070000648
1450.0	0.0004793	46.4530000687
1450.0	0.0004793	46.5
1450.0	0.0004795	46.5320000648
1450.0	0.0004788	46.5780000687
1450.0	0.0004775	46.625
1450.0	0.0004758	46.6570000648
1450.0	0.0004755	46.7030000687
1450.0	0.0004753	46.7350001335
1450.0	0.0004745	46.7820000648
1450.0	0.0004743	46.8280000687
1450.0	0.0004753	46.8600001335
1450.0	0.0004758	46.9070000648
1450.0	0.0004763	46.9530000687
1450.0	0.0004765	46.9850001335
1450.0	0.0004768	47.0320000648
1450.0	0.0004775	47.0630002022
1450.0	0.0004793	47.1100001335
1450.0	0.000479	47.1570000648
1450.0	0.0004783	47.1880002022
1450.0	0.000478	47.2350001335
1450.0	0.0004778	47.2820000648
1450.0	0.0004775	47.3130002022
1450.0	0.0004768	47.3600001335
1450.0	0.0004765	47.3910000324
1450.0	0.0004765	47.4380002022
1460.0	0.0004755	47.7030000687
1460.0	0.0004778	47.75
1460.0	0.0004795	47.7820000648
1460.0	0.0004813	47.8280000687
1460.0	0.000483	47.875
1460.0	0.000484	47.9070000648
1460.0	0.0004845	47.9530000687
1460.0	0.0004843	48.0
1460.0	0.0004853	48.0320000648
1460.0	0.0004855	48.0780000687
1460.0	0.0004858	48.1100001335
1460.0	0.000485	48.1570000648
1460.0	0.0004845	48.2030000687
1460.0	0.0004845	48.2350001335
1460.0	0.0004845	48.2820000648
1460.0	0.0004845	48.3280000687
1460.0	0.000484	48.3600001335
1460.0	0.0004838	48.4070000648
1460.0	0.000484	48.4530000687
1460.0	0.000483	48.4850001335
1460.0	0.0004833	48.5320000648
1460.0	0.0004843	48.5630002022
1460.0	0.000484	48.6100001335
1460.0	0.0004838	48.6570000648
1460.0	0.0004843	48.6880002022
1460.0	0.000484	48.7350001335
1460.0	0.000483	48.7820000648
1460.0	0.0004833	48.8130002022
1460.0	0.000483	48.8600001335
1460.0	0.0004828	48.8910000324
1460.0	0.0004838	48.9380002022
1460.0	0.0004838	48.9850001335
1460.0	0.0004845	49.0160000324
1460.0	0.0004858	49.0630002022
1460.0	0.0004855	49.1100001335
1460.0	0.0004845	49.1410000324
1460.0	0.0004845	49.1880002022
1470.0	0.0004875	49.4530000687
1470.0	0.000489	49.5
1470.0	0.0004905	49.5320000648
1470.0	0.0004913	49.5780000687
1470.0	0.0004913	49.625
1470.0	0.000492	49.6570000648
1470.0	0.000492	49.7030000687
1470.0	0.0004925	49.75
1470.0	0.000494	49.7820000648
1470.0	0.0004938	49.8280000687
1470.0	0.000494	49.8600001335
1470.0	0.0004958	49.9070000648
1470.0	0.0004965	49.9530000687
1470.0	0.0004958	49.9850001335
1470.0	0.0004965	50.0320000648
1470.0	0.0004968	50.0780000687
1470.0	0.0004958	50.1100001335
1470.0	0.0004945	50.1570000648
1470.0	0.000494	50.1880002022
1470.0	0.000493	50.2350001335
1470.0	0.0004928	50.2820000648
1470.0	0.000493	50.3130002022
1470.0	0.000492	50.3600001335
1470.0	0.0004908	50.4070000648
1470.0	0.0004905	50.4380002022
1470.0	0.0004915	50.4850001335
1470.0	0.0004928	50.5320000648
1470.0	0.0004933	50.5630002022
1470.0	0.0004925	50.6100001335
1470.0	0.0004918	50.6410000324
1470.0	0.000492	50.6880002022
1470.0	0.0004925	50.7350001335
1470.0	0.0004918	50.7660000324
1470.0	0.0004918	50.8130002022
1470.0	0.0004925	50.8600001335
1470.0	0.0004933	50.8910000324
1470.0	0.0004933	50.9380002022
1480.0	0.000494	51.2030000687
1480.0	0.0004938	51.25
1480.0	0.0004943	51.2820000648
1480.0	0.0004953	51.3280000687
1480.0	0.000495	51.375
1480.0	0.0004945	51.4070000648
1480.0	0.0004945	51.4530000687
1480.0	0.0004943	51.5
1480.0	0.0004933	51.5320000648
1480.0	0.000494	51.5780000687
1480.0	0.0004945	51.6100001335
1480.0	0.0004963	51.6570000648
1480.0	0.0004968	51.7030000687
1480.0	0.000497	51.7350001335
1480.0	0.0004968	51.7820000648
1480.0	0.0004963	51.8280000687
1480.0	0.000495	51.8600001335
1480.0	0.0004943	51.9070000648
1480.0	0.0004945	51.9380002022
1480.0	0.0004958	51.9850001335
1480.0	0.0004963	52.0320000648
1480.0	0.0004968	52.0630002022
1480.0	0.0004963	52.1100001335
1480.0	0.0004945	52.1570000648
1480.0	0.0004943	52.1880002022
1480.0	0.0004953	52.2350001335
1480.0	0.0004953	52.2820000648
1480.0	0.0004963	52.3130002022
1480.0	0.0004953	52.3600001335
1480.0	0.0004953	52.3910000324
1480.0	0.000495	52.4380002022
1480.0	0.0004958	52.4850001335
1480.0	0.0004968	52.5160000324
1480.0	0.0004978	52.5630002022
1480.0	0.0004975	52.6100001335
1480.0	0.000497	52.6410000324
1480.0	0.0004963	52.6880002022
1490.0	0.0004963	52.9530000687
1490.0	0.0004945	53.0
1490.0	0.0004945	53.0320000648
1490.0	0.000495	53.0780000687
1490.0	0.000495	53.125
1490.0	0.0004943	53.1570000648
1490.0	0.0004945	53.2030000687
1490.0	0.0004963	53.25
1490.0	0.0004965	53.2820000648
1490.0	0.0004975	53.3280000687
1490.0	0.0004975	53.3600001335
1490.0	0.0004968	53.4070000648
1490.0	0.000497	53.4530000687
1490.0	0.0004978	53.4850001335
1490.0	0.0004975	53.5320000648
1490.0	0.0004983	53.5780000687
1490.0	0.000499	53.6100001335
1490.0	0.000499	53.6570000648
1490.0	0.0004983	53.6880002022
1490.0	0.0004983	53.7350001335
1490.0	0.000499	53.7820000648
1490.0	0.000499	53.8130002022
1490.0	0.0004993	53.8600001335
1490.0	0.0004988	53.9070000648
1490.0	0.0004975	53.9380002022
1490.0	0.000497	53.9850001335
1490.0	0.0004983	54.0160000324
1490.0	0.0005	54.0630002022
1490.0	0.0005008	54.1100001335
1490.0	0.0005008	54.1410000324
1490.0	0.0004995	54.1880002022
1490.0	0.000499	54.2350001335
1490.0	0.000499	54.2660000324
1490.0	0.000499	54.3130002022
1490.0	0.000498	54.3600001335
1490.0	0.0004978	54.3910000324
1490.0	0.0004978	54.4380002022
1500.0	0.0004988	54.7030000687
1500.0	0.000498	54.75
1500.0	0.0004975	54.7820000648
1500.0	0.0004983	54.8280000687
1500.0	0.0004993	54.875
1500.0	0.0004995	54.9070000648
1500.0	0.0004988	54.9530000687
1500.0	0.0004988	54.9850001335
1500.0	0.0004988	55.0320000648
1500.0	0.0004983	55.0780000687
1500.0	0.000498	55.1100001335
1500.0	0.0004968	55.1570000648
1500.0	0.0004963	55.2030000687
1500.0	0.0004978	55.2350001335
1500.0	0.000498	55.2820000648
1500.0	0.0004978	55.3280000687
1500.0	0.0004978	55.3600001335
1500.0	0.0004975	55.4070000648
1500.0	0.000497	55.4380002022
1500.0	0.0004983	55.4850001335
1500.0	0.000499	55.5320000648
1500.0	0.0004988	55.5630002022
1500.0	0.0004988	55.6100001335
1500.0	0.000499	55.6570000648
1500.0	0.0004983	55.6880002022
1500.0	0.0004983	55.7350001335
1500.0	0.0004975	55.7820000648
1500.0	0.0004963	55.8130002022
1500.0	0.0004953	55.8600001335
1500.0	0.000495	55.9070000648
1500.0	0.0004945	55.9380002022
1500.0	0.000495	55.9850001335
1500.0	0.0004955	56.0320000648
1500.0	0.0004965	56.0630002022
1500.0	0.000497	56.1100001335
1500.0	0.000498	56.1410000324
1500.0	0.0004988	56.1880002022
1510.0	0.000497	56.4530000687
1510.0	0.000498	56.5
1510.0	0.000498	56.5470001698
1510.0	0.0004975	56.5780000687
1510.0	0.0004975	56.625
1510.0	0.000497	56.6570000648
1510.0	0.0004963	56.7030000687
1510.0	0.0004955	56.75
1510.0	0.000495	56.7820000648
1510.0	0.000493	56.8280000687
1510.0	0.0004918	56.875
1510.0	0.0004915	56.9070000648
1510.0	0.0004908	56.9530000687
1510.0	0.0004918	57.0
1510.0	0.0004933	57.0320000648
1510.0	0.0004938	57.0780000687
1510.0	0.0004938	57.1100001335
1510.0	0.0004943	57.1570000648
1510.0	0.0004938	57.2030000687
1510.0	0.0004933	57.2350001335
1510.0	0.000493	57.2820000648
1510.0	0.000494	57.3280000687
1510.0	0.0004943	57.3600001335
1510.0	0.0004938	57.4070000648
1510.0	0.0004933	57.4380002022
1510.0	0.0004938	57.4850001335
1510.0	0.000494	57.5320000648
1510.0	0.000494	57.5630002022
1510.0	0.0004933	57.6100001335
1510.0	0.0004933	57.6570000648
1510.0	0.0004943	57.6880002022
1510.0	0.0004958	57.7350001335
1510.0	0.0004975	57.7660000324
1510.0	0.0004988	57.8130002022
1510.0	0.000499	57.8600001335
1510.0	0.0004983	57.8910000324
1510.0	0.000499	57.9380002022
1520.0	0.0004968	58.2190001011
1520.0	0.0004963	58.25
1520.0	0.000495	58.2970001698
1520.0	0.000493	58.3440001011
1520.0	0.000493	58.375
1520.0	0.000494	58.4220001698
1520.0	0.0004943	58.4530000687
1520.0	0.0004938	58.5
1520.0	0.0004938	58.5470001698
1520.0	0.0004938	58.5780000687
1520.0	0.000494	58.625
1520.0	0.0004945	58.6720001698
1520.0	0.000494	58.7030000687
1520.0	0.000493	58.75
1520.0	0.0004925	58.7820000648
1520.0	0.0004928	58.8280000687
1520.0	0.000493	58.875
1520.0	0.0004938	58.9070000648
1520.0	0.0004945	58.9530000687
1520.0	0.000495	59.0
1520.0	0.0004958	59.0320000648
1520.0	0.0004965	59.0780000687
1520.0	0.0004965	59.1100001335
1520.0	0.000497	59.1570000648
1520.0	0.0004978	59.2030000687
1520.0	0.0004975	59.2350001335
1520.0	0.000498	59.2820000648
1520.0	0.0004993	59.3280000687
1520.0	0.0004995	59.3600001335
1520.0	0.0004988	59.4070000648
1520.0	0.0004988	59.4380002022
1520.0	0.0004988	59.4850001335
1520.0	0.0004988	59.5320000648
1520.0	0.000498	59.5630002022
1520.0	0.0004975	59.6100001335
1520.0	0.0004968	59.6570000648
1520.0	0.0004958	59.6880002022
1530.0	0.000492	59.9690001011
1530.0	0.0004915	60.0160000324
1530.0	0.0004903	60.0470001698
1530.0	0.0004893	60.0940001011
1530.0	0.0004903	60.125
1530.0	0.0004913	60.1720001698
1530.0	0.0004905	60.2190001011
1530.0	0.0004903	60.25
1530.0	0.0004905	60.2970001698
1530.0	0.0004908	60.3440001011
1530.0	0.000492	60.375
1530.0	0.0004918	60.4220001698
1530.0	0.0004918	60.4530000687
1530.0	0.0004913	60.5
1530.0	0.0004913	60.5470001698
1530.0	0.0004915	60.5780000687
1530.0	0.0004918	60.625
1530.0	0.000493	60.6720001698
1530.0	0.000493	60.7030000687
1530.0	0.0004938	60.75
1530.0	0.000494	60.7820000648
1530.0	0.0004933	60.8280000687
1530.0	0.0004928	60.875
1530.0	0.0004925	60.9070000648
1530.0	0.0004925	60.9530000687
1530.0	0.0004915	61.0
1530.0	0.0004905	61.0320000648
1530.0	0.00049	61.0780000687
1530.0	0.0004893	61.1100001335
1530.0	0.0004888	61.1570000648
1530.0	0.0004895	61.2030000687
1530.0	0.00049	61.2350001335
1530.0	0.00049	61.2820000648
1530.0	0.0004893	61.3280000687
1530.0	0.000489	61.3600001335
1530.0	0.00049	61.4070000648
1530.0	0.0004913	61.4380002022
1540.0	0.0004875	61.7190001011
1540.0	0.0004858	61.7660000324
1540.0	0.0004853	61.7970001698
1540.0	0.0004855	61.8440001011
1540.0	0.0004853	61.8910000324
1540.0	0.0004855	61.9220001698
1540.0	0.0004858	61.9690001011
1540.0	0.0004853	62.0160000324
1540.0	0.0004845	62.0470001698
1540.0	0.0004838	62.0940001011
1540.0	0.0004828	62.125
1540.0	0.000482	62.1720001698
1540.0	0.000482	62.2190001011
1540.0	0.0004828	62.25
1540.0	0.0004845	62.2970001698
1540.0	0.0004858	62.3440001011
1540.0	0.0004875	62.375
1540.0	0.0004878	62.4220001698
1540.0	0.0004883	62.4530000687
1540.0	0.0004893	62.5
1540.0	0.0004883	62.5470001698
1540.0	0.000487	62.5780000687
1540.0	0.0004863	62.625
1540.0	0.0004865	62.6720001698
1540.0	0.000487	62.7030000687
1540.0	0.0004888	62.75
1540.0	0.0004895	62.7820000648
1540.0	0.0004895	62.8280000687
1540.0	0.0004903	62.875
1540.0	0.0004893	62.9070000648
1540.0	0.000489	62.9530000687
1540.0	0.0004895	63.0
1540.0	0.0004895	63.0320000648
1540.0	0.0004903	63.0780000687
1540.0	0.0004908	63.1100001335
1540.0	0.0004915	63.1570000648
1540.0	0.0004905	63.2030000687
1550.0	0.0004863	63.4690001011
1550.0	0.0004853	63.5160000324
1550.0	0.000485	63.5630002022
1550.0	0.000484	63.5940001011
1550.0	0.0004828	63.6410000324
1550.0	0.0004815	63.6880002022
1550.0	0.0004803	63.7190001011
1550.0	0.000479	63.7660000324
1550.0	0.000478	63.7970001698
1550.0	0.000479	63.8440001011
1550.0	0.0004803	63.8910000324
1550.0	0.0004815	63.9220001698
1550.0	0.0004828	63.9690001011
1550.0	0.0004828	64.0160000324
1550.0	0.0004818	64.0470001698
1550.0	0.0004818	64.0940001011
1550.0	0.0004825	64.125
1550.0	0.0004828	64.1720001698
1550.0	0.000482	64.2190001011
1550.0	0.0004813	64.25
1550.0	0.00048	64.2970001698
1550.0	0.0004795	64.3440001011
1550.0	0.0004795	64.375
1550.0	0.0004803	64.4220001698
1550.0	0.0004808	64.4530000687
1550.0	0.0004813	64.5
1550.0	0.0004825	64.5470001698
1550.0	0.0004833	64.5780000687
1550.0	0.000484	64.625
1550.0	0.000484	64.6720001698
1550.0	0.000484	64.7030000687
1550.0	0.000484	64.75
1550.0	0.0004833	64.7820000648
1550.0	0.000482	64.8280000687
1550.0	0.0004815	64.875
1550.0	0.0004805	64.9070000648
1550.0	0.00048	64.9530000687
1560.0	0.0004768	65.2350001335
1560.0	0.0004768	65.2660000324
1560.0	0.0004765	65.3130002022
1560.0	0.0004753	65.3440001011
1560.0	0.0004738	65.3910000324
1560.0	0.000473	65.4380002022
1560.0	0.000473	65.4690001011
1560.0	0.0004738	65.5160000324
1560.0	0.0004738	65.5630002022
1560.0	0.000473	65.5940001011
1560.0	0.000474	65.6410000324
1560.0	0.0004743	65.6880002022
1560.0	0.000475	65.7190001011
1560.0	0.0004753	65.7660000324
1560.0	0.0004763	65.7970001698
1560.0	0.0004763	65.8440001011
1560.0	0.0004758	65.8910000324
1560.0	0.0004755	65.9220001698
1560.0	0.0004758	65.9690001011
1560.0	0.0004765	66.0160000324
1560.0	0.0004755	66.0470001698
1560.0	0.000474	66.0940001011
1560.0	0.000473	66.1410000324
1560.0	0.000473	66.1720001698
1560.0	0.0004733	66.2190001011
1560.0	0.0004733	66.2660000324
1560.0	0.000473	66.2970001698
1560.0	0.0004733	66.3440001011
1560.0	0.0004753	66.375
1560.0	0.0004765	66.4220001698
1560.0	0.0004775	66.4690001011
1560.0	0.0004775	66.5
1560.0	0.0004783	66.5470001698
1560.0	0.0004778	66.5940001011
1560.0	0.0004768	66.625
1560.0	0.0004768	66.6720001698
1560.0	0.0004763	66.7030000687
1570.0	0.0004738	66.9850001335
1570.0	0.0004718	67.0160000324
1570.0	0.0004715	67.0630002022
1570.0	0.0004713	67.1100001335
1570.0	0.0004705	67.1410000324
1570.0	0.0004705	67.1880002022
1570.0	0.00047	67.2350001335
1570.0	0.000469	67.2660000324
1570.0	0.0004675	67.3130002022
1570.0	0.000467	67.3440001011
1570.0	0.0004668	67.3910000324
1570.0	0.0004663	67.4380002022
1570.0	0.0004658	67.4690001011
1570.0	0.0004663	67.5160000324
1570.0	0.0004663	67.5630002022
1570.0	0.0004653	67.5940001011
1570.0	0.0004653	67.6410000324
1570.0	0.0004655	67.6880002022
1570.0	0.0004665	67.7190001011
1570.0	0.0004675	67.7660000324
1570.0	0.0004678	67.7970001698
1570.0	0.0004678	67.8440001011
1570.0	0.0004678	67.8910000324
1570.0	0.0004675	67.9220001698
1570.0	0.0004668	67.9690001011
1570.0	0.0004665	68.0160000324
1570.0	0.0004653	68.0470001698
1570.0	0.0004633	68.0940001011
1570.0	0.0004615	68.125
1570.0	0.0004613	68.1720001698
1570.0	0.0004615	68.2190001011
1570.0	0.000463	68.25
1570.0	0.000464	68.2970001698
1570.0	0.0004645	68.3440001011
1570.0	0.0004658	68.375
1570.0	0.0004655	68.4220001698
1570.0	0.0004643	68.4530000687
1580.0	0.0004655	68.7350001335
1580.0	0.0004643	68.7820000648
1580.0	0.000462	68.8130002022
1580.0	0.0004605	68.8600001335
1580.0	0.0004595	68.9070000648
1580.0	0.000458	68.9380002022
1580.0	0.0004575	68.9850001335
1580.0	0.0004563	69.0160000324
1580.0	0.0004555	69.0630002022
1580.0	0.0004553	69.1100001335
1580.0	0.0004553	69.1410000324
1580.0	0.000455	69.1880002022
1580.0	0.0004558	69.2350001335
1580.0	0.0004575	69.2660000324
1580.0	0.0004578	69.3130002022
1580.0	0.0004578	69.3600001335
1580.0	0.000458	69.3910000324
1580.0	0.000458	69.4380002022
1580.0	0.0004588	69.4690001011
1580.0	0.00046	69.5160000324
1580.0	0.0004593	69.5630002022
1580.0	0.0004588	69.5940001011
1580.0	0.000458	69.6410000324
1580.0	0.0004588	69.6880002022
1580.0	0.000459	69.7190001011
1580.0	0.000459	69.7660000324
1580.0	0.0004593	69.7970001698
1580.0	0.00046	69.8440001011
1580.0	0.0004603	69.8910000324
1580.0	0.0004618	69.9220001698
1580.0	0.0004625	69.9690001011
1580.0	0.0004625	70.0160000324
1580.0	0.0004628	70.0470001698
1580.0	0.0004613	70.0940001011
1580.0	0.000459	70.125
1580.0	0.000458	70.1720001698
1580.0	0.000458	70.2190001011
1590.0	0.0004478	70.4850001335
1590.0	0.000447	70.5320000648
1590.0	0.0004463	70.5780000687
1590.0	0.0004445	70.6100001335
1590.0	0.0004443	70.6570000648
1590.0	0.0004443	70.6880002022
1590.0	0.0004453	70.7350001335
1590.0	0.0004458	70.7820000648
1590.0	0.0004445	70.8130002022
1590.0	0.0004438	70.8600001335
1590.0	0.000443	70.9070000648
1590.0	0.000442	70.9380002022
1590.0	0.000443	70.9850001335
1590.0	0.0004445	71.0160000324
1590.0	0.000445	71.0630002022
1590.0	0.0004453	71.1100001335
1590.0	0.0004463	71.1410000324
1590.0	0.0004458	71.1880002022
1590.0	0.0004463	71.2350001335
1590.0	0.0004465	71.2660000324
1590.0	0.000447	71.3130002022
1590.0	0.000447	71.3440001011
1590.0	0.0004468	71.3910000324
1590.0	0.0004468	71.4380002022
1590.0	0.0004465	71.4690001011
1590.0	0.0004465	71.5160000324
1590.0	0.000447	71.5630002022
1590.0	0.0004468	71.5940001011
1590.0	0.0004478	71.6410000324
1590.0	0.000449	71.6880002022
1590.0	0.0004503	71.7190001011
1590.0	0.0004495	71.7660000324
1590.0	0.0004488	71.7970001698
1590.0	0.000448	71.8440001011
1590.0	0.0004475	71.8910000324
1590.0	0.0004483	71.9220001698
1590.0	0.000449	71.9690001011
1600.0	0.0004453	72.25
1600.0	0.0004443	72.2820000648
1600.0	0.000444	72.3280000687
1600.0	0.000443	72.3600001335
1600.0	0.0004418	72.4070000648
1600.0	0.00044	72.4530000687
1600.0	0.0004388	72.4850001335
1600.0	0.0004383	72.5320000648
1600.0	0.000438	72.5780000687
1600.0	0.0004378	72.6100001335
1600.0	0.0004378	72.6570000648
1600.0	0.0004375	72.6880002022
1600.0	0.0004378	72.7350001335
1600.0	0.0004368	72.7820000648
1600.0	0.0004368	72.8130002022
1600.0	0.0004368	72.8600001335
1600.0	0.0004363	72.9070000648
1600.0	0.0004353	72.9380002022
1600.0	0.0004358	72.9850001335
1600.0	0.0004358	73.0160000324
1600.0	0.0004358	73.0630002022
1600.0	0.0004365	73.1100001335
1600.0	0.0004368	73.1410000324
1600.0	0.0004368	73.1880002022
1600.0	0.000437	73.2350001335
1600.0	0.0004368	73.2660000324
1600.0	0.0004358	73.3130002022
1600.0	0.0004353	73.3600001335
1600.0	0.0004345	73.3910000324
1600.0	0.0004345	73.4380002022
1600.0	0.0004343	73.4690001011
1600.0	0.0004338	73.5160000324
1600.0	0.0004325	73.5630002022
1600.0	0.0004325	73.5940001011
1600.0	0.0004328	73.6410000324
1600.0	0.0004333	73.6880002022
1600.0	0.0004338	73.7190001011
1610.0	0.0004315	74.0
1610.0	0.0004295	74.0470001698
1610.0	0.0004283	74.0780000687
1610.0	0.0004278	74.125
1610.0	0.000427	74.1720001698
1610.0	0.0004258	74.2030000687
1610.0	0.0004258	74.25
1610.0	0.0004268	74.2820000648
1610.0	0.0004265	74.3280000687
1610.0	0.0004255	74.375
1610.0	0.0004245	74.4070000648
1610.0	0.000425	74.4530000687
1610.0	0.0004255	74.5
1610.0	0.0004268	74.5320000648
1610.0	0.0004275	74.5780000687
1610.0	0.0004278	74.6100001335
1610.0	0.000428	74.6570000648
1610.0	0.0004278	74.7030000687
1610.0	0.0004275	74.7350001335
1610.0	0.000428	74.7820000648
1610.0	0.00043	74.8280000687
1610.0	0.0004308	74.8600001335
1610.0	0.0004295	74.9070000648
1610.0	0.000429	74.9530000687
1610.0	0.0004275	74.9850001335
1610.0	0.0004263	75.0320000648
1610.0	0.0004258	75.0630002022
1610.0	0.0004263	75.1100001335
1610.0	0.0004275	75.1570000648
1610.0	0.000428	75.1880002022
1610.0	0.0004278	75.2350001335
1610.0	0.0004265	75.2820000648
1610.0	0.0004255	75.3130002022
1610.0	0.0004233	75.3600001335
1610.0	0.0004215	75.3910000324
1610.0	0.00042	75.4380002022
1610.0	0.0004203	75.4850001335
1620.0	0.0004158	75.7660000324
1620.0	0.0004133	75.7970001698
1620.0	0.000412	75.8440001011
1620.0	0.0004105	75.875
1620.0	0.00041	75.9220001698
1620.0	0.00041	75.9690001011
1620.0	0.0004093	76.0
1620.0	0.000409	76.0470001698
1620.0	0.0004083	76.0940001011
1620.0	0.0004088	76.125
1620.0	0.000409	76.1720001698
1620.0	0.0004103	76.2030000687
1620.0	0.0004108	76.25
1620.0	0.0004105	76.2970001698
1620.0	0.0004095	76.3280000687
1620.0	0.0004095	76.375
1620.0	0.00041	76.4220001698
1620.0	0.0004103	76.4530000687
1620.0	0.0004088	76.5
1620.0	0.0004078	76.5320000648
1620.0	0.0004075	76.5780000687
1620.0	0.0004068	76.625
1620.0	0.000408	76.6570000648
1620.0	0.0004095	76.7030000687
1620.0	0.00041	76.75
1620.0	0.0004103	76.7820000648
1620.0	0.0004108	76.8280000687
1620.0	0.0004103	76.875
1620.0	0.0004103	76.9070000648
1620.0	0.000412	76.9530000687
1620.0	0.000413	76.9850001335
1620.0	0.000412	77.0320000648
1620.0	0.0004108	77.0780000687
1620.0	0.0004088	77.1100001335
1620.0	0.0004053	77.1570000648
1620.0	0.000404	77.2030000687
1620.0	0.0004055	77.2350001335
1630.0	0.0003993	77.5160000324
1630.0	0.000398	77.5630002022
1630.0	0.000397	77.6100001335
1630.0	0.0003958	77.6410000324
1630.0	0.0003958	77.6880002022
1630.0	0.0003955	77.7190001011
1630.0	0.0003965	77.7660000324
1630.0	0.000397	77.8130002022
1630.0	0.000397	77.8440001011
1630.0	0.0003975	77.8910000324
1630.0	0.0003978	77.9380002022
1630.0	0.000397	77.9690001011
1630.0	0.0003958	78.0160000324
1630.0	0.0003963	78.0630002022
1630.0	0.0003958	78.0940001011
1630.0	0.0003968	78.1410000324
1630.0	0.000397	78.1720001698
1630.0	0.0003958	78.2190001011
1630.0	0.0003943	78.2660000324
1630.0	0.000393	78.2970001698
1630.0	0.0003918	78.3440001011
1630.0	0.0003913	78.3910000324
1630.0	0.0003908	78.4220001698
1630.0	0.0003903	78.4690001011
1630.0	0.0003903	78.5
1630.0	0.00039	78.5470001698
1630.0	0.0003905	78.5940001011
1630.0	0.0003913	78.625
1630.0	0.0003913	78.6720001698
1630.0	0.0003918	78.7190001011
1630.0	0.000393	78.75
1630.0	0.0003933	78.7970001698
1630.0	0.0003938	78.8280000687
1630.0	0.000394	78.875
1630.0	0.0003943	78.9220001698
1630.0	0.0003933	78.9530000687
1630.0	0.0003925	79.0
1640.0	0.000389	79.2820000648
1640.0	0.0003855	79.3130002022
1640.0	0.0003818	79.3600001335
1640.0	0.0003788	79.4070000648
1640.0	0.000377	79.4380002022
1640.0	0.000375	79.4850001335
1640.0	0.000375	79.5320000648
1640.0	0.0003738	79.5630002022
1640.0	0.0003725	79.6100001335
1640.0	0.0003725	79.6410000324
1640.0	0.000374	79.6880002022
1640.0	0.0003755	79.7350001335
1640.0	0.0003768	79.7660000324
1640.0	0.000378	79.8130002022
1640.0	0.000378	79.8600001335
1640.0	0.0003775	79.8910000324
1640.0	0.000377	79.9380002022
1640.0	0.0003745	79.9850001335
1640.0	0.000374	80.0160000324
1640.0	0.000375	80.0630002022
1640.0	0.0003745	80.0940001011
1640.0	0.0003738	80.1410000324
1640.0	0.000373	80.1880002022
1640.0	0.0003728	80.2190001011
1640.0	0.0003718	80.2660000324
1640.0	0.0003708	80.3130002022
1640.0	0.0003708	80.3440001011
1640.0	0.000372	80.3910000324
1640.0	0.0003725	80.4220001698
1640.0	0.000372	80.4690001011
1640.0	0.0003715	80.5160000324
1640.0	0.0003713	80.5470001698
1640.0	0.0003718	80.5940001011
1640.0	0.000372	80.6410000324
1640.0	0.0003715	80.6720001698
1640.0	0.000372	80.7190001011
1640.0	0.0003725	80.75
1650.0	0.0003678	81.0470001698
1650.0	0.0003655	81.0780000687
1650.0	0.0003628	81.125
1650.0	0.00036	81.1570000648
1650.0	0.000358	81.2030000687
1650.0	0.0003568	81.25
1650.0	0.0003565	81.2820000648
1650.0	0.0003563	81.3280000687
1650.0	0.000357	81.375
1650.0	0.0003575	81.4070000648
1650.0	0.000358	81.4530000687
1650.0	0.0003575	81.5
1650.0	0.0003563	81.5320000648
1650.0	0.0003553	81.5780000687
1650.0	0.0003543	81.6100001335
1650.0	0.000354	81.6570000648
1650.0	0.000354	81.7030000687
1650.0	0.0003555	81.7350001335
1650.0	0.000357	81.7820000648
1650.0	0.0003583	81.8280000687
1650.0	0.0003578	81.8600001335
1650.0	0.000357	81.9070000648
1650.0	0.0003568	81.9380002022
1650.0	0.0003575	81.9850001335
1650.0	0.0003588	82.0320000648
1650.0	0.0003588	82.0630002022
1650.0	0.000358	82.1100001335
1650.0	0.0003575	82.1570000648
1650.0	0.0003578	82.1880002022
1650.0	0.000357	82.2350001335
1650.0	0.0003558	82.2660000324
1650.0	0.000355	82.3130002022
1650.0	0.0003543	82.3600001335
1650.0	0.0003533	82.3910000324
1650.0	0.0003538	82.4380002022
1650.0	0.0003543	82.4850001335
1650.0	0.0003538	82.5160000324
1660.0	0.0003468	82.7970001698
1660.0	0.0003445	82.8440001011
1660.0	0.0003425	82.8910000324
1660.0	0.0003405	82.9220001698
1660.0	0.0003383	82.9690001011
1660.0	0.0003368	83.0160000324
1660.0	0.000335	83.0470001698
1660.0	0.0003333	83.0940001011
1660.0	0.000334	83.125
1660.0	0.000335	83.1720001698
1660.0	0.0003358	83.2190001011
1660.0	0.0003358	83.25
1660.0	0.0003358	83.2970001698
1660.0	0.0003353	83.3280000687
1660.0	0.0003345	83.375
1660.0	0.0003345	83.4220001698
1660.0	0.0003358	83.4530000687
1660.0	0.0003365	83.5
1660.0	0.000337	83.5470001698
1660.0	0.0003378	83.5780000687
1660.0	0.0003378	83.625
1660.0	0.0003375	83.6720001698
1660.0	0.000338	83.7030000687
1660.0	0.0003383	83.75
1660.0	0.0003378	83.7820000648
1660.0	0.0003375	83.8280000687
1660.0	0.0003375	83.875
1660.0	0.0003365	83.9070000648
1660.0	0.000335	83.9530000687
1660.0	0.0003338	84.0
1660.0	0.0003318	84.0320000648
1660.0	0.0003305	84.0780000687
1660.0	0.0003308	84.1100001335
1660.0	0.0003315	84.1570000648
1660.0	0.0003318	84.2030000687
1660.0	0.0003325	84.2350001335
1660.0	0.0003333	84.2820000648
1670.0	0.0003268	84.5630002022
1670.0	0.000324	84.6100001335
1670.0	0.0003215	84.6570000648
1670.0	0.0003205	84.6880002022
1670.0	0.0003203	84.7350001335
1670.0	0.0003203	84.7820000648
1670.0	0.0003195	84.8130002022
1670.0	0.0003193	84.8600001335
1670.0	0.000319	84.8910000324
1670.0	0.000319	84.9380002022
1670.0	0.0003193	84.9850001335
1670.0	0.000319	85.0160000324
1670.0	0.0003188	85.0630002022
1670.0	0.0003178	85.1100001335
1670.0	0.000318	85.1410000324
1670.0	0.000318	85.1880002022
1670.0	0.0003175	85.2190001011
1670.0	0.0003168	85.2660000324
1670.0	0.0003163	85.3130002022
1670.0	0.0003153	85.3440001011
1670.0	0.0003153	85.3910000324
1670.0	0.0003155	85.4380002022
1670.0	0.0003155	85.4690001011
1670.0	0.0003155	85.5160000324
1670.0	0.000315	85.5470001698
1670.0	0.0003155	85.5940001011
1670.0	0.0003163	85.6410000324
1670.0	0.0003165	85.6720001698
1670.0	0.0003155	85.7190001011
1670.0	0.0003163	85.7660000324
1670.0	0.0003175	85.7970001698
1670.0	0.0003178	85.8440001011
1670.0	0.0003175	85.8910000324
1670.0	0.0003178	85.9220001698
1670.0	0.000317	85.9690001011
1670.0	0.0003165	86.0
1670.0	0.0003165	86.0470001698
1680.0	0.0003083	86.3280000687
1680.0	0.0003053	86.375
1680.0	0.0003038	86.4220001698
1680.0	0.000303	86.4530000687
1680.0	0.000302	86.5
1680.0	0.0003013	86.5470001698
1680.0	0.0003015	86.5780000687
1680.0	0.0003015	86.625
1680.0	0.0003013	86.6570000648
1680.0	0.0003003	86.7030000687
1680.0	0.0003	86.75
1680.0	0.000298	86.7820000648
1680.0	0.0002968	86.8280000687
1680.0	0.0002955	86.875
1680.0	0.0002958	86.9070000648
1680.0	0.0002968	86.9530000687
1680.0	0.0002983	86.9850001335
1680.0	0.0003	87.0320000648
1680.0	0.0003003	87.0780000687
1680.0	0.0003005	87.1100001335
1680.0	0.0003005	87.1570000648
1680.0	0.0003	87.2030000687
1680.0	0.0002978	87.2350001335
1680.0	0.0002963	87.2820000648
1680.0	0.0002958	87.3130002022
1680.0	0.0002965	87.3600001335
1680.0	0.0002978	87.4070000648
1680.0	0.0002983	87.4380002022
1680.0	0.000299	87.4850001335
1680.0	0.0002993	87.5320000648
1680.0	0.0002993	87.5630002022
1680.0	0.0002995	87.6100001335
1680.0	0.0003013	87.6570000648
1680.0	0.000302	87.6880002022
1680.0	0.000302	87.7350001335
1680.0	0.0003028	87.7660000324
1680.0	0.0003033	87.8130002022
1690.0	0.000297	88.0940001011
1690.0	0.0002958	88.1410000324
1690.0	0.0002945	88.1880002022
1690.0	0.0002933	88.2190001011
1690.0	0.0002913	88.2660000324
1690.0	0.0002893	88.3130002022
1690.0	0.0002888	88.3440001011
1690.0	0.0002883	88.3910000324
1690.0	0.0002875	88.4220001698
1690.0	0.0002868	88.4690001011
1690.0	0.0002843	88.5160000324
1690.0	0.0002828	88.5470001698
1690.0	0.0002833	88.5940001011
1690.0	0.0002855	88.6410000324
1690.0	0.000287	88.6720001698
1690.0	0.000288	88.7190001011
1690.0	0.000289	88.7660000324
1690.0	0.0002895	88.7970001698
1690.0	0.0002895	88.8440001011
1690.0	0.0002888	88.875
1690.0	0.0002875	88.9220001698
1690.0	0.000287	88.9690001011
1690.0	0.0002868	89.0
1690.0	0.0002855	89.0470001698
1690.0	0.0002845	89.0940001011
1690.0	0.0002833	89.125
1690.0	0.0002825	89.1720001698
1690.0	0.0002815	89.2030000687
1690.0	0.0002805	89.25
1690.0	0.0002805	89.2970001698
1690.0	0.0002808	89.3280000687
1690.0	0.0002815	89.375
1690.0	0.0002813	89.4220001698
1690.0	0.0002805	89.4530000687
1690.0	0.0002818	89.5
1690.0	0.000283	89.5320000648
1690.0	0.0002845	89.5780000687
1700.0	0.0002808	89.875
1700.0	0.000279	89.9070000648
1700.0	0.0002778	89.9530000687
1700.0	0.0002763	89.9850001335
1700.0	0.000274	90.0320000648
1700.0	0.000273	90.0780000687
1700.0	0.000272	90.1100001335
1700.0	0.000272	90.1570000648
1700.0	0.000273	90.2030000687
1700.0	0.0002743	90.2350001335
1700.0	0.0002758	90.2820000648
1700.0	0.0002758	90.3130002022
1700.0	0.000274	90.3600001335
1700.0	0.0002725	90.4070000648
1700.0	0.0002728	90.4380002022
1700.0	0.000274	90.4850001335
1700.0	0.0002738	90.5320000648
1700.0	0.000273	90.5630002022
1700.0	0.000272	90.6100001335
1700.0	0.0002718	90.6410000324
1700.0	0.000272	90.6880002022
1700.0	0.0002733	90.7350001335
1700.0	0.0002753	90.7660000324
1700.0	0.0002755	90.8130002022
1700.0	0.0002753	90.8600001335
1700.0	0.000274	90.8910000324
1700.0	0.0002718	90.9380002022
1700.0	0.0002703	90.9690001011
1700.0	0.0002695	91.0160000324
1700.0	0.0002705	91.0630002022
1700.0	0.0002715	91.0940001011
1700.0	0.0002715	91.1410000324
1700.0	0.0002713	91.1880002022
1700.0	0.0002725	91.2190001011
1700.0	0.000273	91.2660000324
1700.0	0.000273	91.3130002022
1700.0	0.000273	91.3440001011
1710.0	0.000269	91.625
1710.0	0.0002668	91.6720001698
1710.0	0.0002653	91.7190001011
1710.0	0.0002638	91.75
1710.0	0.0002638	91.7970001698
1710.0	0.000264	91.8280000687
1710.0	0.0002628	91.875
1710.0	0.0002618	91.9220001698
1710.0	0.0002618	91.9530000687
1710.0	0.000262	92.0
1710.0	0.0002618	92.0470001698
1710.0	0.0002618	92.0780000687
1710.0	0.0002613	92.125
1710.0	0.0002605	92.1570000648
1710.0	0.000259	92.2030000687
1710.0	0.0002593	92.25
1710.0	0.0002593	92.2820000648
1710.0	0.0002595	92.3280000687
1710.0	0.00026	92.375
1710.0	0.0002603	92.4070000648
1710.0	0.00026	92.4530000687
1710.0	0.0002595	92.4850001335
1710.0	0.0002588	92.5320000648
1710.0	0.0002588	92.5780000687
1710.0	0.00026	92.6100001335
1710.0	0.00026	92.6570000648
1710.0	0.0002603	92.7030000687
1710.0	0.00026	92.7350001335
1710.0	0.00026	92.7820000648
1710.0	0.0002593	92.8130002022
1710.0	0.000258	92.8600001335
1710.0	0.0002568	92.9070000648
1710.0	0.0002565	92.9380002022
1710.0	0.0002583	92.9850001335
1710.0	0.0002595	93.0320000648
1710.0	0.0002593	93.0630002022
1710.0	0.0002595	93.1100001335
1720.0	0.0002568	93.3910000324
1720.0	0.0002558	93.4380002022
1720.0	0.0002555	93.4850001335
1720.0	0.0002555	93.5160000324
1720.0	0.0002543	93.5630002022
1720.0	0.0002545	93.5940001011
1720.0	0.000255	93.6410000324
1720.0	0.0002555	93.6880002022
1720.0	0.000255	93.7190001011
1720.0	0.0002553	93.7660000324
1720.0	0.000254	93.8130002022
1720.0	0.000253	93.8440001011
1720.0	0.0002525	93.8910000324
1720.0	0.000252	93.9220001698
1720.0	0.0002525	93.9690001011
1720.0	0.0002528	94.0160000324
1720.0	0.0002525	94.0470001698
1720.0	0.0002525	94.0940001011
1720.0	0.0002513	94.1410000324
1720.0	0.0002505	94.1720001698
1720.0	0.0002508	94.2190001011
1720.0	0.0002505	94.2660000324
1720.0	0.0002495	94.2970001698
1720.0	0.0002503	94.3440001011
1720.0	0.0002505	94.375
1720.0	0.0002513	94.4220001698
1720.0	0.0002525	94.4690001011
1720.0	0.000252	94.5
1720.0	0.000252	94.5470001698
1720.0	0.0002515	94.5780000687
1720.0	0.0002503	94.625
1720.0	0.0002493	94.6720001698
1720.0	0.0002493	94.7030000687
1720.0	0.00025	94.75
1720.0	0.0002503	94.7970001698
1720.0	0.0002513	94.8280000687
1720.0	0.0002508	94.875
1730.0	0.000252	95.1570000648
1730.0	0.0002518	95.2030000687
1730.0	0.0002513	95.2350001335
1730.0	0.0002513	95.2820000648
1730.0	0.0002508	95.3280000687
1730.0	0.0002493	95.3600001335
1730.0	0.000247	95.4070000648
1730.0	0.0002463	95.4380002022
1730.0	0.0002458	95.4850001335
1730.0	0.0002465	95.5320000648
1730.0	0.0002465	95.5630002022
1730.0	0.0002453	95.6100001335
1730.0	0.000245	95.6570000648
1730.0	0.0002445	95.6880002022
1730.0	0.0002458	95.7350001335
1730.0	0.0002463	95.7820000648
1730.0	0.0002453	95.8130002022
1730.0	0.0002443	95.8600001335
1730.0	0.0002443	95.8910000324
1730.0	0.0002445	95.9380002022
1730.0	0.0002443	95.9850001335
1730.0	0.0002433	96.0160000324
1730.0	0.0002425	96.0630002022
1730.0	0.0002418	96.1100001335
1730.0	0.0002413	96.1410000324
1730.0	0.000242	96.1880002022
1730.0	0.0002428	96.2350001335
1730.0	0.000243	96.2660000324
1730.0	0.000244	96.3130002022
1730.0	0.0002445	96.3600001335
1730.0	0.000245	96.3910000324
1730.0	0.0002458	96.4380002022
1730.0	0.0002465	96.4690001011
1730.0	0.0002465	96.5160000324
1730.0	0.0002465	96.5630002022
1730.0	0.0002455	96.5940001011
1730.0	0.0002443	96.6410000324
1740.0	0.0002428	96.9380002022
1740.0	0.000242	96.9690001011
1740.0	0.0002415	97.0160000324
1740.0	0.000243	97.0630002022
1740.0	0.0002443	97.0940001011
1740.0	0.0002445	97.1410000324
1740.0	0.0002455	97.1720001698
1740.0	0.0002468	97.2190001011
1740.0	0.000245	97.2660000324
1740.0	0.0002425	97.2970001698
1740.0	0.0002408	97.3440001011
1740.0	0.00024	97.3910000324
1740.0	0.0002378	97.4220001698
1740.0	0.0002378	97.4690001011
1740.0	0.0002383	97.5
1740.0	0.000239	97.5470001698
1740.0	0.00024	97.5940001011
1740.0	0.0002403	97.625
1740.0	0.0002393	97.6720001698
1740.0	0.0002403	97.7190001011
1740.0	0.0002405	97.75
1740.0	0.0002413	97.7970001698
1740.0	0.0002413	97.8280000687
1740.0	0.0002405	97.875
1740.0	0.0002393	97.9220001698
1740.0	0.0002388	97.9530000687
1740.0	0.0002393	98.0
1740.0	0.0002403	98.0470001698
1740.0	0.0002405	98.0780000687
1740.0	0.0002405	98.125
1740.0	0.0002405	98.1570000648
1740.0	0.0002403	98.2030000687
1740.0	0.00024	98.25
1740.0	0.0002405	98.2820000648
1740.0	0.00024	98.3280000687
1740.0	0.0002383	98.375
1740.0	0.0002378	98.4070000648
1750.0	0.0002363	98.6880002022
1750.0	0.0002368	98.7350001335
1750.0	0.000237	98.7820000648
1750.0	0.000237	98.8130002022
1750.0	0.0002363	98.8600001335
1750.0	0.000235	98.9070000648
1750.0	0.000234	98.9380002022
1750.0	0.0002343	98.9850001335
1750.0	0.000235	99.0160000324
1750.0	0.0002345	99.0630002022
1750.0	0.0002345	99.1100001335
1750.0	0.0002338	99.1410000324
1750.0	0.0002345	99.1880002022
1750.0	0.0002365	99.2350001335
1750.0	0.0002375	99.2660000324
1750.0	0.0002383	99.3130002022
1750.0	0.0002388	99.3440001011
1750.0	0.0002388	99.3910000324
1750.0	0.000238	99.4380002022
1750.0	0.0002388	99.4690001011
1750.0	0.0002405	99.5160000324
1750.0	0.0002403	99.5630002022
1750.0	0.0002388	99.5940001011
1750.0	0.0002375	99.6410000324
1750.0	0.0002375	99.6720001698
1750.0	0.0002375	99.7190001011
1750.0	0.0002368	99.7660000324
1750.0	0.0002363	99.7970001698
1750.0	0.0002358	99.8440001011
1750.0	0.0002353	99.8910000324
1750.0	0.0002345	99.9220001698
1750.0	0.0002343	99.9690001011
1750.0	0.000234	100.016000032
1750.0	0.0002345	100.04700017
1750.0	0.0002353	100.094000101
1750.0	0.000235	100.125
1750.0	0.0002358	100.17200017
1760.0	0.0002358	100.453000069
1760.0	0.0002343	100.5
1760.0	0.0002343	100.54700017
1760.0	0.000233	100.578000069
1760.0	0.0002313	100.625
1760.0	0.0002305	100.67200017
1760.0	0.0002303	100.703000069
1760.0	0.0002303	100.75
1760.0	0.0002305	100.782000065
1760.0	0.0002305	100.828000069
1760.0	0.0002303	100.875
1760.0	0.0002305	100.907000065
1760.0	0.0002308	100.953000069
1760.0	0.0002313	101.0
1760.0	0.0002305	101.032000065
1760.0	0.00023	101.078000069
1760.0	0.0002295	101.110000134
1760.0	0.000229	101.157000065
1760.0	0.0002293	101.203000069
1760.0	0.000229	101.235000134
1760.0	0.000228	101.282000065
1760.0	0.0002268	101.328000069
1760.0	0.0002265	101.360000134
1760.0	0.0002268	101.407000065
1760.0	0.0002275	101.438000202
1760.0	0.0002283	101.485000134
1760.0	0.0002293	101.532000065
1760.0	0.0002293	101.563000202
1760.0	0.0002303	101.610000134
1760.0	0.0002305	101.657000065
1760.0	0.0002303	101.688000202
1760.0	0.00023	101.735000134
1760.0	0.00023	101.782000065
1760.0	0.0002293	101.813000202
1760.0	0.0002305	101.860000134
1760.0	0.00023	101.891000032
1760.0	0.0002295	101.938000202
1770.0	0.0002313	102.235000134
1770.0	0.000232	102.266000032
1770.0	0.0002328	102.313000202
1770.0	0.0002328	102.360000134
1770.0	0.000232	102.391000032
1770.0	0.0002308	102.438000202
1770.0	0.0002295	102.469000101
1770.0	0.0002293	102.516000032
1770.0	0.000228	102.563000202
1770.0	0.0002265	102.594000101
1770.0	0.0002245	102.641000032
1770.0	0.0002245	102.688000202
1770.0	0.0002238	102.719000101
1770.0	0.0002243	102.766000032
1770.0	0.0002253	102.813000202
1770.0	0.0002275	102.844000101
1770.0	0.0002283	102.891000032
1770.0	0.0002278	102.92200017
1770.0	0.000227	102.969000101
1770.0	0.0002263	103.016000032
1770.0	0.0002253	103.04700017
1770.0	0.0002245	103.094000101
1770.0	0.0002238	103.141000032
1770.0	0.0002225	103.17200017
1770.0	0.000222	103.219000101
1770.0	0.000222	103.25
1770.0	0.0002215	103.29700017
1770.0	0.0002233	103.344000101
1770.0	0.0002245	103.375
1770.0	0.0002265	103.42200017
1770.0	0.000228	103.469000101
1770.0	0.000229	103.5
1770.0	0.000229	103.54700017
1770.0	0.000229	103.578000069
1770.0	0.000229	103.625
1770.0	0.0002283	103.67200017
1770.0	0.000229	103.703000069
1780.0	0.0002288	104.0
1780.0	0.0002293	104.032000065
1780.0	0.0002293	104.078000069
1780.0	0.000229	104.125
1780.0	0.0002288	104.157000065
1780.0	0.000227	104.203000069
1780.0	0.0002263	104.235000134
1780.0	0.0002245	104.282000065
1780.0	0.0002233	104.328000069
1780.0	0.0002228	104.360000134
1780.0	0.0002228	104.407000065
1780.0	0.0002228	104.453000069
1780.0	0.000223	104.485000134
1780.0	0.0002233	104.532000065
1780.0	0.000223	104.578000069
1780.0	0.000222	104.610000134
1780.0	0.000222	104.657000065
1780.0	0.0002228	104.688000202
1780.0	0.0002238	104.735000134
1780.0	0.000225	104.782000065
1780.0	0.0002263	104.813000202
1780.0	0.0002278	104.860000134
1780.0	0.000228	104.907000065
1780.0	0.000227	104.938000202
1780.0	0.000227	104.985000134
1780.0	0.0002265	105.016000032
1780.0	0.0002258	105.063000202
1780.0	0.0002245	105.110000134
1780.0	0.0002233	105.141000032
1780.0	0.0002225	105.188000202
1780.0	0.000222	105.235000134
1780.0	0.0002228	105.266000032
1780.0	0.0002225	105.313000202
1780.0	0.0002225	105.344000101
1780.0	0.000223	105.391000032
1780.0	0.0002233	105.438000202
1780.0	0.0002238	105.469000101
1790.0	0.0002245	105.766000032
1790.0	0.000224	105.79700017
1790.0	0.000223	105.844000101
1790.0	0.0002228	105.891000032
1790.0	0.0002228	105.92200017
1790.0	0.0002218	105.969000101
1790.0	0.0002205	106.016000032
1790.0	0.0002188	106.04700017
1790.0	0.000218	106.094000101
1790.0	0.0002175	106.125
1790.0	0.000217	106.17200017
1790.0	0.0002163	106.219000101
1790.0	0.0002155	106.25
1790.0	0.0002155	106.29700017
1790.0	0.0002163	106.344000101
1790.0	0.000218	106.375
1790.0	0.000219	106.42200017
1790.0	0.0002203	106.453000069
1790.0	0.0002218	106.5
1790.0	0.0002228	106.54700017
1790.0	0.0002225	106.578000069
1790.0	0.0002208	106.625
1790.0	0.0002195	106.67200017
1790.0	0.0002183	106.703000069
1790.0	0.000217	106.75
1790.0	0.0002168	106.782000065
1790.0	0.000217	106.828000069
1790.0	0.0002163	106.875
1790.0	0.0002155	106.907000065
1790.0	0.0002165	106.953000069
1790.0	0.0002168	107.0
1790.0	0.000219	107.032000065
1790.0	0.0002195	107.078000069
1790.0	0.0002215	107.110000134
1790.0	0.000222	107.157000065
1790.0	0.0002225	107.203000069
1790.0	0.0002215	107.235000134
1800.0	0.0002163	107.532000065
1800.0	0.0002143	107.578000069
1800.0	0.000213	107.610000134
1800.0	0.000212	107.657000065
1800.0	0.0002103	107.703000069
1800.0	0.0002093	107.735000134
1800.0	0.0002093	107.782000065
1800.0	0.0002088	107.813000202
1800.0	0.0002088	107.860000134
1800.0	0.000209	107.907000065
1800.0	0.0002083	107.938000202
1800.0	0.000208	107.985000134
1800.0	0.0002083	108.032000065
1800.0	0.0002093	108.063000202
1800.0	0.0002105	108.110000134
1800.0	0.0002105	108.157000065
1800.0	0.00021	108.188000202
1800.0	0.00021	108.235000134
1800.0	0.0002105	108.266000032
1800.0	0.0002113	108.313000202
1800.0	0.0002115	108.360000134
1800.0	0.000212	108.391000032
1800.0	0.0002115	108.438000202
1800.0	0.0002105	108.485000134
1800.0	0.0002103	108.516000032
1800.0	0.00021	108.563000202
1800.0	0.0002105	108.594000101
1800.0	0.000212	108.641000032
1800.0	0.0002125	108.688000202
1800.0	0.0002138	108.719000101
1800.0	0.0002143	108.766000032
1800.0	0.0002143	108.813000202
1800.0	0.0002145	108.844000101
1800.0	0.000215	108.891000032
1800.0	0.0002153	108.92200017
1800.0	0.0002153	108.969000101
1800.0	0.0002143	109.016000032
1810.0	0.00021	109.29700017
1810.0	0.0002075	109.344000101
1810.0	0.0002058	109.375
1810.0	0.0002063	109.42200017
1810.0	0.0002058	109.469000101
1810.0	0.0002063	109.5
1810.0	0.0002075	109.54700017
1810.0	0.0002078	109.578000069
1810.0	0.0002075	109.625
1810.0	0.0002065	109.67200017
1810.0	0.0002058	109.703000069
1810.0	0.0002045	109.75
1810.0	0.000205	109.79700017
1810.0	0.000205	109.828000069
1810.0	0.0002045	109.875
1810.0	0.0002043	109.907000065
1810.0	0.0002053	109.953000069
1810.0	0.0002055	110.0
1810.0	0.0002055	110.032000065
1810.0	0.0002063	110.078000069
1810.0	0.0002058	110.125
1810.0	0.0002063	110.157000065
1810.0	0.0002058	110.203000069
1810.0	0.000205	110.25
1810.0	0.0002055	110.282000065
1810.0	0.000207	110.328000069
1810.0	0.0002078	110.360000134
1810.0	0.0002075	110.407000065
1810.0	0.0002058	110.453000069
1810.0	0.0002043	110.485000134
1810.0	0.0002025	110.532000065
1810.0	0.0002013	110.578000069
1810.0	0.0002013	110.610000134
1810.0	0.0002018	110.657000065
1810.0	0.0002025	110.688000202
1810.0	0.000202	110.735000134
1810.0	0.000202	110.782000065
1820.0	0.0002018	111.063000202
1820.0	0.0002	111.110000134
1820.0	0.0001988	111.157000065
1820.0	0.0001975	111.188000202
1820.0	0.0001958	111.235000134
1820.0	0.0001965	111.282000065
1820.0	0.000197	111.313000202
1820.0	0.0001975	111.360000134
1820.0	0.0001965	111.391000032
1820.0	0.0001963	111.438000202
1820.0	0.0001965	111.485000134
1820.0	0.0001963	111.516000032
1820.0	0.0001955	111.563000202
1820.0	0.0001955	111.610000134
1820.0	0.0001955	111.641000032
1820.0	0.0001965	111.688000202
1820.0	0.0001963	111.719000101
1820.0	0.0001958	111.766000032
1820.0	0.0001953	111.813000202
1820.0	0.0001943	111.844000101
1820.0	0.0001945	111.891000032
1820.0	0.0001955	111.938000202
1820.0	0.0001953	111.969000101
1820.0	0.0001955	112.016000032
1820.0	0.0001968	112.04700017
1820.0	0.000197	112.094000101
1820.0	0.000198	112.141000032
1820.0	0.000198	112.17200017
1820.0	0.0001975	112.219000101
1820.0	0.0001963	112.266000032
1820.0	0.0001958	112.29700017
1820.0	0.0001965	112.344000101
1820.0	0.000197	112.391000032
1820.0	0.0001968	112.42200017
1820.0	0.0001965	112.469000101
1820.0	0.0001968	112.5
1820.0	0.000197	112.54700017
1830.0	0.000192	112.844000101
1830.0	0.0001918	112.891000032
1830.0	0.0001918	112.92200017
1830.0	0.0001905	112.969000101
1830.0	0.0001895	113.0
1830.0	0.000189	113.04700017
1830.0	0.0001893	113.094000101
1830.0	0.000189	113.125
1830.0	0.0001875	113.17200017
1830.0	0.0001865	113.219000101
1830.0	0.0001868	113.25
1830.0	0.000188	113.29700017
1830.0	0.000189	113.328000069
1830.0	0.000189	113.375
1830.0	0.0001893	113.42200017
1830.0	0.00019	113.453000069
1830.0	0.0001895	113.5
1830.0	0.000188	113.54700017
1830.0	0.0001868	113.578000069
1830.0	0.000187	113.625
1830.0	0.0001878	113.67200017
1830.0	0.0001878	113.703000069
1830.0	0.0001883	113.75
1830.0	0.000189	113.782000065
1830.0	0.000188	113.828000069
1830.0	0.000188	113.875
1830.0	0.000187	113.907000065
1830.0	0.0001863	113.953000069
1830.0	0.0001853	114.0
1830.0	0.0001855	114.032000065
1830.0	0.0001858	114.078000069
1830.0	0.0001855	114.110000134
1830.0	0.0001863	114.157000065
1830.0	0.0001855	114.203000069
1830.0	0.000185	114.235000134
1830.0	0.000185	114.282000065
1830.0	0.0001855	114.328000069
1840.0	0.0001843	114.610000134
1840.0	0.0001843	114.657000065
1840.0	0.000184	114.703000069
1840.0	0.0001838	114.735000134
1840.0	0.000183	114.782000065
1840.0	0.0001825	114.828000069
1840.0	0.0001813	114.860000134
1840.0	0.0001805	114.907000065
1840.0	0.0001808	114.953000069
1840.0	0.0001813	114.985000134
1840.0	0.0001813	115.032000065
1840.0	0.0001818	115.063000202
1840.0	0.000182	115.110000134
1840.0	0.0001825	115.157000065
1840.0	0.000183	115.188000202
1840.0	0.000184	115.235000134
1840.0	0.0001843	115.282000065
1840.0	0.0001838	115.313000202
1840.0	0.0001825	115.360000134
1840.0	0.0001813	115.391000032
1840.0	0.0001803	115.438000202
1840.0	0.000179	115.485000134
1840.0	0.0001795	115.516000032
1840.0	0.0001795	115.563000202
1840.0	0.00018	115.610000134
1840.0	0.0001795	115.641000032
1840.0	0.0001803	115.688000202
1840.0	0.0001803	115.735000134
1840.0	0.00018	115.766000032
1840.0	0.0001803	115.813000202
1840.0	0.0001815	115.844000101
1840.0	0.000182	115.891000032
1840.0	0.000182	115.938000202
1840.0	0.0001828	115.969000101
1840.0	0.000183	116.016000032
1840.0	0.000184	116.063000202
1840.0	0.000184	116.094000101
1850.0	0.0001768	116.391000032
1850.0	0.0001745	116.438000202
1850.0	0.0001743	116.469000101
1850.0	0.000175	116.516000032
1850.0	0.0001753	116.563000202
1850.0	0.000174	116.594000101
1850.0	0.0001728	116.641000032
1850.0	0.0001725	116.688000202
1850.0	0.0001718	116.719000101
1850.0	0.0001733	116.766000032
1850.0	0.0001743	116.79700017
1850.0	0.0001745	116.844000101
1850.0	0.000175	116.891000032
1850.0	0.0001753	116.92200017
1850.0	0.0001753	116.969000101
1850.0	0.0001745	117.016000032
1850.0	0.0001753	117.04700017
1850.0	0.0001763	117.094000101
1850.0	0.0001775	117.125
1850.0	0.0001768	117.17200017
1850.0	0.0001755	117.219000101
1850.0	0.0001753	117.25
1850.0	0.0001743	117.29700017
1850.0	0.0001745	117.328000069
1850.0	0.0001763	117.375
1850.0	0.0001768	117.42200017
1850.0	0.000177	117.453000069
1850.0	0.0001763	117.5
1850.0	0.000175	117.54700017
1850.0	0.000174	117.578000069
1850.0	0.000173	117.625
1850.0	0.0001728	117.67200017
1850.0	0.0001728	117.703000069
1850.0	0.0001733	117.75
1850.0	0.0001738	117.782000065
1850.0	0.000175	117.828000069
1850.0	0.000175	117.875
1860.0	0.0001675	118.17200017
1860.0	0.000167	118.203000069
1860.0	0.000167	118.25
1860.0	0.0001653	118.282000065
1860.0	0.0001633	118.328000069
1860.0	0.0001608	118.375
1860.0	0.0001618	118.407000065
1860.0	0.0001638	118.453000069
1860.0	0.0001663	118.5
1860.0	0.000168	118.532000065
1860.0	0.0001683	118.578000069
1860.0	0.0001695	118.625
1860.0	0.0001705	118.657000065
1860.0	0.0001703	118.703000069
1860.0	0.000169	118.735000134
1860.0	0.0001688	118.782000065
1860.0	0.0001678	118.828000069
1860.0	0.0001665	118.860000134
1860.0	0.0001655	118.907000065
1860.0	0.0001653	118.953000069
1860.0	0.0001655	118.985000134
1860.0	0.0001655	119.032000065
1860.0	0.0001645	119.063000202
1860.0	0.000165	119.110000134
1860.0	0.000165	119.157000065
1860.0	0.0001655	119.188000202
1860.0	0.0001658	119.235000134
1860.0	0.0001665	119.282000065
1860.0	0.0001665	119.313000202
1860.0	0.0001668	119.360000134
1860.0	0.000167	119.391000032
1860.0	0.000167	119.438000202
1860.0	0.0001675	119.485000134
1860.0	0.0001678	119.516000032
1860.0	0.0001675	119.563000202
1860.0	0.0001675	119.610000134
1860.0	0.000167	119.641000032
1870.0	0.0001615	119.938000202
1870.0	0.0001603	119.985000134
1870.0	0.00016	120.016000032
1870.0	0.0001593	120.063000202
1870.0	0.00016	120.094000101
1870.0	0.0001613	120.141000032
1870.0	0.0001613	120.188000202
1870.0	0.0001605	120.219000101
1870.0	0.0001595	120.266000032
1870.0	0.0001588	120.313000202
1870.0	0.000158	120.344000101
1870.0	0.000157	120.391000032
1870.0	0.0001575	120.42200017
1870.0	0.0001583	120.469000101
1870.0	0.0001593	120.516000032
1870.0	0.0001595	120.54700017
1870.0	0.0001605	120.594000101
1870.0	0.0001618	120.641000032
1870.0	0.000162	120.67200017
1870.0	0.0001615	120.719000101
1870.0	0.0001608	120.75
1870.0	0.0001613	120.79700017
1870.0	0.000162	120.844000101
1870.0	0.0001628	120.875
1870.0	0.000162	120.92200017
1870.0	0.0001613	120.969000101
1870.0	0.0001613	121.0
1870.0	0.0001618	121.04700017
1870.0	0.0001618	121.078000069
1870.0	0.0001613	121.125
1870.0	0.0001613	121.17200017
1870.0	0.0001615	121.203000069
1870.0	0.0001625	121.25
1870.0	0.0001628	121.29700017
1870.0	0.0001615	121.328000069
1870.0	0.0001608	121.375
1870.0	0.00016	121.42200017
1880.0	0.0001575	121.703000069
1880.0	0.0001555	121.75
1880.0	0.000155	121.79700017
1880.0	0.0001543	121.828000069
1880.0	0.000153	121.875
1880.0	0.000152	121.92200017
1880.0	0.0001508	121.953000069
1880.0	0.00015	122.0
1880.0	0.0001503	122.032000065
1880.0	0.0001508	122.078000069
1880.0	0.000152	122.125
1880.0	0.0001533	122.157000065
1880.0	0.0001538	122.203000069
1880.0	0.0001543	122.25
1880.0	0.0001543	122.282000065
1880.0	0.0001545	122.328000069
1880.0	0.0001545	122.375
1880.0	0.0001543	122.407000065
1880.0	0.0001533	122.453000069
1880.0	0.0001525	122.485000134
1880.0	0.0001538	122.532000065
1880.0	0.0001543	122.578000069
1880.0	0.0001538	122.610000134
1880.0	0.0001538	122.657000065
1880.0	0.0001538	122.703000069
1880.0	0.0001528	122.735000134
1880.0	0.000152	122.782000065
1880.0	0.0001528	122.813000202
1880.0	0.0001538	122.860000134
1880.0	0.000154	122.907000065
1880.0	0.0001545	122.938000202
1880.0	0.0001545	122.985000134
1880.0	0.0001545	123.032000065
1880.0	0.0001553	123.063000202
1880.0	0.0001555	123.110000134
1880.0	0.000155	123.141000032
1880.0	0.000155	123.188000202
1890.0	0.0001518	123.485000134
1890.0	0.0001505	123.532000065
1890.0	0.0001503	123.563000202
1890.0	0.00015	123.610000134
1890.0	0.00015	123.657000065
1890.0	0.00015	123.688000202
1890.0	0.0001508	123.735000134
1890.0	0.0001513	123.766000032
1890.0	0.0001508	123.813000202
1890.0	0.0001513	123.860000134
1890.0	0.0001513	123.891000032
1890.0	0.0001508	123.938000202
1890.0	0.0001513	123.985000134
1890.0	0.0001513	124.016000032
1890.0	0.0001505	124.063000202
1890.0	0.0001493	124.094000101
1890.0	0.000148	124.141000032
1890.0	0.0001463	124.188000202
1890.0	0.0001453	124.219000101
1890.0	0.0001453	124.266000032
1890.0	0.0001455	124.313000202
1890.0	0.0001458	124.344000101
1890.0	0.0001465	124.391000032
1890.0	0.0001465	124.42200017
1890.0	0.0001463	124.469000101
1890.0	0.0001458	124.516000032
1890.0	0.0001463	124.54700017
1890.0	0.0001465	124.594000101
1890.0	0.0001465	124.641000032
1890.0	0.0001468	124.67200017
1890.0	0.0001455	124.719000101
1890.0	0.000144	124.766000032
1890.0	0.0001438	124.79700017
1890.0	0.0001438	124.844000101
1890.0	0.0001438	124.875
1890.0	0.000144	124.92200017
1890.0	0.000145	124.969000101
1900.0	0.0001458	125.266000032
1900.0	0.0001455	125.29700017
1900.0	0.0001463	125.344000101
1900.0	0.0001468	125.375
1900.0	0.000147	125.42200017
1900.0	0.0001468	125.469000101
1900.0	0.0001463	125.5
1900.0	0.0001455	125.54700017
1900.0	0.0001453	125.594000101
1900.0	0.000144	125.625
1900.0	0.0001428	125.67200017
1900.0	0.0001413	125.703000069
1900.0	0.0001408	125.75
1900.0	0.0001405	125.79700017
1900.0	0.0001408	125.828000069
1900.0	0.000142	125.875
1900.0	0.0001433	125.92200017
1900.0	0.0001443	125.953000069
1900.0	0.000144	126.0
1900.0	0.000145	126.04700017
1900.0	0.0001468	126.078000069
1900.0	0.0001468	126.125
1900.0	0.0001458	126.157000065
1900.0	0.0001455	126.203000069
1900.0	0.000145	126.25
1900.0	0.0001443	126.282000065
1900.0	0.000144	126.328000069
1900.0	0.0001445	126.375
1900.0	0.0001445	126.407000065
1900.0	0.0001445	126.453000069
1900.0	0.0001443	126.485000134
1900.0	0.0001438	126.532000065
1900.0	0.000144	126.578000069
1900.0	0.0001445	126.610000134
1900.0	0.000145	126.657000065
1900.0	0.0001458	126.703000069
1900.0	0.0001463	126.735000134
1910.0	0.0001453	127.032000065
1910.0	0.0001455	127.063000202
1910.0	0.0001443	127.110000134
1910.0	0.0001425	127.157000065
1910.0	0.0001413	127.188000202
1910.0	0.0001403	127.235000134
1910.0	0.0001395	127.282000065
1910.0	0.00014	127.313000202
1910.0	0.0001403	127.360000134
1910.0	0.0001405	127.407000065
1910.0	0.0001405	127.438000202
1910.0	0.0001413	127.485000134
1910.0	0.0001425	127.516000032
1910.0	0.0001425	127.563000202
1910.0	0.0001413	127.610000134
1910.0	0.0001405	127.641000032
1910.0	0.0001403	127.688000202
1910.0	0.0001393	127.735000134
1910.0	0.000139	127.766000032
1910.0	0.0001388	127.813000202
1910.0	0.0001388	127.844000101
1910.0	0.0001383	127.891000032
1910.0	0.000138	127.938000202
1910.0	0.000137	127.969000101
1910.0	0.0001368	128.016000032
1910.0	0.000137	128.063000202
1910.0	0.0001375	128.094000101
1910.0	0.000138	128.141000032
1910.0	0.000138	128.17200017
1910.0	0.0001393	128.219000101
1910.0	0.00014	128.266000032
1910.0	0.0001405	128.29700017
1910.0	0.0001405	128.344000101
1910.0	0.00014	128.391000032
1910.0	0.00014	128.42200017
1910.0	0.0001403	128.469000101
1910.0	0.0001403	128.516000032
1920.0	0.000139	128.79700017
1920.0	0.0001383	128.844000101
1920.0	0.0001365	128.891000032
1920.0	0.0001338	128.92200017
1920.0	0.000132	128.969000101
1920.0	0.0001313	129.016000032
1920.0	0.000132	129.04700017
1920.0	0.0001333	129.094000101
1920.0	0.000134	129.141000032
1920.0	0.000135	129.17200017
1920.0	0.0001355	129.219000101
1920.0	0.0001358	129.25
1920.0	0.0001358	129.29700017
1920.0	0.0001365	129.344000101
1920.0	0.000137	129.375
1920.0	0.000137	129.42200017
1920.0	0.0001393	129.453000069
1920.0	0.0001403	129.5
1920.0	0.00014	129.54700017
1920.0	0.0001383	129.578000069
1920.0	0.0001375	129.625
1920.0	0.000137	129.67200017
1920.0	0.0001363	129.703000069
1920.0	0.0001345	129.75
1920.0	0.0001338	129.79700017
1920.0	0.0001338	129.828000069
1920.0	0.000135	129.875
1920.0	0.0001363	129.907000065
1920.0	0.0001365	129.953000069
1920.0	0.0001368	130.0
1920.0	0.0001368	130.032000065
1920.0	0.0001368	130.078000069
1920.0	0.000137	130.125
1920.0	0.0001375	130.157000065
1920.0	0.0001378	130.203000069
1920.0	0.000138	130.235000134
1920.0	0.0001375	130.282000065
1930.0	0.0001415	130.578000069
1930.0	0.0001405	130.610000134
1930.0	0.00014	130.657000065
1930.0	0.0001393	130.703000069
1930.0	0.0001375	130.735000134
1930.0	0.0001363	130.782000065
1930.0	0.0001363	130.813000202
1930.0	0.0001355	130.860000134
1930.0	0.0001345	130.907000065
1930.0	0.0001343	130.938000202
1930.0	0.0001353	130.985000134
1930.0	0.0001345	131.032000065
1930.0	0.000135	131.063000202
1930.0	0.0001358	131.110000134
1930.0	0.0001355	131.157000065
1930.0	0.0001365	131.188000202
1930.0	0.0001375	131.235000134
1930.0	0.0001383	131.266000032
1930.0	0.000138	131.313000202
1930.0	0.000138	131.360000134
1930.0	0.000138	131.391000032
1930.0	0.000139	131.438000202
1930.0	0.0001393	131.485000134
1930.0	0.000139	131.516000032
1930.0	0.0001388	131.563000202
1930.0	0.0001383	131.594000101
1930.0	0.0001378	131.641000032
1930.0	0.0001375	131.688000202
1930.0	0.0001378	131.719000101
1930.0	0.0001383	131.766000032
1930.0	0.0001383	131.813000202
1930.0	0.0001388	131.844000101
1930.0	0.000139	131.891000032
1930.0	0.0001383	131.92200017
1930.0	0.000138	131.969000101
1930.0	0.0001388	132.016000032
1930.0	0.00014	132.04700017
1940.0	0.0001365	132.344000101
1940.0	0.0001363	132.391000032
1940.0	0.0001365	132.438000202
1940.0	0.000137	132.469000101
1940.0	0.000138	132.516000032
1940.0	0.000138	132.54700017
1940.0	0.0001375	132.594000101
1940.0	0.0001368	132.641000032
1940.0	0.0001355	132.67200017
1940.0	0.000134	132.719000101
1940.0	0.000134	132.766000032
1940.0	0.0001333	132.79700017
1940.0	0.0001338	132.844000101
1940.0	0.0001343	132.875
1940.0	0.0001343	132.92200017
1940.0	0.0001345	132.969000101
1940.0	0.0001338	133.0
1940.0	0.0001333	133.04700017
1940.0	0.000133	133.094000101
1940.0	0.0001338	133.125
1940.0	0.000135	133.17200017
1940.0	0.000135	133.203000069
1940.0	0.0001355	133.25
1940.0	0.0001345	133.29700017
1940.0	0.0001338	133.328000069
1940.0	0.000134	133.375
1940.0	0.0001338	133.42200017
1940.0	0.0001343	133.453000069
1940.0	0.0001353	133.5
1940.0	0.0001363	133.54700017
1940.0	0.0001368	133.578000069
1940.0	0.0001363	133.625
1940.0	0.0001358	133.657000065
1940.0	0.000135	133.703000069
1940.0	0.0001358	133.75
1940.0	0.0001363	133.782000065
1940.0	0.0001365	133.828000069
1950.0	0.000132	134.125
1950.0	0.0001313	134.157000065
1950.0	0.0001305	134.203000069
1950.0	0.0001305	134.235000134
1950.0	0.00013	134.282000065
1950.0	0.0001288	134.328000069
1950.0	0.0001283	134.360000134
1950.0	0.0001283	134.407000065
1950.0	0.0001283	134.453000069
1950.0	0.000129	134.485000134
1950.0	0.0001293	134.532000065
1950.0	0.0001303	134.563000202
1950.0	0.0001318	134.610000134
1950.0	0.0001328	134.657000065
1950.0	0.0001338	134.688000202
1950.0	0.000135	134.735000134
1950.0	0.000135	134.782000065
1950.0	0.000134	134.813000202
1950.0	0.0001328	134.860000134
1950.0	0.0001313	134.907000065
1950.0	0.0001303	134.938000202
1950.0	0.0001295	134.985000134
1950.0	0.0001303	135.016000032
1950.0	0.0001305	135.063000202
1950.0	0.0001293	135.110000134
1950.0	0.0001293	135.141000032
1950.0	0.0001288	135.188000202
1950.0	0.0001283	135.235000134
1950.0	0.0001288	135.266000032
1950.0	0.0001288	135.313000202
1950.0	0.0001283	135.344000101
1950.0	0.0001288	135.391000032
1950.0	0.000129	135.438000202
1950.0	0.0001293	135.469000101
1950.0	0.0001303	135.516000032
1950.0	0.0001313	135.563000202
1950.0	0.0001325	135.594000101
1960.0	0.0001313	135.891000032
1960.0	0.0001303	135.938000202
1960.0	0.000129	135.969000101
1960.0	0.0001293	136.016000032
1960.0	0.0001295	136.063000202
1960.0	0.00013	136.094000101
1960.0	0.0001303	136.141000032
1960.0	0.000129	136.188000202
1960.0	0.0001275	136.219000101
1960.0	0.0001275	136.266000032
1960.0	0.0001278	136.29700017
1960.0	0.000128	136.344000101
1960.0	0.000128	136.391000032
1960.0	0.0001293	136.42200017
1960.0	0.0001295	136.469000101
1960.0	0.0001303	136.516000032
1960.0	0.0001295	136.54700017
1960.0	0.0001295	136.594000101
1960.0	0.0001303	136.625
1960.0	0.0001303	136.67200017
1960.0	0.0001305	136.719000101
1960.0	0.0001315	136.75
1960.0	0.0001318	136.79700017
1960.0	0.000132	136.844000101
1960.0	0.0001333	136.875
1960.0	0.000134	136.92200017
1960.0	0.0001343	136.953000069
1960.0	0.000134	137.0
1960.0	0.0001338	137.04700017
1960.0	0.0001328	137.078000069
1960.0	0.0001313	137.125
1960.0	0.0001303	137.17200017
1960.0	0.0001295	137.203000069
1960.0	0.0001283	137.25
1960.0	0.0001275	137.282000065
1960.0	0.0001268	137.328000069
1960.0	0.0001275	137.375
1970.0	0.0001293	137.67200017
1970.0	0.0001303	137.703000069
1970.0	0.0001313	137.75
1970.0	0.0001308	137.79700017
1970.0	0.0001293	137.828000069
1970.0	0.000128	137.875
1970.0	0.000127	137.907000065
1970.0	0.0001258	137.953000069
1970.0	0.0001265	138.0
1970.0	0.0001283	138.032000065
1970.0	0.000128	138.078000069
1970.0	0.0001278	138.125
1970.0	0.0001283	138.157000065
1970.0	0.0001293	138.203000069
1970.0	0.0001295	138.235000134
1970.0	0.0001313	138.282000065
1970.0	0.0001315	138.328000069
1970.0	0.0001308	138.360000134
1970.0	0.0001295	138.407000065
1970.0	0.000129	138.453000069
1970.0	0.0001288	138.485000134
1970.0	0.0001275	138.532000065
1970.0	0.0001265	138.563000202
1970.0	0.0001268	138.610000134
1970.0	0.0001268	138.657000065
1970.0	0.0001283	138.688000202
1970.0	0.000129	138.735000134
1970.0	0.000129	138.782000065
1970.0	0.0001293	138.813000202
1970.0	0.000129	138.860000134
1970.0	0.0001278	138.907000065
1970.0	0.000128	138.938000202
1970.0	0.0001278	138.985000134
1970.0	0.000127	139.016000032
1970.0	0.0001268	139.063000202
1970.0	0.0001275	139.110000134
1970.0	0.0001263	139.141000032
1980.0	0.0001295	139.438000202
1980.0	0.0001295	139.485000134
1980.0	0.0001283	139.516000032
1980.0	0.0001268	139.563000202
1980.0	0.0001255	139.610000134
1980.0	0.0001245	139.641000032
1980.0	0.0001245	139.688000202
1980.0	0.0001255	139.735000134
1980.0	0.0001263	139.766000032
1980.0	0.0001265	139.813000202
1980.0	0.0001265	139.860000134
1980.0	0.0001253	139.891000032
1980.0	0.0001245	139.938000202
1980.0	0.000125	139.969000101
1980.0	0.000124	140.016000032
1980.0	0.0001228	140.063000202
1980.0	0.0001218	140.094000101
1980.0	0.0001215	140.141000032
1980.0	0.0001225	140.188000202
1980.0	0.0001233	140.219000101
1980.0	0.0001238	140.266000032
1980.0	0.000123	140.29700017
1980.0	0.000122	140.344000101
1980.0	0.000123	140.391000032
1980.0	0.0001233	140.42200017
1980.0	0.0001228	140.469000101
1980.0	0.0001218	140.516000032
1980.0	0.0001208	140.54700017
1980.0	0.00012	140.594000101
1980.0	0.00012	140.625
1980.0	0.00012	140.67200017
1980.0	0.0001203	140.719000101
1980.0	0.0001208	140.75
1980.0	0.0001228	140.79700017
1980.0	0.0001233	140.844000101
1980.0	0.000124	140.875
1980.0	0.000124	140.92200017
1990.0	0.0001258	141.219000101
1990.0	0.0001243	141.266000032
1990.0	0.0001228	141.313000202
1990.0	0.0001215	141.344000101
1990.0	0.0001203	141.391000032
1990.0	0.0001193	141.42200017
1990.0	0.000119	141.469000101
1990.0	0.00012	141.516000032
1990.0	0.0001193	141.54700017
1990.0	0.000119	141.594000101
1990.0	0.000119	141.641000032
1990.0	0.0001188	141.67200017
1990.0	0.000118	141.719000101
1990.0	0.0001178	141.766000032
1990.0	0.000118	141.79700017
1990.0	0.0001183	141.844000101
1990.0	0.0001183	141.875
1990.0	0.000119	141.92200017
1990.0	0.000119	141.969000101
1990.0	0.0001188	142.0
1990.0	0.000118	142.04700017
1990.0	0.0001178	142.094000101
1990.0	0.0001175	142.125
1990.0	0.0001183	142.17200017
1990.0	0.0001188	142.203000069
1990.0	0.0001203	142.25
1990.0	0.0001195	142.29700017
1990.0	0.000119	142.328000069
1990.0	0.0001183	142.375
1990.0	0.000118	142.42200017
1990.0	0.000118	142.453000069
1990.0	0.0001183	142.5
1990.0	0.0001178	142.532000065
1990.0	0.000117	142.578000069
1990.0	0.0001168	142.625
1990.0	0.000117	142.657000065
1990.0	0.0001183	142.703000069
2000.0	0.00012	143.0
2000.0	0.0001183	143.04700017
2000.0	0.0001178	143.094000101
2000.0	0.0001165	143.125
2000.0	0.0001165	143.17200017
2000.0	0.0001168	143.219000101
2000.0	0.0001175	143.25
2000.0	0.0001168	143.29700017
2000.0	0.0001163	143.328000069
2000.0	0.0001158	143.375
2000.0	0.000115	143.42200017
2000.0	0.000115	143.453000069
2000.0	0.0001158	143.5
2000.0	0.0001155	143.54700017
2000.0	0.0001145	143.578000069
2000.0	0.000115	143.625
2000.0	0.000115	143.657000065
2000.0	0.0001158	143.703000069
2000.0	0.0001165	143.75
2000.0	0.0001163	143.782000065
2000.0	0.0001165	143.828000069
2000.0	0.0001175	143.875
2000.0	0.0001175	143.907000065
2000.0	0.0001158	143.953000069
2000.0	0.0001145	143.985000134
2000.0	0.0001138	144.032000065
2000.0	0.0001125	144.078000069
2000.0	0.000112	144.110000134
2000.0	0.0001128	144.157000065
2000.0	0.0001128	144.203000069
2000.0	0.000114	144.235000134
2000.0	0.000114	144.282000065
2000.0	0.0001133	144.328000069
2000.0	0.000113	144.360000134
2000.0	0.000112	144.407000065
2000.0	0.000112	144.438000202
2000.0	0.0001128	144.485000134
2010.0	0.0001083	144.782000065
2010.0	0.0001093	144.828000069
2010.0	0.0001093	144.875
2010.0	0.0001083	144.907000065
2010.0	0.000107	144.953000069
2010.0	0.000107	145.0
2010.0	0.000107	145.032000065
2010.0	0.0001075	145.078000069
2010.0	0.0001065	145.125
2010.0	0.0001058	145.157000065
2010.0	0.0001068	145.203000069
2010.0	0.0001075	145.235000134
2010.0	0.000107	145.282000065
2010.0	0.0001058	145.328000069
2010.0	0.0001043	145.360000134
2010.0	0.000104	145.407000065
2010.0	0.000104	145.453000069
2010.0	0.0001033	145.485000134
2010.0	0.0001045	145.532000065
2010.0	0.0001058	145.563000202
2010.0	0.0001063	145.610000134
2010.0	0.0001075	145.657000065
2010.0	0.0001078	145.688000202
2010.0	0.000107	145.735000134
2010.0	0.0001065	145.782000065
2010.0	0.0001063	145.813000202
2010.0	0.000105	145.860000134
2010.0	0.0001045	145.891000032
2010.0	0.0001055	145.938000202
2010.0	0.0001065	145.985000134
2010.0	0.0001078	146.016000032
2010.0	0.0001088	146.063000202
2010.0	0.000109	146.110000134
2010.0	0.0001088	146.141000032
2010.0	0.0001083	146.188000202
2010.0	0.000108	146.219000101
2010.0	0.0001075	146.266000032
2020.0	0.0001053	146.563000202
2020.0	0.0001043	146.610000134
2020.0	0.0001038	146.657000065
2020.0	0.0001028	146.688000202
2020.0	0.0001025	146.735000134
2020.0	0.0001018	146.766000032
2020.0	0.0001013	146.813000202
2020.0	0.0001005	146.860000134
2020.0	0.0001	146.891000032
2020.0	9.95e-05	146.938000202
2020.0	9.93e-05	146.985000134
2020.0	9.9e-05	147.016000032
2020.0	9.9e-05	147.063000202
2020.0	0.0001003	147.094000101
2020.0	0.0001005	147.141000032
2020.0	0.0001003	147.188000202
2020.0	0.0001005	147.219000101
2020.0	0.0001005	147.266000032
2020.0	0.0001003	147.313000202
2020.0	0.0001008	147.344000101
2020.0	0.0001005	147.391000032
2020.0	9.95e-05	147.438000202
2020.0	0.0001	147.469000101
2020.0	0.0001005	147.516000032
2020.0	0.0001013	147.54700017
2020.0	0.0001015	147.594000101
2020.0	0.0001013	147.641000032
2020.0	0.0001013	147.67200017
2020.0	0.0001018	147.719000101
2020.0	0.0001013	147.766000032
2020.0	0.0001003	147.79700017
2020.0	0.0001	147.844000101
2020.0	0.0001008	147.875
2020.0	0.0001008	147.92200017
2020.0	0.0001008	147.969000101
2020.0	0.0001	148.0
2020.0	0.0001	148.04700017
2030.0	0.0001003	148.344000101
2030.0	9.88e-05	148.391000032
2030.0	9.68e-05	148.438000202
2030.0	9.55e-05	148.469000101
2030.0	9.58e-05	148.516000032
2030.0	9.65e-05	148.563000202
2030.0	9.63e-05	148.594000101
2030.0	9.68e-05	148.641000032
2030.0	9.65e-05	148.67200017
2030.0	9.68e-05	148.719000101
2030.0	9.65e-05	148.766000032
2030.0	9.5e-05	148.79700017
2030.0	9.3e-05	148.844000101
2030.0	9.15e-05	148.891000032
2030.0	9.18e-05	148.92200017
2030.0	9.25e-05	148.969000101
2030.0	9.28e-05	149.0
2030.0	9.28e-05	149.04700017
2030.0	9.28e-05	149.094000101
2030.0	9.33e-05	149.125
2030.0	9.4e-05	149.17200017
2030.0	9.5e-05	149.219000101
2030.0	9.63e-05	149.25
2030.0	9.68e-05	149.29700017
2030.0	9.63e-05	149.328000069
2030.0	9.5e-05	149.375
2030.0	9.2e-05	149.42200017
2030.0	9.05e-05	149.453000069
2030.0	8.95e-05	149.5
2030.0	9.08e-05	149.54700017
2030.0	9.15e-05	149.578000069
2030.0	9.18e-05	149.625
2030.0	9.28e-05	149.657000065
2030.0	9.43e-05	149.703000069
2030.0	9.5e-05	149.75
2030.0	9.63e-05	149.782000065
2030.0	9.58e-05	149.828000069
2040.0	9.13e-05	150.125
2040.0	9.15e-05	150.17200017
2040.0	9.13e-05	150.203000069
2040.0	8.95e-05	150.25
2040.0	8.93e-05	150.29700017
2040.0	9.03e-05	150.328000069
2040.0	9.13e-05	150.375
2040.0	9.05e-05	150.42200017
2040.0	8.9e-05	150.453000069
2040.0	8.83e-05	150.5
2040.0	8.78e-05	150.532000065
2040.0	8.83e-05	150.578000069
2040.0	9e-05	150.625
2040.0	9.2e-05	150.657000065
2040.0	9.33e-05	150.703000069
2040.0	9.4e-05	150.75
2040.0	9.33e-05	150.782000065
2040.0	9.25e-05	150.828000069
2040.0	9.13e-05	150.860000134
2040.0	8.9e-05	150.907000065
2040.0	8.8e-05	150.953000069
2040.0	8.65e-05	150.985000134
2040.0	8.38e-05	151.032000065
2040.0	8.15e-05	151.078000069
2040.0	8.18e-05	151.110000134
2040.0	8.08e-05	151.157000065
2040.0	8.08e-05	151.203000069
2040.0	8.18e-05	151.235000134
2040.0	8.3e-05	151.282000065
2040.0	8.43e-05	151.313000202
2040.0	8.65e-05	151.360000134
2040.0	8.88e-05	151.407000065
2040.0	8.93e-05	151.438000202
2040.0	8.88e-05	151.485000134
2040.0	8.88e-05	151.532000065
2040.0	8.68e-05	151.563000202
2040.0	8.55e-05	151.610000134
2050.0	8.38e-05	151.907000065
2050.0	8.38e-05	151.953000069
2050.0	8.33e-05	152.0
2050.0	8.3e-05	152.032000065
2050.0	8.2e-05	152.078000069
2050.0	8.13e-05	152.110000134
2050.0	8.13e-05	152.157000065
2050.0	8.25e-05	152.203000069
2050.0	8.2e-05	152.235000134
2050.0	8.18e-05	152.282000065
2050.0	8.08e-05	152.328000069
2050.0	7.95e-05	152.360000134
2050.0	7.83e-05	152.407000065
2050.0	7.83e-05	152.438000202
2050.0	7.88e-05	152.485000134
2050.0	7.93e-05	152.532000065
2050.0	7.88e-05	152.563000202
2050.0	7.88e-05	152.610000134
2050.0	8e-05	152.657000065
2050.0	8.03e-05	152.688000202
2050.0	8.05e-05	152.735000134
2050.0	8e-05	152.766000032
2050.0	7.95e-05	152.813000202
2050.0	8.03e-05	152.860000134
2050.0	8.03e-05	152.891000032
2050.0	8.05e-05	152.938000202
2050.0	7.93e-05	152.985000134
2050.0	7.8e-05	153.016000032
2050.0	7.8e-05	153.063000202
2050.0	7.88e-05	153.110000134
2050.0	8.03e-05	153.141000032
2050.0	8.13e-05	153.188000202
2050.0	8.03e-05	153.219000101
2050.0	7.9e-05	153.266000032
2050.0	7.9e-05	153.313000202
2050.0	8e-05	153.344000101
2050.0	7.93e-05	153.391000032
2060.0	7.93e-05	153.703000069
2060.0	7.88e-05	153.735000134
2060.0	7.78e-05	153.782000065
2060.0	7.75e-05	153.828000069
2060.0	7.78e-05	153.860000134
2060.0	7.75e-05	153.907000065
2060.0	7.7e-05	153.938000202
2060.0	7.68e-05	153.985000134
2060.0	7.65e-05	154.032000065
2060.0	7.7e-05	154.063000202
2060.0	7.88e-05	154.110000134
2060.0	8.03e-05	154.157000065
2060.0	8.05e-05	154.188000202
2060.0	8.05e-05	154.235000134
2060.0	8e-05	154.266000032
2060.0	7.88e-05	154.313000202
2060.0	7.7e-05	154.360000134
2060.0	7.68e-05	154.391000032
2060.0	7.78e-05	154.438000202
2060.0	7.88e-05	154.485000134
2060.0	7.9e-05	154.516000032
2060.0	8e-05	154.563000202
2060.0	7.95e-05	154.610000134
2060.0	7.9e-05	154.641000032
2060.0	7.75e-05	154.688000202
2060.0	7.63e-05	154.719000101
2060.0	7.5e-05	154.766000032
2060.0	7.5e-05	154.813000202
2060.0	7.55e-05	154.844000101
2060.0	7.63e-05	154.891000032
2060.0	7.63e-05	154.938000202
2060.0	7.63e-05	154.969000101
2060.0	7.7e-05	155.016000032
2060.0	7.83e-05	155.04700017
2060.0	7.93e-05	155.094000101
2060.0	7.88e-05	155.141000032
2060.0	7.88e-05	155.17200017
2070.0	7.45e-05	155.485000134
2070.0	7.43e-05	155.532000065
2070.0	7.38e-05	155.563000202
2070.0	7.38e-05	155.610000134
2070.0	7.3e-05	155.657000065
2070.0	7.2e-05	155.688000202
2070.0	7.28e-05	155.735000134
2070.0	7.33e-05	155.766000032
2070.0	7.4e-05	155.813000202
2070.0	7.53e-05	155.860000134
2070.0	7.58e-05	155.891000032
2070.0	7.68e-05	155.938000202
2070.0	7.68e-05	155.985000134
2070.0	7.68e-05	156.016000032
2070.0	7.7e-05	156.063000202
2070.0	7.8e-05	156.094000101
2070.0	7.78e-05	156.141000032
2070.0	7.78e-05	156.188000202
2070.0	7.65e-05	156.219000101
2070.0	7.58e-05	156.266000032
2070.0	7.3e-05	156.313000202
2070.0	7.18e-05	156.344000101
2070.0	7.25e-05	156.391000032
2070.0	7.33e-05	156.42200017
2070.0	7.43e-05	156.469000101
2070.0	7.55e-05	156.516000032
2070.0	7.63e-05	156.54700017
2070.0	7.63e-05	156.594000101
2070.0	7.58e-05	156.641000032
2070.0	7.63e-05	156.67200017
2070.0	7.68e-05	156.719000101
2070.0	7.7e-05	156.75
2070.0	7.68e-05	156.79700017
2070.0	7.55e-05	156.844000101
2070.0	7.38e-05	156.875
2070.0	7.3e-05	156.92200017
2070.0	7.3e-05	156.969000101
2080.0	7.4e-05	157.266000032
2080.0	7.4e-05	157.313000202
2080.0	7.33e-05	157.360000134
2080.0	7.25e-05	157.391000032
2080.0	7.2e-05	157.438000202
2080.0	7.15e-05	157.469000101
2080.0	7.15e-05	157.516000032
2080.0	7.2e-05	157.563000202
2080.0	7.25e-05	157.594000101
2080.0	7.25e-05	157.641000032
2080.0	7.28e-05	157.688000202
2080.0	7.2e-05	157.735000134
2080.0	7.18e-05	157.766000032
2080.0	7.13e-05	157.813000202
2080.0	7.13e-05	157.844000101
2080.0	7.13e-05	157.891000032
2080.0	7.03e-05	157.938000202
2080.0	6.95e-05	157.969000101
2080.0	7.08e-05	158.016000032
2080.0	7.25e-05	158.063000202
2080.0	7.3e-05	158.094000101
2080.0	7.25e-05	158.141000032
2080.0	7.2e-05	158.17200017
2080.0	7.15e-05	158.219000101
2080.0	7.15e-05	158.266000032
2080.0	7.18e-05	158.29700017
2080.0	7.13e-05	158.344000101
2080.0	7.05e-05	158.391000032
2080.0	6.9e-05	158.42200017
2080.0	6.8e-05	158.469000101
2080.0	6.75e-05	158.5
2080.0	6.7e-05	158.54700017
2080.0	6.8e-05	158.594000101
2080.0	6.83e-05	158.625
2080.0	6.9e-05	158.67200017
2080.0	6.95e-05	158.719000101
2080.0	7.08e-05	158.75
2090.0	6.83e-05	159.063000202
2090.0	6.7e-05	159.110000134
2090.0	6.7e-05	159.141000032
2090.0	6.68e-05	159.188000202
2090.0	6.68e-05	159.235000134
2090.0	6.65e-05	159.266000032
2090.0	6.7e-05	159.313000202
2090.0	6.65e-05	159.360000134
2090.0	6.63e-05	159.391000032
2090.0	6.58e-05	159.438000202
2090.0	6.53e-05	159.485000134
2090.0	6.45e-05	159.516000032
2090.0	6.43e-05	159.563000202
2090.0	6.43e-05	159.594000101
2090.0	6.43e-05	159.641000032
2090.0	6.53e-05	159.688000202
2090.0	6.58e-05	159.719000101
2090.0	6.5e-05	159.766000032
2090.0	6.53e-05	159.813000202
2090.0	6.43e-05	159.844000101
2090.0	6.4e-05	159.891000032
2090.0	6.38e-05	159.92200017
2090.0	6.33e-05	159.969000101
2090.0	6.4e-05	160.016000032
2090.0	6.45e-05	160.04700017
2090.0	6.45e-05	160.094000101
2090.0	6.45e-05	160.141000032
2090.0	6.45e-05	160.17200017
2090.0	6.5e-05	160.219000101
2090.0	6.58e-05	160.25
2090.0	6.65e-05	160.29700017
2090.0	6.68e-05	160.344000101
2090.0	6.68e-05	160.375
2090.0	6.7e-05	160.42200017
2090.0	6.78e-05	160.469000101
2090.0	6.83e-05	160.5
2090.0	6.8e-05	160.54700017
2100.0	6.95e-05	160.860000134
2100.0	6.83e-05	160.891000032
2100.0	6.68e-05	160.938000202
2100.0	6.45e-05	160.969000101
2100.0	6.25e-05	161.016000032
2100.0	6.15e-05	161.063000202
2100.0	6.08e-05	161.094000101
2100.0	6e-05	161.141000032
2100.0	6.08e-05	161.188000202
2100.0	6.25e-05	161.219000101
2100.0	6.38e-05	161.266000032
2100.0	6.45e-05	161.29700017
2100.0	6.55e-05	161.344000101
2100.0	6.63e-05	161.391000032
2100.0	6.53e-05	161.42200017
2100.0	6.4e-05	161.469000101
2100.0	6.33e-05	161.516000032
2100.0	6.15e-05	161.54700017
2100.0	6.08e-05	161.594000101
2100.0	6.15e-05	161.641000032
2100.0	6.15e-05	161.67200017
2100.0	6.13e-05	161.719000101
2100.0	6.13e-05	161.75
2100.0	6.05e-05	161.79700017
2100.0	6e-05	161.844000101
2100.0	6e-05	161.875
2100.0	6.05e-05	161.92200017
2100.0	6.08e-05	161.953000069
2100.0	6.15e-05	162.0
2100.0	6.28e-05	162.04700017
2100.0	6.33e-05	162.078000069
2100.0	6.33e-05	162.125
2100.0	6.28e-05	162.17200017
2100.0	6.13e-05	162.203000069
2100.0	6.08e-05	162.25
2100.0	6.08e-05	162.29700017
2100.0	6.08e-05	162.328000069
2110.0	6.05e-05	162.641000032
2110.0	6.13e-05	162.688000202
2110.0	6.15e-05	162.735000134
2110.0	6.08e-05	162.766000032
2110.0	6.18e-05	162.813000202
2110.0	6.15e-05	162.860000134
2110.0	6.13e-05	162.891000032
2110.0	6.08e-05	162.938000202
2110.0	5.93e-05	162.969000101
2110.0	5.75e-05	163.016000032
2110.0	5.75e-05	163.063000202
2110.0	5.68e-05	163.094000101
2110.0	5.53e-05	163.141000032
2110.0	5.5e-05	163.188000202
2110.0	5.63e-05	163.219000101
2110.0	5.68e-05	163.266000032
2110.0	5.75e-05	163.29700017
2110.0	5.8e-05	163.344000101
2110.0	5.83e-05	163.391000032
2110.0	5.88e-05	163.42200017
2110.0	5.8e-05	163.469000101
2110.0	5.75e-05	163.516000032
2110.0	5.68e-05	163.54700017
2110.0	5.68e-05	163.594000101
2110.0	5.7e-05	163.641000032
2110.0	5.75e-05	163.67200017
2110.0	5.8e-05	163.719000101
2110.0	5.88e-05	163.75
2110.0	5.88e-05	163.79700017
2110.0	5.88e-05	163.844000101
2110.0	5.93e-05	163.875
2110.0	5.93e-05	163.92200017
2110.0	6.05e-05	163.953000069
2110.0	6.13e-05	164.0
2110.0	6.25e-05	164.04700017
2110.0	6.28e-05	164.078000069
2110.0	6.25e-05	164.125
2120.0	5.7e-05	164.438000202
2120.0	5.7e-05	164.485000134
2120.0	5.65e-05	164.532000065
2120.0	5.55e-05	164.563000202
2120.0	5.58e-05	164.610000134
2120.0	5.55e-05	164.641000032
2120.0	5.5e-05	164.688000202
2120.0	5.53e-05	164.735000134
2120.0	5.58e-05	164.766000032
2120.0	5.63e-05	164.813000202
2120.0	5.63e-05	164.860000134
2120.0	5.65e-05	164.891000032
2120.0	5.65e-05	164.938000202
2120.0	5.68e-05	164.969000101
2120.0	5.58e-05	165.016000032
2120.0	5.5e-05	165.063000202
2120.0	5.4e-05	165.094000101
2120.0	5.4e-05	165.141000032
2120.0	5.4e-05	165.188000202
2120.0	5.43e-05	165.219000101
2120.0	5.43e-05	165.266000032
2120.0	5.5e-05	165.313000202
2120.0	5.53e-05	165.344000101
2120.0	5.58e-05	165.391000032
2120.0	5.58e-05	165.42200017
2120.0	5.5e-05	165.469000101
2120.0	5.38e-05	165.516000032
2120.0	5.3e-05	165.54700017
2120.0	5.25e-05	165.594000101
2120.0	5.3e-05	165.641000032
2120.0	5.45e-05	165.67200017
2120.0	5.53e-05	165.719000101
2120.0	5.53e-05	165.75
2120.0	5.55e-05	165.79700017
2120.0	5.5e-05	165.844000101
2120.0	5.4e-05	165.875
2120.0	5.43e-05	165.92200017
2130.0	5.68e-05	166.235000134
2130.0	5.65e-05	166.282000065
2130.0	5.58e-05	166.313000202
2130.0	5.43e-05	166.360000134
2130.0	5.2e-05	166.407000065
2130.0	5.13e-05	166.438000202
2130.0	5.28e-05	166.485000134
2130.0	5.43e-05	166.532000065
2130.0	5.45e-05	166.563000202
2130.0	5.4e-05	166.610000134
2130.0	5.53e-05	166.641000032
2130.0	5.68e-05	166.688000202
2130.0	5.75e-05	166.735000134
2130.0	5.88e-05	166.766000032
2130.0	5.83e-05	166.813000202
2130.0	5.88e-05	166.860000134
2130.0	5.88e-05	166.891000032
2130.0	5.75e-05	166.938000202
2130.0	5.63e-05	166.969000101
2130.0	5.53e-05	167.016000032
2130.0	5.55e-05	167.063000202
2130.0	5.63e-05	167.094000101
2130.0	5.63e-05	167.141000032
2130.0	5.53e-05	167.188000202
2130.0	5.53e-05	167.219000101
2130.0	5.45e-05	167.266000032
2130.0	5.43e-05	167.313000202
2130.0	5.38e-05	167.344000101
2130.0	5.33e-05	167.391000032
2130.0	5.38e-05	167.42200017
2130.0	5.45e-05	167.469000101
2130.0	5.55e-05	167.516000032
2130.0	5.55e-05	167.54700017
2130.0	5.68e-05	167.594000101
2130.0	5.7e-05	167.641000032
2130.0	5.65e-05	167.67200017
2130.0	5.7e-05	167.719000101
2140.0	5.78e-05	168.032000065
2140.0	5.75e-05	168.078000069
2140.0	5.65e-05	168.125
2140.0	5.53e-05	168.157000065
2140.0	5.45e-05	168.203000069
2140.0	5.45e-05	168.235000134
2140.0	5.43e-05	168.282000065
2140.0	5.4e-05	168.328000069
2140.0	5.33e-05	168.360000134
2140.0	5.25e-05	168.407000065
2140.0	5.2e-05	168.453000069
2140.0	5.18e-05	168.485000134
2140.0	5.15e-05	168.532000065
2140.0	5.08e-05	168.563000202
2140.0	4.95e-05	168.610000134
2140.0	4.93e-05	168.657000065
2140.0	5e-05	168.688000202
2140.0	4.95e-05	168.735000134
2140.0	4.95e-05	168.782000065
2140.0	5.05e-05	168.813000202
2140.0	5.05e-05	168.860000134
2140.0	5.15e-05	168.907000065
2140.0	5.2e-05	168.938000202
2140.0	5.2e-05	168.985000134
2140.0	5.18e-05	169.016000032
2140.0	5.3e-05	169.063000202
2140.0	5.4e-05	169.110000134
2140.0	5.28e-05	169.141000032
2140.0	5.18e-05	169.188000202
2140.0	5.05e-05	169.235000134
2140.0	4.95e-05	169.266000032
2140.0	5e-05	169.313000202
2140.0	5.13e-05	169.344000101
2140.0	5.28e-05	169.391000032
2140.0	5.43e-05	169.438000202
2140.0	5.55e-05	169.469000101
2140.0	5.5e-05	169.516000032
2150.0	5.33e-05	169.828000069
2150.0	5.3e-05	169.875
2150.0	5.3e-05	169.92200017
2150.0	5.15e-05	169.953000069
2150.0	4.95e-05	170.0
2150.0	4.93e-05	170.04700017
2150.0	4.93e-05	170.078000069
2150.0	5.08e-05	170.125
2150.0	5.13e-05	170.157000065
2150.0	5.13e-05	170.203000069
2150.0	5.05e-05	170.25
2150.0	5.08e-05	170.282000065
2150.0	5.13e-05	170.328000069
2150.0	5.18e-05	170.375
2150.0	5.25e-05	170.407000065
2150.0	5.28e-05	170.453000069
2150.0	5.28e-05	170.485000134
2150.0	5.25e-05	170.532000065
2150.0	5.3e-05	170.578000069
2150.0	5.28e-05	170.610000134
2150.0	5.13e-05	170.657000065
2150.0	5e-05	170.703000069
2150.0	4.95e-05	170.735000134
2150.0	5e-05	170.782000065
2150.0	4.88e-05	170.813000202
2150.0	4.78e-05	170.860000134
2150.0	4.75e-05	170.907000065
2150.0	4.75e-05	170.938000202
2150.0	4.78e-05	170.985000134
2150.0	4.78e-05	171.032000065
2150.0	4.78e-05	171.063000202
2150.0	4.88e-05	171.110000134
2150.0	4.78e-05	171.157000065
2150.0	4.9e-05	171.188000202
2150.0	5.15e-05	171.235000134
2150.0	5.18e-05	171.266000032
2150.0	5.18e-05	171.313000202
2160.0	5.25e-05	171.641000032
2160.0	5.25e-05	171.67200017
2160.0	5.2e-05	171.719000101
2160.0	5.2e-05	171.766000032
2160.0	5.18e-05	171.79700017
2160.0	5.18e-05	171.844000101
2160.0	5.13e-05	171.891000032
2160.0	5.03e-05	171.92200017
2160.0	4.9e-05	171.969000101
2160.0	4.83e-05	172.0
2160.0	4.78e-05	172.04700017
2160.0	4.7e-05	172.094000101
2160.0	4.78e-05	172.125
2160.0	4.83e-05	172.17200017
2160.0	4.93e-05	172.219000101
2160.0	4.9e-05	172.25
2160.0	4.9e-05	172.29700017
2160.0	4.88e-05	172.328000069
2160.0	4.83e-05	172.375
2160.0	4.8e-05	172.42200017
2160.0	4.65e-05	172.453000069
2160.0	4.53e-05	172.5
2160.0	4.45e-05	172.54700017
2160.0	4.4e-05	172.578000069
2160.0	4.43e-05	172.625
2160.0	4.55e-05	172.657000065
2160.0	4.63e-05	172.703000069
2160.0	4.65e-05	172.75
2160.0	4.75e-05	172.782000065
2160.0	4.83e-05	172.828000069
2160.0	4.9e-05	172.875
2160.0	5e-05	172.907000065
2160.0	5.15e-05	172.953000069
2160.0	5.18e-05	173.0
2160.0	5.13e-05	173.032000065
2160.0	5.03e-05	173.078000069
2160.0	4.9e-05	173.110000134
2170.0	4.65e-05	173.438000202
2170.0	4.55e-05	173.485000134
2170.0	4.5e-05	173.516000032
2170.0	4.43e-05	173.563000202
2170.0	4.5e-05	173.610000134
2170.0	4.43e-05	173.641000032
2170.0	4.33e-05	173.688000202
2170.0	4.3e-05	173.735000134
2170.0	4.43e-05	173.766000032
2170.0	4.55e-05	173.813000202
2170.0	4.55e-05	173.860000134
2170.0	4.45e-05	173.891000032
2170.0	4.43e-05	173.938000202
2170.0	4.28e-05	173.969000101
2170.0	4.18e-05	174.016000032
2170.0	4.2e-05	174.063000202
2170.0	4.18e-05	174.094000101
2170.0	4.25e-05	174.141000032
2170.0	4.33e-05	174.188000202
2170.0	4.43e-05	174.219000101
2170.0	4.45e-05	174.266000032
2170.0	4.45e-05	174.29700017
2170.0	4.53e-05	174.344000101
2170.0	4.65e-05	174.391000032
2170.0	4.78e-05	174.42200017
2170.0	4.83e-05	174.469000101
2170.0	4.7e-05	174.516000032
2170.0	4.58e-05	174.54700017
2170.0	4.43e-05	174.594000101
2170.0	4.38e-05	174.625
2170.0	4.33e-05	174.67200017
2170.0	4.3e-05	174.719000101
2170.0	4.33e-05	174.75
2170.0	4.28e-05	174.79700017
2170.0	4.33e-05	174.844000101
2170.0	4.43e-05	174.875
2170.0	4.53e-05	174.92200017
2180.0	4.2e-05	175.25
2180.0	4.08e-05	175.282000065
2180.0	4.08e-05	175.328000069
2180.0	4.18e-05	175.375
2180.0	4.28e-05	175.407000065
2180.0	4.33e-05	175.453000069
2180.0	4.38e-05	175.5
2180.0	4.43e-05	175.532000065
2180.0	4.45e-05	175.578000069
2180.0	4.43e-05	175.625
2180.0	4.33e-05	175.657000065
2180.0	4.25e-05	175.703000069
2180.0	4.2e-05	175.735000134
2180.0	4.28e-05	175.782000065
2180.0	4.38e-05	175.828000069
2180.0	4.43e-05	175.860000134
2180.0	4.43e-05	175.907000065
2180.0	4.43e-05	175.953000069
2180.0	4.38e-05	175.985000134
2180.0	4.33e-05	176.032000065
2180.0	4.3e-05	176.063000202
2180.0	4.25e-05	176.110000134
2180.0	4.08e-05	176.157000065
2180.0	4e-05	176.188000202
2180.0	3.93e-05	176.235000134
2180.0	3.93e-05	176.282000065
2180.0	4e-05	176.313000202
2180.0	4.05e-05	176.360000134
2180.0	4.2e-05	176.391000032
2180.0	4.28e-05	176.438000202
2180.0	4.33e-05	176.485000134
2180.0	4.38e-05	176.516000032
2180.0	4.38e-05	176.563000202
2180.0	4.3e-05	176.610000134
2180.0	4.28e-05	176.641000032
2180.0	4.18e-05	176.688000202
2180.0	4.08e-05	176.735000134
2190.0	3.68e-05	177.063000202
2190.0	3.75e-05	177.094000101
2190.0	3.78e-05	177.141000032
2190.0	3.75e-05	177.17200017
2190.0	3.7e-05	177.219000101
2190.0	3.68e-05	177.266000032
2190.0	3.65e-05	177.29700017
2190.0	3.63e-05	177.344000101
2190.0	3.63e-05	177.391000032
2190.0	3.63e-05	177.42200017
2190.0	3.7e-05	177.469000101
2190.0	3.65e-05	177.5
2190.0	3.65e-05	177.54700017
2190.0	3.63e-05	177.594000101
2190.0	3.53e-05	177.625
2190.0	3.53e-05	177.67200017
2190.0	3.55e-05	177.719000101
2190.0	3.63e-05	177.75
2190.0	3.65e-05	177.79700017
2190.0	3.55e-05	177.828000069
2190.0	3.63e-05	177.875
2190.0	3.7e-05	177.92200017
2190.0	3.75e-05	177.953000069
2190.0	3.95e-05	178.0
2190.0	4.03e-05	178.04700017
2190.0	4.13e-05	178.078000069
2190.0	4.05e-05	178.125
2190.0	4.03e-05	178.157000065
2190.0	3.93e-05	178.203000069
2190.0	3.88e-05	178.25
2190.0	3.8e-05	178.282000065
2190.0	3.68e-05	178.328000069
2190.0	3.63e-05	178.375
2190.0	3.68e-05	178.407000065
2190.0	3.8e-05	178.453000069
2190.0	3.93e-05	178.5
2190.0	3.93e-05	178.532000065
2200.0	3.65e-05	178.860000134
2200.0	3.53e-05	178.907000065
2200.0	3.45e-05	178.953000069
2200.0	3.45e-05	178.985000134
2200.0	3.53e-05	179.032000065
2200.0	3.45e-05	179.078000069
2200.0	3.4e-05	179.110000134
2200.0	3.38e-05	179.157000065
2200.0	3.43e-05	179.203000069
2200.0	3.4e-05	179.235000134
2200.0	3.38e-05	179.282000065
2200.0	3.3e-05	179.313000202
2200.0	3.28e-05	179.360000134
2200.0	3.25e-05	179.407000065
2200.0	3.28e-05	179.438000202
2200.0	3.4e-05	179.485000134
2200.0	3.53e-05	179.532000065
2200.0	3.55e-05	179.563000202
2200.0	3.53e-05	179.610000134
2200.0	3.55e-05	179.641000032
2200.0	3.63e-05	179.688000202
2200.0	3.63e-05	179.735000134
2200.0	3.58e-05	179.766000032
2200.0	3.45e-05	179.813000202
2200.0	3.4e-05	179.860000134
2200.0	3.4e-05	179.891000032
2200.0	3.33e-05	179.938000202
2200.0	3.38e-05	179.969000101
2200.0	3.5e-05	180.016000032
2200.0	3.58e-05	180.063000202
2200.0	3.7e-05	180.094000101
2200.0	3.8e-05	180.141000032
2200.0	3.75e-05	180.188000202
2200.0	3.7e-05	180.219000101
2200.0	3.7e-05	180.266000032
2200.0	3.68e-05	180.29700017
2200.0	3.63e-05	180.344000101
2210.0	2.95e-05	180.67200017
2210.0	2.88e-05	180.719000101
2210.0	2.78e-05	180.766000032
2210.0	2.75e-05	180.79700017
2210.0	2.75e-05	180.844000101
2210.0	2.88e-05	180.891000032
2210.0	2.93e-05	180.92200017
2210.0	3e-05	180.969000101
2210.0	3.03e-05	181.0
2210.0	3e-05	181.04700017
2210.0	2.93e-05	181.094000101
2210.0	3e-05	181.125
2210.0	3.13e-05	181.17200017
2210.0	3.13e-05	181.219000101
2210.0	3.18e-05	181.25
2210.0	3.2e-05	181.29700017
2210.0	3.2e-05	181.328000069
2210.0	3.18e-05	181.375
2210.0	3.25e-05	181.42200017
2210.0	3.33e-05	181.453000069
2210.0	3.25e-05	181.5
2210.0	3.18e-05	181.54700017
2210.0	3.13e-05	181.578000069
2210.0	3.08e-05	181.625
2210.0	3.03e-05	181.657000065
2210.0	3.05e-05	181.703000069
2210.0	3.05e-05	181.75
2210.0	3.13e-05	181.782000065
2210.0	3.13e-05	181.828000069
2210.0	3.03e-05	181.875
2210.0	2.88e-05	181.907000065
2210.0	2.75e-05	181.953000069
2210.0	2.75e-05	182.0
2210.0	2.68e-05	182.032000065
2210.0	2.75e-05	182.078000069
2210.0	2.9e-05	182.110000134
2210.0	3.08e-05	182.157000065
2220.0	3.65e-05	182.5
2220.0	3.63e-05	182.532000065
2220.0	3.45e-05	182.578000069
2220.0	3.38e-05	182.610000134
2220.0	3.28e-05	182.657000065
2220.0	3.2e-05	182.703000069
2220.0	3.28e-05	182.735000134
2220.0	3.3e-05	182.782000065
2220.0	3.3e-05	182.828000069
2220.0	3.25e-05	182.860000134
2220.0	3.05e-05	182.907000065
2220.0	2.95e-05	182.938000202
2220.0	2.9e-05	182.985000134
2220.0	2.9e-05	183.032000065
2220.0	2.93e-05	183.063000202
2220.0	3.13e-05	183.110000134
2220.0	3.08e-05	183.157000065
2220.0	3e-05	183.188000202
2220.0	2.9e-05	183.235000134
2220.0	2.78e-05	183.282000065
2220.0	2.75e-05	183.313000202
2220.0	2.83e-05	183.360000134
2220.0	2.9e-05	183.391000032
2220.0	3.03e-05	183.438000202
2220.0	3.05e-05	183.485000134
2220.0	3.03e-05	183.516000032
2220.0	3.03e-05	183.563000202
2220.0	3.03e-05	183.610000134
2220.0	3.08e-05	183.641000032
2220.0	3.08e-05	183.688000202
2220.0	3.03e-05	183.719000101
2220.0	2.95e-05	183.766000032
2220.0	2.83e-05	183.813000202
2220.0	2.83e-05	183.844000101
2220.0	2.8e-05	183.891000032
2220.0	2.78e-05	183.938000202
2220.0	2.7e-05	183.969000101
2230.0	2.95e-05	184.313000202
2230.0	3e-05	184.360000134
2230.0	2.93e-05	184.391000032
2230.0	2.83e-05	184.438000202
2230.0	2.88e-05	184.485000134
2230.0	2.88e-05	184.516000032
2230.0	2.93e-05	184.563000202
2230.0	3.08e-05	184.594000101
2230.0	3.18e-05	184.641000032
2230.0	3.25e-05	184.688000202
2230.0	3.3e-05	184.719000101
2230.0	3.25e-05	184.766000032
2230.0	3.08e-05	184.813000202
2230.0	3.03e-05	184.844000101
2230.0	2.95e-05	184.891000032
2230.0	2.9e-05	184.92200017
2230.0	2.83e-05	184.969000101
2230.0	2.75e-05	185.016000032
2230.0	2.75e-05	185.04700017
2230.0	2.75e-05	185.094000101
2230.0	2.75e-05	185.141000032
2230.0	2.88e-05	185.17200017
2230.0	2.93e-05	185.219000101
2230.0	3e-05	185.266000032
2230.0	2.88e-05	185.29700017
2230.0	2.7e-05	185.344000101
2230.0	2.68e-05	185.375
2230.0	2.65e-05	185.42200017
2230.0	2.58e-05	185.469000101
2230.0	2.58e-05	185.5
2230.0	2.53e-05	185.54700017
2230.0	2.4e-05	185.578000069
2230.0	2.3e-05	185.625
2230.0	2.25e-05	185.67200017
2230.0	2.2e-05	185.703000069
2230.0	2.28e-05	185.75
2230.0	2.3e-05	185.79700017
2240.0	2.3e-05	186.125
2240.0	2.3e-05	186.17200017
2240.0	2.33e-05	186.203000069
2240.0	2.33e-05	186.25
2240.0	2.43e-05	186.29700017
2240.0	2.55e-05	186.328000069
2240.0	2.68e-05	186.375
2240.0	2.68e-05	186.42200017
2240.0	2.7e-05	186.453000069
2240.0	2.65e-05	186.5
2240.0	2.63e-05	186.532000065
2240.0	2.5e-05	186.578000069
2240.0	2.45e-05	186.625
2240.0	2.45e-05	186.657000065
2240.0	2.53e-05	186.703000069
2240.0	2.58e-05	186.75
2240.0	2.63e-05	186.782000065
2240.0	2.53e-05	186.828000069
2240.0	2.43e-05	186.860000134
2240.0	2.33e-05	186.907000065
2240.0	2.4e-05	186.953000069
2240.0	2.5e-05	186.985000134
2240.0	2.58e-05	187.032000065
2240.0	2.63e-05	187.078000069
2240.0	2.53e-05	187.110000134
2240.0	2.5e-05	187.157000065
2240.0	2.5e-05	187.203000069
2240.0	2.58e-05	187.235000134
2240.0	2.65e-05	187.282000065
2240.0	2.7e-05	187.313000202
2240.0	2.65e-05	187.360000134
2240.0	2.5e-05	187.407000065
2240.0	2.45e-05	187.438000202
2240.0	2.53e-05	187.485000134
2240.0	2.43e-05	187.532000065
2240.0	2.33e-05	187.563000202
2240.0	2.33e-05	187.610000134
2250.0	2.68e-05	187.953000069
2250.0	2.9e-05	187.985000134
2250.0	3.05e-05	188.032000065
2250.0	3.08e-05	188.078000069
2250.0	3.03e-05	188.110000134
2250.0	2.93e-05	188.157000065
2250.0	2.83e-05	188.188000202
2250.0	2.75e-05	188.235000134
2250.0	2.65e-05	188.282000065
2250.0	2.58e-05	188.313000202
2250.0	2.45e-05	188.360000134
2250.0	2.38e-05	188.407000065
2250.0	2.28e-05	188.438000202
2250.0	2.25e-05	188.485000134
2250.0	2.15e-05	188.516000032
2250.0	2.13e-05	188.563000202
2250.0	2.13e-05	188.610000134
2250.0	2.18e-05	188.641000032
2250.0	2.25e-05	188.688000202
2250.0	2.28e-05	188.735000134
2250.0	2.33e-05	188.766000032
2250.0	2.28e-05	188.813000202
2250.0	2.2e-05	188.844000101
2250.0	2.08e-05	188.891000032
2250.0	1.93e-05	188.938000202
2250.0	1.83e-05	188.969000101
2250.0	1.83e-05	189.016000032
2250.0	1.8e-05	189.063000202
2250.0	1.75e-05	189.094000101
2250.0	1.8e-05	189.141000032
2250.0	1.88e-05	189.188000202
2250.0	2e-05	189.219000101
2250.0	2.15e-05	189.266000032
2250.0	2.28e-05	189.29700017
2250.0	2.38e-05	189.344000101
2250.0	2.33e-05	189.391000032
2250.0	2.4e-05	189.42200017
2260.0	2.55e-05	189.766000032
2260.0	2.68e-05	189.79700017
2260.0	2.7e-05	189.844000101
2260.0	2.68e-05	189.891000032
2260.0	2.75e-05	189.92200017
2260.0	2.7e-05	189.969000101
2260.0	2.7e-05	190.016000032
2260.0	2.7e-05	190.04700017
2260.0	2.63e-05	190.094000101
2260.0	2.58e-05	190.141000032
2260.0	2.68e-05	190.17200017
2260.0	2.78e-05	190.219000101
2260.0	2.83e-05	190.25
2260.0	2.88e-05	190.29700017
2260.0	2.88e-05	190.344000101
2260.0	2.7e-05	190.375
2260.0	2.63e-05	190.42200017
2260.0	2.63e-05	190.453000069
2260.0	2.55e-05	190.5
2260.0	2.63e-05	190.54700017
2260.0	2.68e-05	190.578000069
2260.0	2.8e-05	190.625
2260.0	2.8e-05	190.67200017
2260.0	2.88e-05	190.703000069
2260.0	2.8e-05	190.75
2260.0	2.75e-05	190.79700017
2260.0	2.7e-05	190.828000069
2260.0	2.75e-05	190.875
2260.0	2.68e-05	190.907000065
2260.0	2.58e-05	190.953000069
2260.0	2.55e-05	191.0
2260.0	2.53e-05	191.032000065
2260.0	2.5e-05	191.078000069
2260.0	2.5e-05	191.125
2260.0	2.43e-05	191.157000065
2260.0	2.33e-05	191.203000069
2260.0	2.3e-05	191.235000134
2270.0	2.63e-05	191.578000069
2270.0	2.65e-05	191.625
2270.0	2.63e-05	191.657000065
2270.0	2.58e-05	191.703000069
2270.0	2.7e-05	191.75
2270.0	2.78e-05	191.782000065
2270.0	2.83e-05	191.828000069
2270.0	3e-05	191.860000134
2270.0	3.08e-05	191.907000065
2270.0	3.05e-05	191.953000069
2270.0	3.08e-05	191.985000134
2270.0	3.05e-05	192.032000065
2270.0	2.93e-05	192.078000069
2270.0	2.88e-05	192.110000134
2270.0	2.8e-05	192.157000065
2270.0	2.7e-05	192.188000202
2270.0	2.65e-05	192.235000134
2270.0	2.63e-05	192.282000065
2270.0	2.58e-05	192.313000202
2270.0	2.55e-05	192.360000134
2270.0	2.55e-05	192.407000065
2270.0	2.45e-05	192.438000202
2270.0	2.43e-05	192.485000134
2270.0	2.43e-05	192.516000032
2270.0	2.58e-05	192.563000202
2270.0	2.65e-05	192.610000134
2270.0	2.75e-05	192.641000032
2270.0	2.75e-05	192.688000202
2270.0	2.7e-05	192.735000134
2270.0	2.78e-05	192.766000032
2270.0	2.88e-05	192.813000202
2270.0	3e-05	192.860000134
2270.0	3e-05	192.891000032
2270.0	2.93e-05	192.938000202
2270.0	2.9e-05	192.969000101
2270.0	2.95e-05	193.016000032
2270.0	2.9e-05	193.063000202
2280.0	2.55e-05	193.391000032
2280.0	2.55e-05	193.438000202
2280.0	2.63e-05	193.469000101
2280.0	2.63e-05	193.532000065
2280.0	2.58e-05	193.563000202
2280.0	2.58e-05	193.610000134
2280.0	2.65e-05	193.641000032
2280.0	2.7e-05	193.688000202
2280.0	2.83e-05	193.735000134
2280.0	2.95e-05	193.766000032
2280.0	3.08e-05	193.813000202
2280.0	3e-05	193.860000134
2280.0	2.93e-05	193.891000032
2280.0	3e-05	193.938000202
2280.0	3.05e-05	193.985000134
2280.0	3e-05	194.016000032
2280.0	2.88e-05	194.063000202
2280.0	2.78e-05	194.094000101
2280.0	2.65e-05	194.141000032
2280.0	2.55e-05	194.188000202
2280.0	2.53e-05	194.219000101
2280.0	2.5e-05	194.266000032
2280.0	2.55e-05	194.313000202
2280.0	2.63e-05	194.344000101
2280.0	2.75e-05	194.391000032
2280.0	2.88e-05	194.42200017
2280.0	2.95e-05	194.469000101
2280.0	3.03e-05	194.516000032
2280.0	3.03e-05	194.54700017
2280.0	2.95e-05	194.594000101
2280.0	2.95e-05	194.641000032
2280.0	2.93e-05	194.67200017
2280.0	2.83e-05	194.719000101
2280.0	2.7e-05	194.766000032
2280.0	2.63e-05	194.79700017
2280.0	2.5e-05	194.844000101
2290.0	2.38e-05	195.17200017
2290.0	2.43e-05	195.219000101
2290.0	2.65e-05	195.266000032
2290.0	2.78e-05	195.29700017
2290.0	2.88e-05	195.344000101
2290.0	2.93e-05	195.375
2290.0	2.9e-05	195.42200017
2290.0	2.9e-05	195.469000101
2290.0	2.9e-05	195.5
2290.0	2.93e-05	195.54700017
2290.0	2.93e-05	195.594000101
2290.0	2.95e-05	195.625
2290.0	2.88e-05	195.67200017
2290.0	2.75e-05	195.703000069
2290.0	2.68e-05	195.75
2290.0	2.75e-05	195.79700017
2290.0	2.78e-05	195.828000069
2290.0	2.88e-05	195.875
2290.0	2.95e-05	195.92200017
2290.0	2.88e-05	195.985000134
2290.0	2.7e-05	196.016000032
2290.0	2.7e-05	196.063000202
2290.0	2.93e-05	196.110000134
2290.0	3.05e-05	196.141000032
2290.0	3.15e-05	196.188000202
2290.0	3.3e-05	196.235000134
2290.0	3.3e-05	196.266000032
2290.0	3.13e-05	196.313000202
2290.0	3e-05	196.344000101
2290.0	2.95e-05	196.391000032
2290.0	2.95e-05	196.438000202
2290.0	2.95e-05	196.469000101
2290.0	2.9e-05	196.516000032
2290.0	2.93e-05	196.563000202
2290.0	2.93e-05	196.594000101
2290.0	2.95e-05	196.641000032
2300.0	2.83e-05	196.969000101
2300.0	2.8e-05	197.016000032
2300.0	2.8e-05	197.063000202
2300.0	2.68e-05	197.094000101
2300.0	2.68e-05	197.141000032
2300.0	2.65e-05	197.188000202
2300.0	2.63e-05	197.219000101
2300.0	2.65e-05	197.266000032
2300.0	2.75e-05	197.29700017
2300.0	2.78e-05	197.344000101
2300.0	2.75e-05	197.391000032
2300.0	2.68e-05	197.42200017
2300.0	2.63e-05	197.469000101
2300.0	2.58e-05	197.516000032
2300.0	2.55e-05	197.54700017
2300.0	2.58e-05	197.594000101
2300.0	2.68e-05	197.641000032
2300.0	2.78e-05	197.67200017
2300.0	2.75e-05	197.719000101
2300.0	2.65e-05	197.75
2300.0	2.68e-05	197.79700017
2300.0	2.68e-05	197.844000101
2300.0	2.65e-05	197.875
2300.0	2.7e-05	197.92200017
2300.0	2.78e-05	197.953000069
2300.0	2.88e-05	198.0
2300.0	2.88e-05	198.04700017
2300.0	2.93e-05	198.078000069
2300.0	2.88e-05	198.125
2300.0	2.93e-05	198.17200017
2300.0	2.9e-05	198.203000069
2300.0	2.83e-05	198.25
2300.0	2.78e-05	198.29700017
2300.0	2.88e-05	198.328000069
2300.0	2.93e-05	198.375
2300.0	2.9e-05	198.407000065
2300.0	2.88e-05	198.453000069
2310.0	3.2e-05	198.79700017
2310.0	3.18e-05	198.844000101
2310.0	3.2e-05	198.875
2310.0	3.28e-05	198.92200017
2310.0	3.2e-05	198.969000101
2310.0	3.05e-05	199.0
2310.0	2.95e-05	199.04700017
2310.0	2.83e-05	199.094000101
2310.0	2.88e-05	199.125
2310.0	2.83e-05	199.17200017
2310.0	2.88e-05	199.203000069
2310.0	2.88e-05	199.25
2310.0	2.8e-05	199.29700017
2310.0	2.75e-05	199.328000069
2310.0	2.8e-05	199.375
2310.0	2.88e-05	199.42200017
2310.0	3e-05	199.453000069
2310.0	3.03e-05	199.5
2310.0	3.03e-05	199.532000065
2310.0	3e-05	199.578000069
2310.0	2.93e-05	199.625
2310.0	2.78e-05	199.657000065
2310.0	2.68e-05	199.703000069
2310.0	2.65e-05	199.75
2310.0	2.65e-05	199.782000065
2310.0	2.68e-05	199.828000069
2310.0	2.75e-05	199.860000134
2310.0	2.88e-05	199.907000065
2310.0	3.03e-05	199.953000069
2310.0	3.05e-05	199.985000134
2310.0	3e-05	200.032000065
2310.0	3.03e-05	200.078000069
2310.0	3e-05	200.110000134
2310.0	3.08e-05	200.157000065
2310.0	3.18e-05	200.203000069
2310.0	3.25e-05	200.235000134
2310.0	3.15e-05	200.282000065
2320.0	3.13e-05	200.625
2320.0	3.08e-05	200.67200017
2320.0	3.05e-05	200.703000069
2320.0	3.13e-05	200.75
2320.0	3e-05	200.79700017
2320.0	3e-05	200.828000069
2320.0	3.05e-05	200.875
2320.0	3.15e-05	200.907000065
2320.0	3.13e-05	200.953000069
2320.0	3.15e-05	201.0
2320.0	3.18e-05	201.032000065
2320.0	3.18e-05	201.078000069
2320.0	3.15e-05	201.125
2320.0	3.2e-05	201.157000065
2320.0	3.08e-05	201.203000069
2320.0	3.08e-05	201.25
2320.0	3.08e-05	201.282000065
2320.0	3.13e-05	201.328000069
2320.0	3.15e-05	201.360000134
2320.0	3.25e-05	201.407000065
2320.0	3.38e-05	201.453000069
2320.0	3.38e-05	201.485000134
2320.0	3.45e-05	201.532000065
2320.0	3.43e-05	201.578000069
2320.0	3.28e-05	201.610000134
2320.0	3.15e-05	201.657000065
2320.0	3.13e-05	201.688000202
2320.0	3.08e-05	201.735000134
2320.0	2.95e-05	201.782000065
2320.0	2.9e-05	201.813000202
2320.0	2.8e-05	201.860000134
2320.0	2.8e-05	201.907000065
2320.0	2.9e-05	201.938000202
2320.0	2.9e-05	201.985000134
2320.0	3e-05	202.016000032
2320.0	3.18e-05	202.063000202
2320.0	3.15e-05	202.110000134
2330.0	2.8e-05	202.453000069
2330.0	2.78e-05	202.485000134
2330.0	2.78e-05	202.532000065
2330.0	2.93e-05	202.578000069
2330.0	3e-05	202.610000134
2330.0	2.93e-05	202.657000065
2330.0	2.88e-05	202.703000069
2330.0	2.88e-05	202.735000134
2330.0	2.83e-05	202.782000065
2330.0	2.75e-05	202.813000202
2330.0	2.78e-05	202.860000134
2330.0	2.8e-05	202.907000065
2330.0	2.83e-05	202.938000202
2330.0	2.78e-05	202.985000134
2330.0	2.65e-05	203.032000065
2330.0	2.63e-05	203.063000202
2330.0	2.65e-05	203.110000134
2330.0	2.68e-05	203.157000065
2330.0	2.78e-05	203.188000202
2330.0	2.83e-05	203.235000134
2330.0	2.83e-05	203.266000032
2330.0	2.88e-05	203.313000202
2330.0	2.95e-05	203.360000134
2330.0	3e-05	203.391000032
2330.0	3.05e-05	203.438000202
2330.0	3.13e-05	203.485000134
2330.0	3.2e-05	203.516000032
2330.0	3.2e-05	203.563000202
2330.0	3.18e-05	203.594000101
2330.0	3.25e-05	203.641000032
2330.0	3.28e-05	203.688000202
2330.0	3.28e-05	203.719000101
2330.0	3.38e-05	203.766000032
2330.0	3.45e-05	203.813000202
2330.0	3.45e-05	203.844000101
2330.0	3.53e-05	203.891000032
2330.0	3.5e-05	203.92200017
2340.0	2.93e-05	204.282000065
2340.0	2.93e-05	204.313000202
2340.0	3e-05	204.360000134
2340.0	3e-05	204.407000065
2340.0	2.95e-05	204.438000202
2340.0	2.95e-05	204.485000134
2340.0	2.93e-05	204.532000065
2340.0	2.93e-05	204.563000202
2340.0	2.93e-05	204.610000134
2340.0	2.93e-05	204.641000032
2340.0	2.83e-05	204.688000202
2340.0	2.93e-05	204.735000134
2340.0	3.03e-05	204.766000032
2340.0	3.05e-05	204.813000202
2340.0	3.05e-05	204.860000134
2340.0	3.08e-05	204.891000032
2340.0	3.2e-05	204.938000202
2340.0	3.25e-05	204.969000101
2340.0	3.38e-05	205.016000032
2340.0	3.4e-05	205.063000202
2340.0	3.3e-05	205.094000101
2340.0	3.18e-05	205.141000032
2340.0	3.05e-05	205.188000202
2340.0	3e-05	205.219000101
2340.0	2.93e-05	205.266000032
2340.0	2.93e-05	205.313000202
2340.0	3.08e-05	205.344000101
2340.0	3.2e-05	205.391000032
2340.0	3.25e-05	205.42200017
2340.0	3.18e-05	205.469000101
2340.0	3.2e-05	205.516000032
2340.0	3.13e-05	205.54700017
2340.0	3.15e-05	205.594000101
2340.0	3.13e-05	205.641000032
2340.0	3e-05	205.67200017
2340.0	2.95e-05	205.719000101
2340.0	2.9e-05	205.75
2350.0	2.88e-05	206.110000134
2350.0	2.83e-05	206.141000032
2350.0	2.7e-05	206.188000202
2350.0	2.65e-05	206.219000101
2350.0	2.7e-05	206.266000032
2350.0	2.7e-05	206.313000202
2350.0	2.65e-05	206.344000101
2350.0	2.7e-05	206.391000032
2350.0	2.9e-05	206.438000202
2350.0	2.9e-05	206.469000101
2350.0	2.93e-05	206.516000032
2350.0	2.95e-05	206.54700017
2350.0	3e-05	206.594000101
2350.0	3e-05	206.641000032
2350.0	3.08e-05	206.67200017
2350.0	3.05e-05	206.719000101
2350.0	2.95e-05	206.766000032
2350.0	2.95e-05	206.79700017
2350.0	3.05e-05	206.844000101
2350.0	3.18e-05	206.875
2350.0	3.25e-05	206.92200017
2350.0	3.18e-05	206.969000101
2350.0	3.2e-05	207.0
2350.0	3.18e-05	207.04700017
2350.0	3.15e-05	207.094000101
2350.0	3.08e-05	207.125
2350.0	3e-05	207.17200017
2350.0	3.03e-05	207.219000101
2350.0	3e-05	207.25
2350.0	2.9e-05	207.29700017
2350.0	2.9e-05	207.328000069
2350.0	2.88e-05	207.375
2350.0	2.88e-05	207.42200017
2350.0	2.95e-05	207.453000069
2350.0	3.03e-05	207.5
2350.0	3.03e-05	207.532000065
2350.0	3e-05	207.578000069
2360.0	3.2e-05	207.92200017
2360.0	3.28e-05	207.969000101
2360.0	3.3e-05	208.0
2360.0	3.38e-05	208.04700017
2360.0	3.38e-05	208.078000069
2360.0	3.28e-05	208.125
2360.0	3.05e-05	208.17200017
2360.0	2.9e-05	208.203000069
2360.0	2.75e-05	208.25
2360.0	2.78e-05	208.29700017
2360.0	2.83e-05	208.328000069
2360.0	2.9e-05	208.375
2360.0	2.88e-05	208.407000065
2360.0	2.75e-05	208.453000069
2360.0	2.7e-05	208.5
2360.0	2.65e-05	208.532000065
2360.0	2.55e-05	208.578000069
2360.0	2.5e-05	208.625
2360.0	2.45e-05	208.657000065
2360.0	2.5e-05	208.703000069
2360.0	2.53e-05	208.75
2360.0	2.55e-05	208.782000065
2360.0	2.53e-05	208.828000069
2360.0	2.58e-05	208.860000134
2360.0	2.68e-05	208.907000065
2360.0	2.8e-05	208.953000069
2360.0	2.7e-05	208.985000134
2360.0	2.68e-05	209.032000065
2360.0	2.65e-05	209.078000069
2360.0	2.53e-05	209.110000134
2360.0	2.38e-05	209.157000065
2360.0	2.28e-05	209.188000202
2360.0	2.15e-05	209.235000134
2360.0	2.25e-05	209.282000065
2360.0	2.45e-05	209.313000202
2360.0	2.58e-05	209.360000134
2360.0	2.65e-05	209.407000065
2370.0	2.63e-05	209.75
2370.0	2.58e-05	209.782000065
2370.0	2.53e-05	209.828000069
2370.0	2.58e-05	209.875
2370.0	2.68e-05	209.907000065
2370.0	2.8e-05	209.953000069
2370.0	2.88e-05	209.985000134
2370.0	2.93e-05	210.032000065
2370.0	3.08e-05	210.078000069
2370.0	3.08e-05	210.110000134
2370.0	3e-05	210.157000065
2370.0	2.88e-05	210.203000069
2370.0	2.7e-05	210.235000134
2370.0	2.68e-05	210.282000065
2370.0	2.75e-05	210.313000202
2370.0	2.65e-05	210.360000134
2370.0	2.68e-05	210.407000065
2370.0	2.78e-05	210.438000202
2370.0	2.9e-05	210.485000134
2370.0	3.03e-05	210.532000065
2370.0	3.13e-05	210.563000202
2370.0	3.13e-05	210.610000134
2370.0	3.05e-05	210.657000065
2370.0	3.05e-05	210.688000202
2370.0	3e-05	210.735000134
2370.0	2.88e-05	210.766000032
2370.0	2.78e-05	210.813000202
2370.0	2.7e-05	210.860000134
2370.0	2.68e-05	210.891000032
2370.0	2.68e-05	210.938000202
2370.0	2.68e-05	210.985000134
2370.0	2.7e-05	211.016000032
2370.0	2.68e-05	211.063000202
2370.0	2.63e-05	211.094000101
2370.0	2.58e-05	211.141000032
2370.0	2.55e-05	211.188000202
2370.0	2.63e-05	211.219000101
2380.0	2.58e-05	211.563000202
2380.0	2.55e-05	211.594000101
2380.0	2.58e-05	211.641000032
2380.0	2.58e-05	211.688000202
2380.0	2.63e-05	211.719000101
2380.0	2.65e-05	211.766000032
2380.0	2.75e-05	211.813000202
2380.0	2.7e-05	211.844000101
2380.0	2.65e-05	211.891000032
2380.0	2.55e-05	211.938000202
2380.0	2.5e-05	211.969000101
2380.0	2.45e-05	212.016000032
2380.0	2.43e-05	212.04700017
2380.0	2.4e-05	212.094000101
2380.0	2.43e-05	212.141000032
2380.0	2.4e-05	212.17200017
2380.0	2.4e-05	212.219000101
2380.0	2.43e-05	212.266000032
2380.0	2.45e-05	212.29700017
2380.0	2.4e-05	212.344000101
2380.0	2.38e-05	212.375
2380.0	2.28e-05	212.42200017
2380.0	2.2e-05	212.469000101
2380.0	2.33e-05	212.5
2380.0	2.43e-05	212.54700017
2380.0	2.45e-05	212.594000101
2380.0	2.43e-05	212.625
2380.0	2.5e-05	212.67200017
2380.0	2.53e-05	212.703000069
2380.0	2.55e-05	212.75
2380.0	2.5e-05	212.79700017
2380.0	2.45e-05	212.828000069
2380.0	2.43e-05	212.875
2380.0	2.45e-05	212.92200017
2380.0	2.45e-05	212.953000069
2380.0	2.45e-05	213.0
2380.0	2.63e-05	213.032000065
2390.0	2.58e-05	213.375
2390.0	2.55e-05	213.42200017
2390.0	2.45e-05	213.469000101
2390.0	2.38e-05	213.5
2390.0	2.25e-05	213.54700017
2390.0	2.28e-05	213.578000069
2390.0	2.3e-05	213.625
2390.0	2.3e-05	213.67200017
2390.0	2.45e-05	213.703000069
2390.0	2.5e-05	213.75
2390.0	2.63e-05	213.79700017
2390.0	2.75e-05	213.828000069
2390.0	2.78e-05	213.875
2390.0	2.7e-05	213.907000065
2390.0	2.7e-05	213.953000069
2390.0	2.7e-05	214.0
2390.0	2.7e-05	214.032000065
2390.0	2.7e-05	214.078000069
2390.0	2.58e-05	214.125
2390.0	2.55e-05	214.157000065
2390.0	2.68e-05	214.203000069
2390.0	2.75e-05	214.235000134
2390.0	2.78e-05	214.282000065
2390.0	2.75e-05	214.328000069
2390.0	2.8e-05	214.360000134
2390.0	2.83e-05	214.407000065
2390.0	2.9e-05	214.453000069
2390.0	2.93e-05	214.485000134
2390.0	2.9e-05	214.532000065
2390.0	2.8e-05	214.578000069
2390.0	2.75e-05	214.610000134
2390.0	2.75e-05	214.657000065
2390.0	2.8e-05	214.688000202
2390.0	2.9e-05	214.735000134
2390.0	2.93e-05	214.782000065
2390.0	2.93e-05	214.813000202
2390.0	2.8e-05	214.860000134
2400.0	2.45e-05	215.203000069
2400.0	2.3e-05	215.25
2400.0	2.18e-05	215.282000065
2400.0	2.2e-05	215.328000069
2400.0	2.38e-05	215.375
2400.0	2.45e-05	215.407000065
2400.0	2.55e-05	215.453000069
2400.0	2.55e-05	215.485000134
2400.0	2.65e-05	215.532000065
2400.0	2.68e-05	215.578000069
2400.0	2.68e-05	215.610000134
2400.0	2.75e-05	215.657000065
2400.0	2.65e-05	215.703000069
2400.0	2.45e-05	215.735000134
2400.0	2.4e-05	215.782000065
2400.0	2.38e-05	215.813000202
2400.0	2.33e-05	215.860000134
2400.0	2.43e-05	215.907000065
2400.0	2.53e-05	215.938000202
2400.0	2.58e-05	215.985000134
2400.0	2.65e-05	216.032000065
2400.0	2.68e-05	216.063000202
2400.0	2.58e-05	216.110000134
2400.0	2.53e-05	216.141000032
2400.0	2.63e-05	216.188000202
2400.0	2.7e-05	216.235000134
2400.0	2.83e-05	216.266000032
2400.0	2.93e-05	216.313000202
2400.0	2.88e-05	216.360000134
2400.0	2.78e-05	216.391000032
2400.0	2.75e-05	216.438000202
2400.0	2.68e-05	216.485000134
2400.0	2.65e-05	216.516000032
2400.0	2.68e-05	216.563000202
2400.0	2.68e-05	216.594000101
2400.0	2.65e-05	216.641000032
2400.0	2.68e-05	216.688000202
2410.0	2.53e-05	217.032000065
2410.0	2.43e-05	217.063000202
2410.0	2.38e-05	217.110000134
2410.0	2.33e-05	217.157000065
2410.0	2.4e-05	217.188000202
2410.0	2.43e-05	217.235000134
2410.0	2.5e-05	217.266000032
2410.0	2.45e-05	217.313000202
2410.0	2.38e-05	217.360000134
2410.0	2.4e-05	217.391000032
2410.0	2.53e-05	217.438000202
2410.0	2.5e-05	217.485000134
2410.0	2.4e-05	217.516000032
2410.0	2.38e-05	217.563000202
2410.0	2.38e-05	217.610000134
2410.0	2.33e-05	217.641000032
2410.0	2.4e-05	217.688000202
2410.0	2.45e-05	217.719000101
2410.0	2.38e-05	217.766000032
2410.0	2.28e-05	217.813000202
2410.0	2.2e-05	217.844000101
2410.0	2.13e-05	217.891000032
2410.0	2.13e-05	217.938000202
2410.0	2.13e-05	217.969000101
2410.0	2.13e-05	218.016000032
2410.0	2.03e-05	218.04700017
2410.0	1.95e-05	218.094000101
2410.0	2.05e-05	218.141000032
2410.0	2.08e-05	218.17200017
2410.0	2.18e-05	218.219000101
2410.0	2.33e-05	218.266000032
2410.0	2.4e-05	218.29700017
2410.0	2.55e-05	218.344000101
2410.0	2.63e-05	218.375
2410.0	2.58e-05	218.42200017
2410.0	2.53e-05	218.469000101
2410.0	2.63e-05	218.5
2420.0	2.83e-05	218.844000101
2420.0	2.88e-05	218.891000032
2420.0	2.78e-05	218.938000202
2420.0	2.7e-05	218.969000101
2420.0	2.68e-05	219.016000032
2420.0	2.65e-05	219.063000202
2420.0	2.68e-05	219.094000101
2420.0	2.58e-05	219.141000032
2420.0	2.43e-05	219.17200017
2420.0	2.43e-05	219.219000101
2420.0	2.38e-05	219.266000032
2420.0	2.3e-05	219.29700017
2420.0	2.25e-05	219.344000101
2420.0	2.2e-05	219.391000032
2420.0	2.25e-05	219.42200017
2420.0	2.25e-05	219.469000101
2420.0	2.28e-05	219.516000032
2420.0	2.33e-05	219.54700017
2420.0	2.38e-05	219.594000101
2420.0	2.33e-05	219.625
2420.0	2.3e-05	219.67200017
2420.0	2.3e-05	219.719000101
2420.0	2.43e-05	219.75
2420.0	2.5e-05	219.79700017
2420.0	2.43e-05	219.844000101
2420.0	2.45e-05	219.875
2420.0	2.38e-05	219.92200017
2420.0	2.18e-05	219.953000069
2420.0	2.08e-05	220.0
2420.0	2.13e-05	220.04700017
2420.0	2.25e-05	220.078000069
2420.0	2.38e-05	220.125
2420.0	2.55e-05	220.17200017
2420.0	2.7e-05	220.203000069
2420.0	2.78e-05	220.25
2420.0	2.68e-05	220.282000065
2420.0	2.65e-05	220.328000069
2430.0	2.13e-05	220.67200017
2430.0	2.05e-05	220.719000101
2430.0	2.05e-05	220.766000032
2430.0	1.95e-05	220.79700017
2430.0	2e-05	220.844000101
2430.0	2.05e-05	220.891000032
2430.0	2.05e-05	220.92200017
2430.0	2.05e-05	220.969000101
2430.0	2.05e-05	221.0
2430.0	2.13e-05	221.04700017
2430.0	2.13e-05	221.094000101
2430.0	2.05e-05	221.125
2430.0	2.18e-05	221.17200017
2430.0	2.25e-05	221.219000101
2430.0	2.2e-05	221.25
2430.0	2.13e-05	221.29700017
2430.0	2.05e-05	221.328000069
2430.0	2.03e-05	221.375
2430.0	2.18e-05	221.42200017
2430.0	2.38e-05	221.453000069
2430.0	2.5e-05	221.5
2430.0	2.5e-05	221.54700017
2430.0	2.45e-05	221.578000069
2430.0	2.38e-05	221.625
2430.0	2.25e-05	221.657000065
2430.0	2.18e-05	221.703000069
2430.0	2e-05	221.75
2430.0	1.83e-05	221.782000065
2430.0	1.8e-05	221.828000069
2430.0	1.78e-05	221.875
2430.0	1.75e-05	221.907000065
2430.0	1.7e-05	221.953000069
2430.0	1.68e-05	222.0
2430.0	1.78e-05	222.032000065
2430.0	2e-05	222.078000069
2430.0	2.15e-05	222.110000134
2430.0	2.13e-05	222.157000065
2440.0	1.95e-05	222.5
2440.0	2.03e-05	222.54700017
2440.0	2.05e-05	222.594000101
2440.0	2.13e-05	222.625
2440.0	2.13e-05	222.67200017
2440.0	2.18e-05	222.719000101
2440.0	2.33e-05	222.75
2440.0	2.4e-05	222.79700017
2440.0	2.43e-05	222.828000069
2440.0	2.38e-05	222.875
2440.0	2.28e-05	222.92200017
2440.0	2.33e-05	222.953000069
2440.0	2.33e-05	223.0
2440.0	2.33e-05	223.04700017
2440.0	2.2e-05	223.078000069
2440.0	2.13e-05	223.125
2440.0	2.03e-05	223.157000065
2440.0	1.93e-05	223.203000069
2440.0	1.95e-05	223.25
2440.0	2e-05	223.282000065
2440.0	2e-05	223.328000069
2440.0	2.03e-05	223.375
2440.0	2.08e-05	223.407000065
2440.0	2.03e-05	223.453000069
2440.0	1.93e-05	223.485000134
2440.0	1.93e-05	223.532000065
2440.0	1.93e-05	223.578000069
2440.0	1.95e-05	223.610000134
2440.0	2.03e-05	223.657000065
2440.0	2e-05	223.703000069
2440.0	2.03e-05	223.735000134
2440.0	2.03e-05	223.782000065
2440.0	2.03e-05	223.828000069
2440.0	1.83e-05	223.860000134
2440.0	1.75e-05	223.907000065
2440.0	1.8e-05	223.938000202
2440.0	1.88e-05	223.985000134
2450.0	2.13e-05	224.344000101
2450.0	2.15e-05	224.375
2450.0	2.2e-05	224.42200017
2450.0	2.33e-05	224.453000069
2450.0	2.43e-05	224.5
2450.0	2.38e-05	224.54700017
2450.0	2.2e-05	224.578000069
2450.0	2.13e-05	224.625
2450.0	2.05e-05	224.67200017
2450.0	2.13e-05	224.703000069
2450.0	2.2e-05	224.75
2450.0	2.18e-05	224.79700017
2450.0	2.25e-05	224.828000069
2450.0	2.2e-05	224.875
2450.0	2.25e-05	224.907000065
2450.0	2.3e-05	224.953000069
2450.0	2.2e-05	225.0
2450.0	2.15e-05	225.032000065
2450.0	2.03e-05	225.078000069
2450.0	1.88e-05	225.125
2450.0	1.8e-05	225.157000065
2450.0	1.83e-05	225.203000069
2450.0	1.8e-05	225.235000134
2450.0	1.7e-05	225.282000065
2450.0	1.63e-05	225.328000069
2450.0	1.53e-05	225.360000134
2450.0	1.53e-05	225.407000065
2450.0	1.58e-05	225.453000069
2450.0	1.75e-05	225.485000134
2450.0	1.8e-05	225.532000065
2450.0	1.83e-05	225.563000202
2450.0	1.93e-05	225.610000134
2450.0	1.9e-05	225.657000065
2450.0	1.88e-05	225.688000202
2450.0	1.78e-05	225.735000134
2450.0	1.7e-05	225.782000065
2450.0	1.68e-05	225.813000202
2460.0	2.13e-05	226.17200017
2460.0	2.13e-05	226.203000069
2460.0	2.08e-05	226.25
2460.0	1.95e-05	226.282000065
2460.0	1.93e-05	226.328000069
2460.0	1.95e-05	226.375
2460.0	2.03e-05	226.407000065
2460.0	2.05e-05	226.453000069
2460.0	2.05e-05	226.5
2460.0	2.05e-05	226.532000065
2460.0	2e-05	226.578000069
2460.0	1.8e-05	226.610000134
2460.0	1.75e-05	226.657000065
2460.0	1.68e-05	226.703000069
2460.0	1.75e-05	226.735000134
2460.0	1.88e-05	226.782000065
2460.0	1.95e-05	226.828000069
2460.0	2.03e-05	226.860000134
2460.0	2.08e-05	226.907000065
2460.0	2.2e-05	226.953000069
2460.0	2.3e-05	226.985000134
2460.0	2.28e-05	227.032000065
2460.0	2.38e-05	227.063000202
2460.0	2.38e-05	227.110000134
2460.0	2.33e-05	227.157000065
2460.0	2.3e-05	227.188000202
2460.0	2.15e-05	227.235000134
2460.0	2.08e-05	227.282000065
2460.0	2.15e-05	227.313000202
2460.0	2.18e-05	227.360000134
2460.0	2.2e-05	227.391000032
2460.0	2.15e-05	227.438000202
2460.0	2.08e-05	227.485000134
2460.0	2.03e-05	227.516000032
2460.0	1.93e-05	227.563000202
2460.0	1.93e-05	227.610000134
2460.0	2.08e-05	227.641000032
2470.0	1.95e-05	228.0
2470.0	1.93e-05	228.032000065
2470.0	1.93e-05	228.078000069
2470.0	1.93e-05	228.110000134
2470.0	1.93e-05	228.157000065
2470.0	1.9e-05	228.203000069
2470.0	1.93e-05	228.235000134
2470.0	1.93e-05	228.282000065
2470.0	1.95e-05	228.328000069
2470.0	2.03e-05	228.360000134
2470.0	2.05e-05	228.407000065
2470.0	2.05e-05	228.438000202
2470.0	2.15e-05	228.485000134
2470.0	2.3e-05	228.532000065
2470.0	2.43e-05	228.563000202
2470.0	2.63e-05	228.610000134
2470.0	2.65e-05	228.657000065
2470.0	2.55e-05	228.688000202
2470.0	2.5e-05	228.735000134
2470.0	2.43e-05	228.766000032
2470.0	2.33e-05	228.813000202
2470.0	2.33e-05	228.860000134
2470.0	2.4e-05	228.891000032
2470.0	2.45e-05	228.938000202
2470.0	2.4e-05	228.985000134
2470.0	2.28e-05	229.016000032
2470.0	2.2e-05	229.063000202
2470.0	2.13e-05	229.110000134
2470.0	2.08e-05	229.141000032
2470.0	2.08e-05	229.188000202
2470.0	1.93e-05	229.219000101
2470.0	1.93e-05	229.266000032
2470.0	1.93e-05	229.313000202
2470.0	1.95e-05	229.344000101
2470.0	2.05e-05	229.391000032
2470.0	2.2e-05	229.438000202
2470.0	2.28e-05	229.469000101
2480.0	1.45e-05	229.828000069
2480.0	1.45e-05	229.860000134
2480.0	1.55e-05	229.907000065
2480.0	1.53e-05	229.953000069
2480.0	1.45e-05	229.985000134
2480.0	1.45e-05	230.032000065
2480.0	1.55e-05	230.078000069
2480.0	1.65e-05	230.110000134
2480.0	1.78e-05	230.157000065
2480.0	1.88e-05	230.188000202
2480.0	2.03e-05	230.235000134
2480.0	2.15e-05	230.282000065
2480.0	2.2e-05	230.313000202
2480.0	2.18e-05	230.360000134
2480.0	2.15e-05	230.407000065
2480.0	2.03e-05	230.438000202
2480.0	1.95e-05	230.485000134
2480.0	1.93e-05	230.516000032
2480.0	1.8e-05	230.563000202
2480.0	1.75e-05	230.610000134
2480.0	1.65e-05	230.641000032
2480.0	1.58e-05	230.688000202
2480.0	1.5e-05	230.735000134
2480.0	1.55e-05	230.766000032
2480.0	1.63e-05	230.813000202
2480.0	1.8e-05	230.860000134
2480.0	1.95e-05	230.891000032
2480.0	2.13e-05	230.938000202
2480.0	2.15e-05	230.969000101
2480.0	2.08e-05	231.016000032
2480.0	2.03e-05	231.063000202
2480.0	2.05e-05	231.094000101
2480.0	2.08e-05	231.141000032
2480.0	2.05e-05	231.188000202
2480.0	2e-05	231.219000101
2480.0	1.8e-05	231.266000032
2480.0	1.68e-05	231.29700017
2490.0	2.05e-05	231.657000065
2490.0	2e-05	231.688000202
2490.0	2e-05	231.735000134
2490.0	1.93e-05	231.766000032
2490.0	1.9e-05	231.813000202
2490.0	1.88e-05	231.860000134
2490.0	1.75e-05	231.891000032
2490.0	1.68e-05	231.938000202
2490.0	1.7e-05	231.985000134
2490.0	1.7e-05	232.016000032
2490.0	1.58e-05	232.063000202
2490.0	1.58e-05	232.094000101
2490.0	1.68e-05	232.141000032
2490.0	1.78e-05	232.188000202
2490.0	1.88e-05	232.219000101
2490.0	1.93e-05	232.266000032
2490.0	2.03e-05	232.313000202
2490.0	2.13e-05	232.344000101
2490.0	2.18e-05	232.391000032
2490.0	2.2e-05	232.42200017
2490.0	2.2e-05	232.469000101
2490.0	2.2e-05	232.516000032
2490.0	2.2e-05	232.54700017
2490.0	2.28e-05	232.594000101
2490.0	2.18e-05	232.641000032
2490.0	2.03e-05	232.67200017
2490.0	1.9e-05	232.719000101
2490.0	1.8e-05	232.766000032
2490.0	1.75e-05	232.79700017
2490.0	1.83e-05	232.844000101
2490.0	1.9e-05	232.875
2490.0	1.8e-05	232.92200017
2490.0	1.78e-05	232.969000101
2490.0	1.68e-05	233.0
2490.0	1.65e-05	233.04700017
2490.0	1.58e-05	233.078000069
2490.0	1.5e-05	233.125
2500.0	1.33e-05	233.469000101
2500.0	1.33e-05	233.516000032
2500.0	1.43e-05	233.54700017
2500.0	1.5e-05	233.594000101
2500.0	1.55e-05	233.641000032
2500.0	1.53e-05	233.67200017
2500.0	1.58e-05	233.719000101
2500.0	1.65e-05	233.766000032
2500.0	1.75e-05	233.79700017
2500.0	1.78e-05	233.844000101
2500.0	1.75e-05	233.891000032
2500.0	1.7e-05	233.92200017
2500.0	1.65e-05	233.969000101
2500.0	1.5e-05	234.0
2500.0	1.4e-05	234.04700017
2500.0	1.43e-05	234.094000101
2500.0	1.58e-05	234.125
2500.0	1.65e-05	234.17200017
2500.0	1.65e-05	234.219000101
2500.0	1.63e-05	234.25
2500.0	1.58e-05	234.29700017
2500.0	1.53e-05	234.328000069
2500.0	1.7e-05	234.375
2500.0	1.83e-05	234.42200017
2500.0	1.75e-05	234.453000069
2500.0	1.68e-05	234.5
2500.0	1.65e-05	234.54700017
2500.0	1.65e-05	234.578000069
2500.0	1.65e-05	234.625
2500.0	1.68e-05	234.657000065
2500.0	1.63e-05	234.703000069
2500.0	1.55e-05	234.75
2500.0	1.63e-05	234.782000065
2500.0	1.7e-05	234.828000069
2500.0	1.83e-05	234.875
2500.0	1.9e-05	234.907000065
2500.0	2e-05	234.953000069
