Your edit line - do NOT delete this line
Wavelength [nm], Voltage [V], Elapsed time [s]
800.0	6.63e-05	16.0
800.0	6.57e-05	16.0309998989
800.0	6.51e-05	16.0780000687
800.0	6.47e-05	16.1089999676
800.0	6.45e-05	16.1399998665
800.0	6.43e-05	16.1870000362
800.0	6.37e-05	16.2179999352
800.0	6.33e-05	16.25
800.0	6.32e-05	16.2969999313
800.0	6.32e-05	16.3280000687
800.0	6.33e-05	16.3589999676
800.0	6.33e-05	16.4059998989
800.0	6.32e-05	16.4370000362
800.0	6.28e-05	16.4839999676
800.0	6.26e-05	16.5149998665
800.0	6.26e-05	16.5469999313
800.0	6.25e-05	16.5929999352
800.0	6.22e-05	16.625
800.0	6.18e-05	16.6559998989
800.0	6.12e-05	16.7030000687
800.0	6.08e-05	16.7339999676
800.0	6.08e-05	16.7809998989
800.0	6.07e-05	16.8120000362
800.0	6.08e-05	16.8429999352
800.0	6.12e-05	16.8899998665
800.0	6.16e-05	16.9219999313
800.0	6.18e-05	16.9530000687
800.0	6.2e-05	17.0
800.0	6.21e-05	17.0309998989
800.0	6.27e-05	17.0620000362
800.0	6.27e-05	17.1089999676
800.0	6.27e-05	17.1399998665
800.0	6.26e-05	17.1719999313
800.0	6.25e-05	17.2179999352
800.0	6.22e-05	17.25
800.0	6.21e-05	17.2969999313
800.0	6.18e-05	17.3280000687
800.0	6.18e-05	17.3589999676
800.0	6.18e-05	17.4059998989
800.0	6.16e-05	17.4370000362
800.0	6.16e-05	17.4679999352
810.0	6.38e-05	17.8120000362
810.0	6.43e-05	17.8429999352
810.0	6.47e-05	17.875
810.0	6.51e-05	17.9219999313
810.0	6.56e-05	17.9530000687
810.0	6.6e-05	18.0
810.0	6.63e-05	18.0309998989
810.0	6.63e-05	18.0620000362
810.0	6.65e-05	18.1089999676
810.0	6.65e-05	18.1399998665
810.0	6.63e-05	18.1719999313
810.0	6.6e-05	18.2179999352
810.0	6.58e-05	18.25
810.0	6.57e-05	18.2809998989
810.0	6.58e-05	18.3280000687
810.0	6.6e-05	18.3589999676
810.0	6.58e-05	18.4059998989
810.0	6.57e-05	18.4370000362
810.0	6.57e-05	18.4679999352
810.0	6.56e-05	18.5149998665
810.0	6.58e-05	18.5469999313
810.0	6.6e-05	18.5780000687
810.0	6.63e-05	18.625
810.0	6.65e-05	18.6559998989
810.0	6.65e-05	18.7030000687
810.0	6.63e-05	18.7339999676
810.0	6.6e-05	18.7649998665
810.0	6.63e-05	18.8120000362
810.0	6.66e-05	18.8429999352
810.0	6.66e-05	18.875
810.0	6.68e-05	18.9219999313
810.0	6.68e-05	18.9530000687
810.0	6.66e-05	18.9839999676
810.0	6.68e-05	19.0309998989
810.0	6.7e-05	19.0620000362
810.0	6.7e-05	19.1089999676
810.0	6.71e-05	19.1399998665
810.0	6.71e-05	19.1719999313
810.0	6.66e-05	19.2179999352
810.0	6.65e-05	19.25
810.0	6.63e-05	19.2809998989
820.0	6.88e-05	19.6089999676
820.0	6.91e-05	19.6559998989
820.0	6.96e-05	19.6870000362
820.0	6.97e-05	19.7179999352
820.0	6.97e-05	19.7649998665
820.0	7.01e-05	19.7969999313
820.0	7.01e-05	19.8280000687
820.0	7.02e-05	19.875
820.0	7.07e-05	19.9059998989
820.0	7.1e-05	19.9370000362
820.0	7.1e-05	19.9839999676
820.0	7.1e-05	20.0149998665
820.0	7.13e-05	20.0469999313
820.0	7.15e-05	20.0929999352
820.0	7.15e-05	20.125
820.0	7.15e-05	20.1719999313
820.0	7.16e-05	20.2030000687
820.0	7.16e-05	20.2339999676
820.0	7.16e-05	20.2809998989
820.0	7.16e-05	20.3120000362
820.0	7.18e-05	20.3429999352
820.0	7.2e-05	20.3899998665
820.0	7.18e-05	20.4219999313
820.0	7.18e-05	20.4679999352
820.0	7.2e-05	20.5
820.0	7.2e-05	20.5309998989
820.0	7.2e-05	20.5780000687
820.0	7.2e-05	20.6089999676
820.0	7.18e-05	20.6399998665
820.0	7.18e-05	20.6870000362
820.0	7.18e-05	20.7179999352
820.0	7.16e-05	20.75
820.0	7.15e-05	20.7969999313
820.0	7.12e-05	20.8280000687
820.0	7.12e-05	20.875
820.0	7.12e-05	20.9059998989
820.0	7.15e-05	20.9370000362
820.0	7.16e-05	20.9839999676
820.0	7.18e-05	21.0149998665
820.0	7.16e-05	21.0469999313
820.0	7.13e-05	21.0929999352
830.0	7.41e-05	21.4219999313
830.0	7.52e-05	21.4530000687
830.0	7.57e-05	21.4839999676
830.0	7.58e-05	21.5309998989
830.0	7.6e-05	21.5620000362
830.0	7.62e-05	21.5929999352
830.0	7.63e-05	21.6399998665
830.0	7.65e-05	21.6719999313
830.0	7.63e-05	21.7030000687
830.0	7.62e-05	21.75
830.0	7.62e-05	21.7809998989
830.0	7.63e-05	21.8280000687
830.0	7.65e-05	21.8589999676
830.0	7.68e-05	21.8899998665
830.0	7.71e-05	21.9370000362
830.0	7.75e-05	21.9679999352
830.0	7.76e-05	22.0
830.0	7.75e-05	22.0469999313
830.0	7.75e-05	22.0780000687
830.0	7.75e-05	22.1089999676
830.0	7.72e-05	22.1559998989
830.0	7.72e-05	22.1870000362
830.0	7.72e-05	22.2339999676
830.0	7.75e-05	22.2649998665
830.0	7.75e-05	22.2969999313
830.0	7.75e-05	22.3429999352
830.0	7.76e-05	22.375
830.0	7.76e-05	22.4059998989
830.0	7.77e-05	22.4530000687
830.0	7.77e-05	22.4839999676
830.0	7.76e-05	22.5309998989
830.0	7.72e-05	22.5620000362
830.0	7.7e-05	22.5929999352
830.0	7.7e-05	22.6399998665
830.0	7.7e-05	22.6719999313
830.0	7.68e-05	22.7030000687
830.0	7.66e-05	22.75
830.0	7.65e-05	22.7809998989
830.0	7.65e-05	22.8120000362
830.0	7.66e-05	22.8589999676
830.0	7.7e-05	22.8899998665
840.0	8.02e-05	23.2030000687
840.0	8.08e-05	23.25
840.0	8.15e-05	23.2809998989
840.0	8.18e-05	23.3280000687
840.0	8.26e-05	23.3589999676
840.0	8.37e-05	23.3899998665
840.0	8.41e-05	23.4370000362
840.0	8.41e-05	23.4679999352
840.0	8.41e-05	23.5
840.0	8.46e-05	23.5469999313
840.0	8.51e-05	23.5780000687
840.0	8.53e-05	23.6089999676
840.0	8.57e-05	23.6559998989
840.0	8.57e-05	23.6870000362
840.0	8.56e-05	23.7339999676
840.0	8.51e-05	23.7649998665
840.0	8.47e-05	23.7969999313
840.0	8.46e-05	23.8429999352
840.0	8.45e-05	23.875
840.0	8.4e-05	23.9059998989
840.0	8.38e-05	23.9530000687
840.0	8.35e-05	23.9839999676
840.0	8.31e-05	24.0309998989
840.0	8.31e-05	24.0620000362
840.0	8.32e-05	24.0929999352
840.0	8.33e-05	24.1399998665
840.0	8.35e-05	24.1719999313
840.0	8.4e-05	24.2030000687
840.0	8.41e-05	24.25
840.0	8.45e-05	24.2809998989
840.0	8.45e-05	24.3120000362
840.0	8.46e-05	24.3589999676
840.0	8.45e-05	24.3899998665
840.0	8.43e-05	24.4219999313
840.0	8.45e-05	24.4679999352
840.0	8.5e-05	24.5
840.0	8.47e-05	24.5469999313
840.0	8.43e-05	24.5780000687
840.0	8.41e-05	24.6089999676
840.0	8.4e-05	24.6559998989
840.0	8.37e-05	24.6870000362
850.0	8.77e-05	25.0
850.0	8.88e-05	25.0309998989
850.0	8.96e-05	25.0780000687
850.0	9.06e-05	25.1089999676
850.0	9.13e-05	25.1559998989
850.0	9.2e-05	25.1870000362
850.0	9.25e-05	25.2179999352
850.0	9.26e-05	25.2649998665
850.0	9.26e-05	25.2969999313
850.0	9.31e-05	25.3280000687
850.0	9.32e-05	25.375
850.0	9.33e-05	25.4059998989
850.0	9.32e-05	25.4370000362
850.0	9.31e-05	25.4839999676
850.0	9.27e-05	25.5149998665
850.0	9.27e-05	25.5469999313
850.0	9.27e-05	25.5929999352
850.0	9.26e-05	25.625
850.0	9.25e-05	25.6719999313
850.0	9.25e-05	25.7030000687
850.0	9.22e-05	25.7339999676
850.0	9.22e-05	25.7809998989
850.0	9.26e-05	25.8120000362
850.0	9.26e-05	25.8429999352
850.0	9.26e-05	25.8899998665
850.0	9.26e-05	25.9219999313
850.0	9.28e-05	25.9679999352
850.0	9.35e-05	26.0
850.0	9.37e-05	26.0309998989
850.0	9.38e-05	26.0780000687
850.0	9.37e-05	26.1089999676
850.0	9.35e-05	26.1399998665
850.0	9.4e-05	26.1870000362
850.0	9.37e-05	26.2179999352
850.0	9.33e-05	26.25
850.0	9.32e-05	26.2969999313
850.0	9.31e-05	26.3280000687
850.0	9.28e-05	26.375
850.0	9.28e-05	26.4059998989
850.0	9.27e-05	26.4370000362
850.0	9.28e-05	26.4839999676
860.0	9.75e-05	26.7969999313
860.0	9.83e-05	26.8280000687
860.0	9.9e-05	26.8589999676
860.0	9.95e-05	26.9059998989
860.0	0.0001002	26.9370000362
860.0	0.0001006	26.9839999676
860.0	0.000101	27.0309998989
860.0	0.0001013	27.0620000362
860.0	0.0001012	27.1089999676
860.0	0.0001012	27.1559998989
860.0	0.0001016	27.1870000362
860.0	0.000102	27.2339999676
860.0	0.0001021	27.2649998665
860.0	0.0001021	27.3120000362
860.0	0.0001021	27.3589999676
860.0	0.0001018	27.3899998665
860.0	0.0001018	27.4370000362
860.0	0.0001018	27.4839999676
860.0	0.0001018	27.5149998665
860.0	0.000102	27.5620000362
860.0	0.0001022	27.5929999352
860.0	0.0001025	27.6399998665
860.0	0.0001025	27.6870000362
860.0	0.0001026	27.7179999352
860.0	0.0001025	27.7649998665
860.0	0.000102	27.8120000362
860.0	0.000102	27.8429999352
860.0	0.0001022	27.8899998665
860.0	0.0001022	27.9219999313
860.0	0.0001025	27.9679999352
860.0	0.0001026	28.0149998665
860.0	0.0001025	28.0469999313
860.0	0.0001021	28.0929999352
860.0	0.000102	28.1399998665
860.0	0.0001018	28.1719999313
860.0	0.0001016	28.2179999352
860.0	0.000102	28.25
870.0	0.0001077	28.5780000687
870.0	0.0001088	28.6089999676
870.0	0.0001096	28.6559998989
870.0	0.0001103	28.7030000687
870.0	0.0001112	28.7339999676
870.0	0.0001115	28.7809998989
870.0	0.000112	28.8120000362
870.0	0.0001126	28.8589999676
870.0	0.0001128	28.9059998989
870.0	0.0001132	28.9370000362
870.0	0.0001132	28.9839999676
870.0	0.0001133	29.0309998989
870.0	0.0001132	29.0620000362
870.0	0.0001133	29.1089999676
870.0	0.0001137	29.1559998989
870.0	0.0001138	29.1870000362
870.0	0.0001141	29.2339999676
870.0	0.0001145	29.2649998665
870.0	0.0001143	29.3120000362
870.0	0.0001143	29.3589999676
870.0	0.0001141	29.3899998665
870.0	0.0001141	29.4370000362
870.0	0.0001141	29.4839999676
870.0	0.0001141	29.5149998665
870.0	0.0001138	29.5620000362
870.0	0.0001132	29.5929999352
870.0	0.0001131	29.6399998665
870.0	0.0001128	29.6870000362
870.0	0.0001131	29.7179999352
870.0	0.0001132	29.7649998665
870.0	0.0001135	29.8120000362
870.0	0.0001137	29.8429999352
870.0	0.0001137	29.8899998665
870.0	0.0001138	29.9219999313
870.0	0.0001138	29.9679999352
870.0	0.0001135	30.0149998665
870.0	0.0001135	30.0469999313
880.0	0.0001195	30.3589999676
880.0	0.0001208	30.4059998989
880.0	0.0001221	30.4530000687
880.0	0.0001233	30.4839999676
880.0	0.0001241	30.5309998989
880.0	0.000125	30.5620000362
880.0	0.0001258	30.6089999676
880.0	0.0001265	30.6559998989
880.0	0.0001266	30.6870000362
880.0	0.0001268	30.7339999676
880.0	0.0001268	30.7809998989
880.0	0.0001266	30.8120000362
880.0	0.0001266	30.8589999676
880.0	0.000127	30.9059998989
880.0	0.0001268	30.9370000362
880.0	0.0001268	30.9839999676
880.0	0.0001271	31.0149998665
880.0	0.000127	31.0620000362
880.0	0.0001268	31.1089999676
880.0	0.0001266	31.1399998665
880.0	0.0001268	31.1870000362
880.0	0.0001268	31.2179999352
880.0	0.0001268	31.2649998665
880.0	0.0001266	31.3120000362
880.0	0.0001265	31.3429999352
880.0	0.0001268	31.3899998665
880.0	0.0001271	31.4370000362
880.0	0.0001272	31.4679999352
880.0	0.0001276	31.5149998665
880.0	0.0001276	31.5620000362
880.0	0.0001275	31.5929999352
880.0	0.0001276	31.6399998665
880.0	0.0001278	31.6719999313
880.0	0.0001277	31.7179999352
880.0	0.0001271	31.7649998665
880.0	0.0001268	31.7969999313
880.0	0.0001268	31.8429999352
890.0	0.0001326	32.1559998989
890.0	0.0001341	32.1870000362
890.0	0.0001352	32.2339999676
890.0	0.0001362	32.2809998989
890.0	0.0001372	32.3120000362
890.0	0.0001378	32.3589999676
890.0	0.0001382	32.3899998665
890.0	0.0001388	32.4370000362
890.0	0.0001396	32.4839999676
890.0	0.0001402	32.5149998665
890.0	0.0001406	32.5620000362
890.0	0.0001403	32.6089999676
890.0	0.0001402	32.6399998665
890.0	0.0001403	32.6870000362
890.0	0.0001408	32.7179999352
890.0	0.0001415	32.7649998665
890.0	0.0001418	32.8120000362
890.0	0.000142	32.8429999352
890.0	0.0001415	32.8899998665
890.0	0.0001415	32.9370000362
890.0	0.0001418	32.9679999352
890.0	0.0001418	33.0149998665
890.0	0.0001416	33.0469999313
890.0	0.0001418	33.0929999352
890.0	0.000142	33.1399998665
890.0	0.000142	33.1719999313
890.0	0.0001421	33.2179999352
890.0	0.0001422	33.2649998665
890.0	0.0001421	33.2969999313
890.0	0.0001421	33.3429999352
890.0	0.000142	33.3899998665
890.0	0.0001418	33.4219999313
890.0	0.0001418	33.4679999352
890.0	0.0001418	33.5
890.0	0.0001418	33.5469999313
890.0	0.0001421	33.5929999352
890.0	0.0001425	33.625
900.0	0.0001482	33.9370000362
900.0	0.0001506	33.9839999676
900.0	0.0001527	34.0149998665
900.0	0.0001545	34.0620000362
900.0	0.0001557	34.1089999676
900.0	0.0001563	34.1399998665
900.0	0.000157	34.1870000362
900.0	0.0001571	34.2179999352
900.0	0.0001575	34.2649998665
900.0	0.0001576	34.3120000362
900.0	0.0001578	34.3429999352
900.0	0.0001581	34.3899998665
900.0	0.0001583	34.4370000362
900.0	0.0001583	34.4679999352
900.0	0.0001583	34.5149998665
900.0	0.0001581	34.5469999313
900.0	0.0001581	34.5929999352
900.0	0.0001582	34.6399998665
900.0	0.0001583	34.6719999313
900.0	0.0001585	34.7179999352
900.0	0.0001585	34.7649998665
900.0	0.0001582	34.7969999313
900.0	0.0001583	34.8429999352
900.0	0.0001581	34.875
900.0	0.0001577	34.9219999313
900.0	0.0001575	34.9679999352
900.0	0.0001576	35.0
900.0	0.0001578	35.0469999313
900.0	0.0001578	35.0929999352
900.0	0.0001578	35.125
900.0	0.0001577	35.1719999313
900.0	0.0001572	35.2030000687
900.0	0.000157	35.25
900.0	0.0001572	35.2969999313
900.0	0.0001575	35.3280000687
900.0	0.0001576	35.375
900.0	0.0001576	35.4219999313
910.0	0.0001645	35.7179999352
910.0	0.0001668	35.7649998665
910.0	0.0001683	35.8120000362
910.0	0.0001697	35.8429999352
910.0	0.0001712	35.8899998665
910.0	0.0001721	35.9219999313
910.0	0.0001728	35.9679999352
910.0	0.0001735	36.0149998665
910.0	0.0001737	36.0469999313
910.0	0.0001741	36.0929999352
910.0	0.0001746	36.1399998665
910.0	0.0001751	36.1719999313
910.0	0.0001756	36.2179999352
910.0	0.0001758	36.25
910.0	0.000176	36.2969999313
910.0	0.0001758	36.3429999352
910.0	0.0001758	36.375
910.0	0.000176	36.4219999313
910.0	0.0001758	36.4679999352
910.0	0.0001757	36.5
910.0	0.0001753	36.5469999313
910.0	0.0001752	36.5929999352
910.0	0.0001756	36.625
910.0	0.0001757	36.6719999313
910.0	0.0001753	36.7030000687
910.0	0.0001752	36.75
910.0	0.0001753	36.7969999313
910.0	0.0001756	36.8280000687
910.0	0.0001758	36.875
910.0	0.0001758	36.9219999313
910.0	0.0001757	36.9530000687
910.0	0.0001758	37.0
910.0	0.0001756	37.0309998989
910.0	0.0001758	37.0780000687
910.0	0.0001758	37.125
910.0	0.0001758	37.1559998989
910.0	0.0001762	37.2030000687
920.0	0.0001828	37.5
920.0	0.0001851	37.5469999313
920.0	0.000187	37.5780000687
920.0	0.0001883	37.625
920.0	0.0001896	37.6719999313
920.0	0.0001908	37.7030000687
920.0	0.0001915	37.75
920.0	0.0001918	37.7969999313
920.0	0.0001921	37.8280000687
920.0	0.0001922	37.875
920.0	0.0001925	37.9059998989
920.0	0.0001928	37.9530000687
920.0	0.0001928	38.0
920.0	0.0001931	38.0309998989
920.0	0.0001933	38.0780000687
920.0	0.0001937	38.125
920.0	0.0001938	38.1559998989
920.0	0.0001943	38.2030000687
920.0	0.0001947	38.2339999676
920.0	0.000195	38.2809998989
920.0	0.000195	38.3280000687
920.0	0.000195	38.3589999676
920.0	0.000195	38.4059998989
920.0	0.0001951	38.4530000687
920.0	0.0001952	38.4839999676
920.0	0.0001951	38.5309998989
920.0	0.0001947	38.5780000687
920.0	0.0001947	38.6089999676
920.0	0.000195	38.6559998989
920.0	0.000195	38.6870000362
920.0	0.0001952	38.7339999676
920.0	0.0001956	38.7809998989
920.0	0.0001956	38.8120000362
920.0	0.0001957	38.8589999676
920.0	0.0001958	38.9059998989
920.0	0.0001957	38.9370000362
920.0	0.0001951	38.9839999676
930.0	0.0002028	39.2809998989
930.0	0.0002053	39.3280000687
930.0	0.0002075	39.375
930.0	0.000209	39.4059998989
930.0	0.0002102	39.4530000687
930.0	0.0002116	39.4839999676
930.0	0.0002125	39.5309998989
930.0	0.0002132	39.5780000687
930.0	0.0002143	39.6089999676
930.0	0.0002146	39.6559998989
930.0	0.0002147	39.7030000687
930.0	0.0002152	39.7339999676
930.0	0.0002157	39.7809998989
930.0	0.000216	39.8120000362
930.0	0.0002163	39.8589999676
930.0	0.0002162	39.9059998989
930.0	0.0002158	39.9370000362
930.0	0.0002156	39.9839999676
930.0	0.0002152	40.0309998989
930.0	0.000215	40.0620000362
930.0	0.0002147	40.1089999676
930.0	0.0002152	40.1399998665
930.0	0.0002153	40.1870000362
930.0	0.0002153	40.2339999676
930.0	0.0002157	40.2649998665
930.0	0.0002158	40.3120000362
930.0	0.0002153	40.3589999676
930.0	0.0002147	40.3899998665
930.0	0.0002145	40.4370000362
930.0	0.0002141	40.4679999352
930.0	0.000214	40.5149998665
930.0	0.000214	40.5620000362
930.0	0.000214	40.5929999352
930.0	0.0002137	40.6399998665
930.0	0.0002138	40.6870000362
930.0	0.000214	40.7179999352
930.0	0.0002146	40.7649998665
940.0	0.0002237	41.0620000362
940.0	0.000226	41.0929999352
940.0	0.0002278	41.1399998665
940.0	0.0002295	41.1870000362
940.0	0.000231	41.2179999352
940.0	0.0002321	41.2649998665
940.0	0.0002332	41.3120000362
940.0	0.000234	41.3429999352
940.0	0.0002346	41.3899998665
940.0	0.0002352	41.4219999313
940.0	0.0002356	41.4679999352
940.0	0.0002353	41.5149998665
940.0	0.0002352	41.5469999313
940.0	0.0002357	41.5929999352
940.0	0.000236	41.6399998665
940.0	0.000236	41.6719999313
940.0	0.0002358	41.7179999352
940.0	0.0002357	41.75
940.0	0.0002356	41.7969999313
940.0	0.0002357	41.8429999352
940.0	0.0002357	41.875
940.0	0.000236	41.9219999313
940.0	0.000236	41.9679999352
940.0	0.0002358	42.0
940.0	0.0002358	42.0469999313
940.0	0.0002358	42.0929999352
940.0	0.0002358	42.125
940.0	0.0002353	42.1719999313
940.0	0.000235	42.2030000687
940.0	0.0002347	42.25
940.0	0.0002347	42.2969999313
940.0	0.0002347	42.3280000687
940.0	0.0002352	42.375
940.0	0.0002356	42.4219999313
940.0	0.0002353	42.4530000687
940.0	0.0002353	42.5
940.0	0.0002352	42.5309998989
950.0	0.0002437	42.8280000687
950.0	0.0002462	42.875
950.0	0.0002483	42.9219999313
950.0	0.0002502	42.9530000687
950.0	0.0002516	43.0
950.0	0.0002527	43.0469999313
950.0	0.0002535	43.0780000687
950.0	0.0002543	43.125
950.0	0.0002547	43.1559998989
950.0	0.0002552	43.2030000687
950.0	0.0002556	43.25
950.0	0.0002565	43.2809998989
950.0	0.0002568	43.3280000687
950.0	0.0002568	43.375
950.0	0.0002568	43.4059998989
950.0	0.0002568	43.4530000687
950.0	0.0002568	43.4839999676
950.0	0.0002565	43.5309998989
950.0	0.0002566	43.5780000687
950.0	0.0002568	43.6089999676
950.0	0.0002568	43.6559998989
950.0	0.000257	43.7030000687
950.0	0.000257	43.7339999676
950.0	0.0002566	43.7809998989
950.0	0.0002565	43.8120000362
950.0	0.0002563	43.8589999676
950.0	0.0002562	43.9059998989
950.0	0.000256	43.9370000362
950.0	0.0002563	43.9839999676
950.0	0.0002566	44.0309998989
950.0	0.0002571	44.0620000362
950.0	0.0002577	44.1089999676
950.0	0.0002581	44.1559998989
950.0	0.0002581	44.1870000362
950.0	0.0002578	44.2339999676
950.0	0.0002575	44.2649998665
950.0	0.0002568	44.3120000362
960.0	0.0002646	44.5929999352
960.0	0.0002671	44.6399998665
960.0	0.0002693	44.6719999313
960.0	0.000271	44.7179999352
960.0	0.0002725	44.7649998665
960.0	0.000274	44.7969999313
960.0	0.0002751	44.8429999352
960.0	0.0002758	44.8899998665
960.0	0.0002762	44.9219999313
960.0	0.0002765	44.9679999352
960.0	0.0002768	45.0
960.0	0.0002768	45.0469999313
960.0	0.0002766	45.0929999352
960.0	0.0002765	45.125
960.0	0.0002762	45.1719999313
960.0	0.0002762	45.2179999352
960.0	0.0002765	45.25
960.0	0.0002771	45.2969999313
960.0	0.0002777	45.3280000687
960.0	0.0002777	45.375
960.0	0.0002778	45.4219999313
960.0	0.0002781	45.4530000687
960.0	0.0002781	45.5
960.0	0.0002782	45.5469999313
960.0	0.0002783	45.5780000687
960.0	0.0002783	45.625
960.0	0.0002782	45.6719999313
960.0	0.0002783	45.7030000687
960.0	0.0002781	45.75
960.0	0.0002777	45.7809998989
960.0	0.0002776	45.8280000687
960.0	0.0002775	45.875
960.0	0.0002775	45.9059998989
960.0	0.0002777	45.9530000687
960.0	0.0002777	46.0
960.0	0.0002772	46.0309998989
960.0	0.0002768	46.0780000687
970.0	0.0002846	46.3589999676
970.0	0.0002868	46.3899998665
970.0	0.0002888	46.4370000362
970.0	0.0002906	46.4839999676
970.0	0.0002921	46.5149998665
970.0	0.0002935	46.5620000362
970.0	0.0002945	46.5929999352
970.0	0.0002953	46.6399998665
970.0	0.0002963	46.6870000362
970.0	0.0002966	46.7179999352
970.0	0.0002966	46.7649998665
970.0	0.0002968	46.8120000362
970.0	0.0002966	46.8429999352
970.0	0.0002965	46.8899998665
970.0	0.0002968	46.9219999313
970.0	0.000297	46.9679999352
970.0	0.000297	47.0149998665
970.0	0.0002971	47.0469999313
970.0	0.0002971	47.0929999352
970.0	0.000297	47.1399998665
970.0	0.0002968	47.1719999313
970.0	0.0002968	47.2179999352
970.0	0.0002965	47.25
970.0	0.0002965	47.2969999313
970.0	0.0002963	47.3429999352
970.0	0.0002958	47.375
970.0	0.0002957	47.4219999313
970.0	0.000296	47.4679999352
970.0	0.0002965	47.5
970.0	0.0002968	47.5469999313
970.0	0.0002971	47.5780000687
970.0	0.0002975	47.625
970.0	0.0002971	47.6719999313
970.0	0.0002971	47.7030000687
970.0	0.0002971	47.75
970.0	0.0002971	47.7969999313
970.0	0.0002972	47.8280000687
980.0	0.0003043	48.1089999676
980.0	0.0003068	48.1559998989
980.0	0.0003085	48.1870000362
980.0	0.0003102	48.2339999676
980.0	0.0003118	48.2809998989
980.0	0.0003127	48.3120000362
980.0	0.0003137	48.3589999676
980.0	0.0003141	48.4059998989
980.0	0.0003146	48.4370000362
980.0	0.0003147	48.4839999676
980.0	0.0003153	48.5149998665
980.0	0.0003158	48.5620000362
980.0	0.0003158	48.6089999676
980.0	0.0003162	48.6399998665
980.0	0.0003166	48.6870000362
980.0	0.0003162	48.7339999676
980.0	0.0003158	48.7649998665
980.0	0.0003158	48.8120000362
980.0	0.0003156	48.8429999352
980.0	0.0003158	48.8899998665
980.0	0.0003163	48.9370000362
980.0	0.0003165	48.9679999352
980.0	0.0003162	49.0149998665
980.0	0.0003156	49.0620000362
980.0	0.0003152	49.0929999352
980.0	0.000315	49.1399998665
980.0	0.0003151	49.1719999313
980.0	0.0003152	49.2179999352
980.0	0.0003151	49.2649998665
980.0	0.0003152	49.2969999313
980.0	0.0003156	49.3429999352
980.0	0.0003153	49.3899998665
980.0	0.0003153	49.4370000362
980.0	0.0003153	49.4679999352
980.0	0.0003156	49.5149998665
980.0	0.0003158	49.5469999313
980.0	0.0003163	49.5929999352
990.0	0.0003232	49.875
990.0	0.0003252	49.9219999313
990.0	0.0003271	49.9530000687
990.0	0.0003287	50.0
990.0	0.0003302	50.0309998989
990.0	0.0003313	50.0780000687
990.0	0.000332	50.125
990.0	0.0003327	50.1559998989
990.0	0.0003331	50.2030000687
990.0	0.0003327	50.25
990.0	0.000333	50.2809998989
990.0	0.0003327	50.3280000687
990.0	0.0003331	50.3589999676
990.0	0.0003337	50.4059998989
990.0	0.0003342	50.4530000687
990.0	0.0003346	50.4839999676
990.0	0.0003351	50.5309998989
990.0	0.0003352	50.5780000687
990.0	0.0003352	50.6089999676
990.0	0.0003351	50.6559998989
990.0	0.0003346	50.7030000687
990.0	0.000334	50.7339999676
990.0	0.0003337	50.7809998989
990.0	0.0003333	50.8120000362
990.0	0.0003332	50.8589999676
990.0	0.0003331	50.9059998989
990.0	0.0003337	50.9370000362
990.0	0.000334	50.9839999676
990.0	0.0003342	51.0309998989
990.0	0.0003345	51.0620000362
990.0	0.0003348	51.1089999676
990.0	0.0003351	51.1399998665
990.0	0.0003355	51.1870000362
990.0	0.0003356	51.2339999676
990.0	0.0003355	51.2649998665
990.0	0.0003352	51.3120000362
990.0	0.0003352	51.3589999676
1000.0	0.0003423	51.625
1000.0	0.0003443	51.6719999313
1000.0	0.0003461	51.7179999352
1000.0	0.000348	51.75
1000.0	0.000349	51.7969999313
1000.0	0.0003496	51.8429999352
1000.0	0.0003502	51.875
1000.0	0.0003511	51.9219999313
1000.0	0.0003513	51.9530000687
1000.0	0.0003517	52.0
1000.0	0.0003521	52.0469999313
1000.0	0.0003525	52.0780000687
1000.0	0.0003526	52.125
1000.0	0.0003526	52.1719999313
1000.0	0.0003525	52.2030000687
1000.0	0.0003521	52.25
1000.0	0.0003525	52.2809998989
1000.0	0.0003526	52.3280000687
1000.0	0.0003526	52.375
1000.0	0.0003527	52.4059998989
1000.0	0.000353	52.4530000687
1000.0	0.000353	52.5
1000.0	0.0003533	52.5309998989
1000.0	0.0003533	52.5780000687
1000.0	0.0003533	52.625
1000.0	0.0003532	52.6559998989
1000.0	0.0003531	52.7030000687
1000.0	0.0003533	52.7339999676
1000.0	0.0003532	52.7809998989
1000.0	0.0003532	52.8280000687
1000.0	0.0003532	52.8589999676
1000.0	0.0003532	52.9059998989
1000.0	0.0003532	52.9530000687
1000.0	0.0003533	52.9839999676
1000.0	0.0003536	53.0309998989
1000.0	0.0003537	53.0620000362
1000.0	0.0003536	53.1089999676
1010.0	0.0003607	53.3899998665
1010.0	0.000363	53.4219999313
1010.0	0.0003645	53.4679999352
1010.0	0.0003661	53.5149998665
1010.0	0.0003675	53.5469999313
1010.0	0.0003682	53.5929999352
1010.0	0.000369	53.625
1010.0	0.0003696	53.6719999313
1010.0	0.0003702	53.7179999352
1010.0	0.0003706	53.75
1010.0	0.0003711	53.7969999313
1010.0	0.0003713	53.8429999352
1010.0	0.0003712	53.875
1010.0	0.0003708	53.9219999313
1010.0	0.0003708	53.9530000687
1010.0	0.0003711	54.0
1010.0	0.0003708	54.0469999313
1010.0	0.0003715	54.0780000687
1010.0	0.0003717	54.125
1010.0	0.0003715	54.1719999313
1010.0	0.0003713	54.2030000687
1010.0	0.0003711	54.25
1010.0	0.0003711	54.2809998989
1010.0	0.0003711	54.3280000687
1010.0	0.0003712	54.375
1010.0	0.0003713	54.4059998989
1010.0	0.0003717	54.4530000687
1010.0	0.0003717	54.5
1010.0	0.0003713	54.5309998989
1010.0	0.0003712	54.5780000687
1010.0	0.0003708	54.625
1010.0	0.0003701	54.6559998989
1010.0	0.0003701	54.7030000687
1010.0	0.0003705	54.7339999676
1010.0	0.0003707	54.7809998989
1010.0	0.0003708	54.8280000687
1010.0	0.0003708	54.8589999676
1020.0	0.0003782	55.1399998665
1020.0	0.0003807	55.1870000362
1020.0	0.0003831	55.2179999352
1020.0	0.0003845	55.2649998665
1020.0	0.0003858	55.2969999313
1020.0	0.0003873	55.3429999352
1020.0	0.0003886	55.3899998665
1020.0	0.0003895	55.4219999313
1020.0	0.0003898	55.4679999352
1020.0	0.0003896	55.5149998665
1020.0	0.0003898	55.5469999313
1020.0	0.0003901	55.5929999352
1020.0	0.0003898	55.625
1020.0	0.0003898	55.6719999313
1020.0	0.0003901	55.7179999352
1020.0	0.0003902	55.75
1020.0	0.0003905	55.7969999313
1020.0	0.0003907	55.8429999352
1020.0	0.0003908	55.875
1020.0	0.0003908	55.9219999313
1020.0	0.0003908	55.9530000687
1020.0	0.0003911	56.0
1020.0	0.0003908	56.0469999313
1020.0	0.0003907	56.0780000687
1020.0	0.0003905	56.125
1020.0	0.0003901	56.1719999313
1020.0	0.0003901	56.2030000687
1020.0	0.0003901	56.25
1020.0	0.0003901	56.2969999313
1020.0	0.0003905	56.3280000687
1020.0	0.0003908	56.375
1020.0	0.0003912	56.4059998989
1020.0	0.0003915	56.4530000687
1020.0	0.0003917	56.5
1020.0	0.0003915	56.5309998989
1020.0	0.0003912	56.5780000687
1020.0	0.0003907	56.625
1030.0	0.0003975	56.8899998665
1030.0	0.0004001	56.9370000362
1030.0	0.0004021	56.9679999352
1030.0	0.0004038	57.0149998665
1030.0	0.0004051	57.0620000362
1030.0	0.0004062	57.0929999352
1030.0	0.000407	57.1399998665
1030.0	0.0004075	57.1870000362
1030.0	0.0004077	57.2179999352
1030.0	0.0004077	57.2649998665
1030.0	0.0004077	57.2969999313
1030.0	0.000408	57.3429999352
1030.0	0.0004076	57.3899998665
1030.0	0.0004075	57.4219999313
1030.0	0.0004076	57.4679999352
1030.0	0.0004073	57.5149998665
1030.0	0.0004071	57.5469999313
1030.0	0.0004077	57.5929999352
1030.0	0.0004082	57.625
1030.0	0.000408	57.6719999313
1030.0	0.0004082	57.7179999352
1030.0	0.0004086	57.75
1030.0	0.0004087	57.7969999313
1030.0	0.0004086	57.8429999352
1030.0	0.0004083	57.875
1030.0	0.0004083	57.9219999313
1030.0	0.0004086	57.9530000687
1030.0	0.0004087	58.0
1030.0	0.0004088	58.0469999313
1030.0	0.000409	58.0780000687
1030.0	0.0004092	58.125
1030.0	0.0004095	58.1719999313
1030.0	0.0004093	58.2030000687
1030.0	0.0004095	58.25
1030.0	0.0004098	58.2969999313
1030.0	0.0004098	58.3280000687
1030.0	0.0004095	58.375
1040.0	0.0004155	58.6559998989
1040.0	0.0004182	58.7030000687
1040.0	0.0004205	58.7339999676
1040.0	0.0004226	58.7809998989
1040.0	0.0004242	58.8120000362
1040.0	0.0004255	58.8589999676
1040.0	0.0004262	58.9059998989
1040.0	0.0004267	58.9370000362
1040.0	0.0004271	58.9839999676
1040.0	0.0004276	59.0309998989
1040.0	0.0004281	59.0620000362
1040.0	0.0004282	59.1089999676
1040.0	0.000428	59.1399998665
1040.0	0.000428	59.1870000362
1040.0	0.0004281	59.2339999676
1040.0	0.000428	59.2649998665
1040.0	0.0004276	59.3120000362
1040.0	0.0004276	59.3589999676
1040.0	0.0004275	59.3899998665
1040.0	0.0004273	59.4370000362
1040.0	0.0004277	59.4679999352
1040.0	0.0004275	59.5149998665
1040.0	0.0004271	59.5620000362
1040.0	0.0004271	59.5929999352
1040.0	0.0004273	59.6399998665
1040.0	0.0004276	59.6870000362
1040.0	0.0004281	59.7179999352
1040.0	0.0004287	59.7649998665
1040.0	0.0004288	59.8120000362
1040.0	0.000429	59.8429999352
1040.0	0.0004292	59.8899998665
1040.0	0.0004293	59.9219999313
1040.0	0.0004292	59.9679999352
1040.0	0.0004293	60.0149998665
1040.0	0.0004292	60.0469999313
1040.0	0.0004292	60.0929999352
1040.0	0.0004292	60.1399998665
1050.0	0.000435	60.4059998989
1050.0	0.0004376	60.4530000687
1050.0	0.0004395	60.5
1050.0	0.0004415	60.5309998989
1050.0	0.0004427	60.5780000687
1050.0	0.0004438	60.625
1050.0	0.0004445	60.6559998989
1050.0	0.0004455	60.7030000687
1050.0	0.0004462	60.7339999676
1050.0	0.0004465	60.7809998989
1050.0	0.0004463	60.8280000687
1050.0	0.0004462	60.8589999676
1050.0	0.0004457	60.9059998989
1050.0	0.0004455	60.9530000687
1050.0	0.0004457	60.9839999676
1050.0	0.0004457	61.0309998989
1050.0	0.0004458	61.0780000687
1050.0	0.0004457	61.1089999676
1050.0	0.0004455	61.1559998989
1050.0	0.0004452	61.1870000362
1050.0	0.0004452	61.2339999676
1050.0	0.0004456	61.2809998989
1050.0	0.0004457	61.3120000362
1050.0	0.0004458	61.3589999676
1050.0	0.0004461	61.4059998989
1050.0	0.0004457	61.4370000362
1050.0	0.0004457	61.4839999676
1050.0	0.0004457	61.5149998665
1050.0	0.0004455	61.5620000362
1050.0	0.0004456	61.6089999676
1050.0	0.0004457	61.6399998665
1050.0	0.0004457	61.6870000362
1050.0	0.0004457	61.7339999676
1050.0	0.0004457	61.7649998665
1050.0	0.0004455	61.8120000362
1050.0	0.0004455	61.8429999352
1050.0	0.0004456	61.8899998665
1060.0	0.0004515	62.1719999313
1060.0	0.0004537	62.2030000687
1060.0	0.0004562	62.25
1060.0	0.000458	62.2969999313
1060.0	0.0004593	62.3280000687
1060.0	0.0004605	62.375
1060.0	0.0004613	62.4059998989
1060.0	0.000462	62.4530000687
1060.0	0.0004625	62.5
1060.0	0.0004626	62.5309998989
1060.0	0.0004632	62.5780000687
1060.0	0.0004638	62.625
1060.0	0.0004638	62.6559998989
1060.0	0.0004637	62.7030000687
1060.0	0.0004633	62.7339999676
1060.0	0.0004631	62.7809998989
1060.0	0.0004632	62.8280000687
1060.0	0.0004632	62.8589999676
1060.0	0.000463	62.9059998989
1060.0	0.000463	62.9530000687
1060.0	0.0004632	62.9839999676
1060.0	0.0004632	63.0309998989
1060.0	0.0004631	63.0780000687
1060.0	0.0004631	63.1089999676
1060.0	0.0004636	63.1559998989
1060.0	0.0004637	63.1870000362
1060.0	0.0004638	63.2339999676
1060.0	0.000464	63.2809998989
1060.0	0.0004642	63.3120000362
1060.0	0.0004637	63.3589999676
1060.0	0.0004636	63.3899998665
1060.0	0.0004636	63.4370000362
1060.0	0.0004636	63.4839999676
1060.0	0.0004638	63.5149998665
1060.0	0.0004638	63.5620000362
1060.0	0.0004636	63.6089999676
1060.0	0.0004636	63.6399998665
1070.0	0.0004698	63.9219999313
1070.0	0.0004717	63.9679999352
1070.0	0.000473	64.0
1070.0	0.0004742	64.0469999313
1070.0	0.0004757	64.0929999352
1070.0	0.0004768	64.125
1070.0	0.0004777	64.1719999313
1070.0	0.0004782	64.2179999352
1070.0	0.0004786	64.25
1070.0	0.0004787	64.2969999313
1070.0	0.0004788	64.3280000687
1070.0	0.0004793	64.375
1070.0	0.0004796	64.4219999313
1070.0	0.0004798	64.4530000687
1070.0	0.0004798	64.5
1070.0	0.00048	64.5469999313
1070.0	0.00048	64.5780000687
1070.0	0.0004802	64.625
1070.0	0.0004806	64.6559998989
1070.0	0.0004805	64.7030000687
1070.0	0.0004802	64.75
1070.0	0.00048	64.7809998989
1070.0	0.0004795	64.8280000687
1070.0	0.0004793	64.875
1070.0	0.0004793	64.9059998989
1070.0	0.0004795	64.9530000687
1070.0	0.0004801	65.0
1070.0	0.0004801	65.0309998989
1070.0	0.00048	65.0780000687
1070.0	0.0004798	65.1089999676
1070.0	0.0004798	65.1559998989
1070.0	0.0004798	65.2030000687
1070.0	0.0004798	65.2339999676
1070.0	0.0004798	65.2809998989
1070.0	0.0004798	65.3280000687
1070.0	0.0004798	65.3589999676
1070.0	0.00048	65.4059998989
1080.0	0.0004855	65.6719999313
1080.0	0.0004875	65.7179999352
1080.0	0.0004893	65.7649998665
1080.0	0.0004912	65.7969999313
1080.0	0.0004926	65.8429999352
1080.0	0.0004936	65.8899998665
1080.0	0.0004942	65.9219999313
1080.0	0.0004948	65.9679999352
1080.0	0.0004952	66.0
1080.0	0.0004957	66.0469999313
1080.0	0.0004961	66.0929999352
1080.0	0.0004961	66.125
1080.0	0.0004956	66.1719999313
1080.0	0.0004955	66.2179999352
1080.0	0.0004952	66.25
1080.0	0.0004951	66.2969999313
1080.0	0.0004951	66.3280000687
1080.0	0.0004952	66.375
1080.0	0.0004952	66.4219999313
1080.0	0.0004951	66.4530000687
1080.0	0.0004955	66.5
1080.0	0.0004956	66.5469999313
1080.0	0.0004955	66.5780000687
1080.0	0.0004955	66.625
1080.0	0.0004955	66.6719999313
1080.0	0.0004955	66.7030000687
1080.0	0.0004952	66.75
1080.0	0.0004955	66.7809998989
1080.0	0.0004952	66.8280000687
1080.0	0.0004955	66.875
1080.0	0.0004955	66.9059998989
1080.0	0.0004956	66.9530000687
1080.0	0.0004956	67.0
1080.0	0.0004956	67.0309998989
1080.0	0.0004957	67.0780000687
1080.0	0.0004957	67.1089999676
1080.0	0.0004957	67.1559998989
1090.0	0.0004996	67.4219999313
1090.0	0.0005007	67.4679999352
1090.0	0.0005023	67.5149998665
1090.0	0.0005033	67.5469999313
1090.0	0.0005043	67.5929999352
1090.0	0.0005057	67.6399998665
1090.0	0.0005063	67.6719999313
1090.0	0.0005063	67.7179999352
1090.0	0.0005067	67.75
1090.0	0.0005067	67.7969999313
1090.0	0.0005061	67.8429999352
1090.0	0.0005057	67.875
1090.0	0.0005056	67.9219999313
1090.0	0.0005056	67.9679999352
1090.0	0.0005056	68.0
1090.0	0.0005057	68.0469999313
1090.0	0.0005055	68.0780000687
1090.0	0.0005052	68.125
1090.0	0.0005055	68.1719999313
1090.0	0.0005055	68.2030000687
1090.0	0.0005052	68.25
1090.0	0.0005052	68.2969999313
1090.0	0.0005055	68.3280000687
1090.0	0.0005052	68.375
1090.0	0.0005052	68.4219999313
1090.0	0.0005052	68.4530000687
1090.0	0.0005056	68.5
1090.0	0.0005058	68.5309998989
1090.0	0.0005063	68.5780000687
1090.0	0.0005063	68.625
1090.0	0.0005067	68.6559998989
1090.0	0.0005068	68.7030000687
1090.0	0.0005067	68.75
1090.0	0.0005068	68.7809998989
1090.0	0.000507	68.8280000687
1090.0	0.0005068	68.8589999676
1090.0	0.0005065	68.9059998989
1100.0	0.0005111	69.1719999313
1100.0	0.0005123	69.2179999352
1100.0	0.0005136	69.25
1100.0	0.0005142	69.2969999313
1100.0	0.0005145	69.3429999352
1100.0	0.0005145	69.375
1100.0	0.0005145	69.4219999313
1100.0	0.0005148	69.4530000687
1100.0	0.000515	69.5
1100.0	0.0005151	69.5469999313
1100.0	0.0005155	69.5780000687
1100.0	0.0005157	69.625
1100.0	0.0005161	69.6719999313
1100.0	0.0005161	69.7030000687
1100.0	0.0005157	69.75
1100.0	0.0005152	69.7969999313
1100.0	0.000515	69.8280000687
1100.0	0.000515	69.875
1100.0	0.000515	69.9059998989
1100.0	0.0005151	69.9530000687
1100.0	0.0005152	70.0
1100.0	0.0005152	70.0309998989
1100.0	0.0005152	70.0780000687
1100.0	0.0005155	70.125
1100.0	0.0005156	70.1559998989
1100.0	0.0005158	70.2030000687
1100.0	0.0005163	70.2339999676
1100.0	0.0005165	70.2809998989
1100.0	0.0005165	70.3280000687
1100.0	0.0005165	70.3589999676
1100.0	0.0005163	70.4059998989
1100.0	0.0005162	70.4530000687
1100.0	0.0005162	70.4839999676
1100.0	0.0005161	70.5309998989
1100.0	0.0005157	70.5620000362
1100.0	0.0005158	70.6089999676
1100.0	0.0005163	70.6559998989
1110.0	0.0005183	70.9219999313
1110.0	0.0005192	70.9530000687
1110.0	0.0005198	71.0
1110.0	0.0005202	71.0469999313
1110.0	0.0005207	71.0780000687
1110.0	0.0005211	71.125
1110.0	0.0005212	71.1719999313
1110.0	0.0005213	71.2030000687
1110.0	0.0005213	71.25
1110.0	0.0005212	71.2809998989
1110.0	0.0005213	71.3280000687
1110.0	0.0005217	71.375
1110.0	0.0005215	71.4059998989
1110.0	0.0005213	71.4530000687
1110.0	0.0005213	71.5
1110.0	0.0005211	71.5309998989
1110.0	0.0005208	71.5780000687
1110.0	0.0005208	71.625
1110.0	0.0005208	71.6559998989
1110.0	0.0005208	71.7030000687
1110.0	0.0005211	71.7339999676
1110.0	0.0005211	71.7809998989
1110.0	0.0005207	71.8280000687
1110.0	0.0005206	71.8589999676
1110.0	0.0005201	71.9059998989
1110.0	0.0005201	71.9530000687
1110.0	0.0005201	71.9839999676
1110.0	0.0005205	72.0309998989
1110.0	0.0005207	72.0620000362
1110.0	0.0005207	72.1089999676
1110.0	0.0005211	72.1559998989
1110.0	0.0005211	72.1870000362
1110.0	0.0005211	72.2339999676
1110.0	0.0005213	72.2809998989
1110.0	0.0005215	72.3120000362
1110.0	0.0005211	72.3589999676
1110.0	0.0005211	72.3899998665
1120.0	0.0005223	72.6719999313
1120.0	0.0005226	72.7030000687
1120.0	0.0005226	72.75
1120.0	0.0005231	72.7809998989
1120.0	0.0005236	72.8280000687
1120.0	0.0005243	72.875
1120.0	0.000525	72.9059998989
1120.0	0.0005248	72.9530000687
1120.0	0.0005245	73.0
1120.0	0.0005245	73.0309998989
1120.0	0.0005245	73.0780000687
1120.0	0.0005246	73.1089999676
1120.0	0.0005246	73.1559998989
1120.0	0.0005245	73.2030000687
1120.0	0.0005242	73.2339999676
1120.0	0.0005242	73.2809998989
1120.0	0.0005242	73.3280000687
1120.0	0.0005245	73.3589999676
1120.0	0.0005246	73.4059998989
1120.0	0.0005248	73.4530000687
1120.0	0.0005248	73.4839999676
1120.0	0.0005248	73.5309998989
1120.0	0.0005246	73.5620000362
1120.0	0.0005245	73.6089999676
1120.0	0.0005243	73.6559998989
1120.0	0.0005245	73.6870000362
1120.0	0.0005242	73.7339999676
1120.0	0.0005242	73.7649998665
1120.0	0.0005242	73.8120000362
1120.0	0.0005238	73.8589999676
1120.0	0.0005238	73.8899998665
1120.0	0.0005238	73.9370000362
1120.0	0.0005242	73.9839999676
1120.0	0.0005242	74.0149998665
1120.0	0.0005243	74.0620000362
1120.0	0.0005243	74.1089999676
1120.0	0.0005243	74.1399998665
1130.0	0.0005248	74.4059998989
1130.0	0.0005246	74.4530000687
1130.0	0.0005242	74.4839999676
1130.0	0.0005242	74.5309998989
1130.0	0.0005245	74.5780000687
1130.0	0.0005246	74.6089999676
1130.0	0.0005251	74.6559998989
1130.0	0.0005255	74.6870000362
1130.0	0.0005252	74.7339999676
1130.0	0.0005248	74.7809998989
1130.0	0.0005248	74.8120000362
1130.0	0.0005251	74.8589999676
1130.0	0.000525	74.9059998989
1130.0	0.0005251	74.9370000362
1130.0	0.0005248	74.9839999676
1130.0	0.0005246	75.0149998665
1130.0	0.0005246	75.0620000362
1130.0	0.0005245	75.1089999676
1130.0	0.0005245	75.1399998665
1130.0	0.0005245	75.1870000362
1130.0	0.0005246	75.2339999676
1130.0	0.0005242	75.2649998665
1130.0	0.000524	75.3120000362
1130.0	0.0005245	75.3429999352
1130.0	0.0005248	75.3899998665
1130.0	0.0005251	75.4370000362
1130.0	0.0005255	75.4679999352
1130.0	0.0005257	75.5149998665
1130.0	0.0005257	75.5620000362
1130.0	0.0005258	75.5929999352
1130.0	0.0005257	75.6399998665
1130.0	0.0005258	75.6719999313
1130.0	0.0005261	75.7179999352
1130.0	0.0005261	75.7649998665
1130.0	0.0005263	75.7969999313
1130.0	0.0005263	75.8429999352
1130.0	0.0005267	75.8899998665
1140.0	0.0005261	76.1399998665
1140.0	0.0005257	76.1870000362
1140.0	0.0005251	76.2339999676
1140.0	0.0005246	76.2649998665
1140.0	0.0005243	76.3120000362
1140.0	0.0005246	76.3589999676
1140.0	0.0005248	76.3899998665
1140.0	0.0005245	76.4370000362
1140.0	0.0005243	76.4679999352
1140.0	0.0005238	76.5149998665
1140.0	0.0005233	76.5620000362
1140.0	0.0005233	76.5929999352
1140.0	0.0005233	76.6399998665
1140.0	0.0005236	76.6870000362
1140.0	0.0005237	76.7179999352
1140.0	0.0005238	76.7649998665
1140.0	0.000524	76.7969999313
1140.0	0.0005245	76.8429999352
1140.0	0.0005248	76.8899998665
1140.0	0.0005251	76.9219999313
1140.0	0.000525	76.9679999352
1140.0	0.0005248	77.0149998665
1140.0	0.0005246	77.0469999313
1140.0	0.000524	77.0929999352
1140.0	0.0005237	77.1399998665
1140.0	0.0005237	77.1719999313
1140.0	0.0005237	77.2179999352
1140.0	0.0005238	77.25
1140.0	0.0005245	77.2969999313
1140.0	0.000525	77.3429999352
1140.0	0.0005246	77.375
1140.0	0.0005242	77.4219999313
1140.0	0.000524	77.4679999352
1140.0	0.0005237	77.5
1140.0	0.0005237	77.5469999313
1140.0	0.0005238	77.5780000687
1140.0	0.0005237	77.625
1150.0	0.0005221	77.8899998665
1150.0	0.000522	77.9370000362
1150.0	0.0005218	77.9679999352
1150.0	0.0005217	78.0149998665
1150.0	0.0005217	78.0469999313
1150.0	0.0005212	78.0929999352
1150.0	0.0005208	78.1399998665
1150.0	0.0005208	78.1719999313
1150.0	0.0005212	78.2179999352
1150.0	0.0005212	78.2649998665
1150.0	0.0005213	78.2969999313
1150.0	0.0005215	78.3429999352
1150.0	0.0005213	78.375
1150.0	0.0005211	78.4219999313
1150.0	0.0005207	78.4679999352
1150.0	0.0005206	78.5
1150.0	0.0005206	78.5469999313
1150.0	0.0005208	78.5929999352
1150.0	0.0005212	78.625
1150.0	0.0005217	78.6719999313
1150.0	0.0005223	78.7030000687
1150.0	0.0005225	78.75
1150.0	0.0005226	78.7969999313
1150.0	0.0005231	78.8280000687
1150.0	0.0005231	78.875
1150.0	0.0005226	78.9219999313
1150.0	0.0005223	78.9530000687
1150.0	0.0005221	79.0
1150.0	0.0005217	79.0309998989
1150.0	0.0005217	79.0780000687
1150.0	0.000522	79.125
1150.0	0.0005218	79.1559998989
1150.0	0.0005218	79.2030000687
1150.0	0.0005218	79.25
1150.0	0.0005215	79.2809998989
1150.0	0.0005212	79.3280000687
1150.0	0.0005213	79.375
1160.0	0.0005212	79.625
1160.0	0.0005208	79.6719999313
1160.0	0.0005206	79.7179999352
1160.0	0.0005201	79.75
1160.0	0.0005195	79.7969999313
1160.0	0.0005198	79.8429999352
1160.0	0.0005198	79.875
1160.0	0.0005198	79.9219999313
1160.0	0.0005201	79.9679999352
1160.0	0.0005202	80.0
1160.0	0.00052	80.0469999313
1160.0	0.0005195	80.0929999352
1160.0	0.0005195	80.125
1160.0	0.0005192	80.1719999313
1160.0	0.0005195	80.2030000687
1160.0	0.0005196	80.25
1160.0	0.0005192	80.2969999313
1160.0	0.0005193	80.3280000687
1160.0	0.0005195	80.375
1160.0	0.0005193	80.4219999313
1160.0	0.0005192	80.4530000687
1160.0	0.000519	80.5
1160.0	0.000519	80.5309998989
1160.0	0.0005186	80.5780000687
1160.0	0.0005183	80.625
1160.0	0.0005182	80.6559998989
1160.0	0.0005182	80.7030000687
1160.0	0.0005183	80.75
1160.0	0.0005186	80.7809998989
1160.0	0.0005188	80.8280000687
1160.0	0.0005188	80.8589999676
1160.0	0.0005188	80.9059998989
1160.0	0.0005188	80.9530000687
1160.0	0.0005192	80.9839999676
1160.0	0.0005195	81.0309998989
1160.0	0.0005196	81.0780000687
1160.0	0.0005196	81.1089999676
1170.0	0.0005176	81.3899998665
1170.0	0.0005173	81.4219999313
1170.0	0.0005176	81.4679999352
1170.0	0.000518	81.5
1170.0	0.000518	81.5469999313
1170.0	0.0005186	81.5929999352
1170.0	0.0005187	81.625
1170.0	0.0005188	81.6719999313
1170.0	0.0005187	81.7179999352
1170.0	0.0005186	81.75
1170.0	0.0005182	81.7969999313
1170.0	0.000518	81.8280000687
1170.0	0.0005177	81.875
1170.0	0.0005175	81.9219999313
1170.0	0.0005171	81.9530000687
1170.0	0.0005173	82.0
1170.0	0.0005176	82.0469999313
1170.0	0.0005177	82.0780000687
1170.0	0.0005181	82.125
1170.0	0.0005182	82.1719999313
1170.0	0.0005182	82.2030000687
1170.0	0.000518	82.25
1170.0	0.000518	82.2809998989
1170.0	0.0005177	82.3280000687
1170.0	0.0005176	82.375
1170.0	0.0005177	82.4059998989
1170.0	0.000518	82.4530000687
1170.0	0.0005177	82.5
1170.0	0.000518	82.5309998989
1170.0	0.0005177	82.5780000687
1170.0	0.0005176	82.6089999676
1170.0	0.0005176	82.6559998989
1170.0	0.0005177	82.7030000687
1170.0	0.000518	82.7339999676
1170.0	0.0005182	82.7809998989
1170.0	0.0005182	82.8280000687
1170.0	0.0005182	82.8589999676
1180.0	0.0005176	83.1399998665
1180.0	0.000518	83.1719999313
1180.0	0.0005182	83.2179999352
1180.0	0.0005183	83.25
1180.0	0.0005182	83.2969999313
1180.0	0.0005181	83.3429999352
1180.0	0.0005181	83.375
1180.0	0.0005183	83.4219999313
1180.0	0.0005183	83.4679999352
1180.0	0.0005183	83.5
1180.0	0.0005186	83.5469999313
1180.0	0.0005187	83.5780000687
1180.0	0.0005188	83.625
1180.0	0.000519	83.6719999313
1180.0	0.0005188	83.7030000687
1180.0	0.0005182	83.75
1180.0	0.0005181	83.7969999313
1180.0	0.0005177	83.8280000687
1180.0	0.0005177	83.875
1180.0	0.0005182	83.9219999313
1180.0	0.0005186	83.9530000687
1180.0	0.0005187	84.0
1180.0	0.0005188	84.0309998989
1180.0	0.0005192	84.0780000687
1180.0	0.000519	84.125
1180.0	0.0005188	84.1559998989
1180.0	0.0005188	84.2030000687
1180.0	0.0005188	84.25
1180.0	0.0005187	84.2809998989
1180.0	0.0005183	84.3280000687
1180.0	0.0005181	84.3589999676
1180.0	0.000518	84.4059998989
1180.0	0.000518	84.4530000687
1180.0	0.0005182	84.4839999676
1180.0	0.0005182	84.5309998989
1180.0	0.0005182	84.5780000687
1180.0	0.0005182	84.6089999676
1190.0	0.0005192	84.875
1190.0	0.0005192	84.9219999313
1190.0	0.0005195	84.9679999352
1190.0	0.0005195	85.0
1190.0	0.0005202	85.0469999313
1190.0	0.0005207	85.0780000687
1190.0	0.0005208	85.125
1190.0	0.0005213	85.1719999313
1190.0	0.0005218	85.2030000687
1190.0	0.000522	85.25
1190.0	0.0005223	85.2969999313
1190.0	0.0005226	85.3280000687
1190.0	0.0005225	85.375
1190.0	0.000522	85.4059998989
1190.0	0.000522	85.4530000687
1190.0	0.0005217	85.5
1190.0	0.0005212	85.5309998989
1190.0	0.0005212	85.5780000687
1190.0	0.0005213	85.625
1190.0	0.0005215	85.6559998989
1190.0	0.000522	85.7030000687
1190.0	0.0005225	85.75
1190.0	0.0005223	85.7809998989
1190.0	0.000522	85.8280000687
1190.0	0.0005218	85.8589999676
1190.0	0.0005217	85.9059998989
1190.0	0.0005215	85.9530000687
1190.0	0.0005215	85.9839999676
1190.0	0.0005217	86.0309998989
1190.0	0.0005217	86.0780000687
1190.0	0.0005223	86.1089999676
1190.0	0.0005227	86.1559998989
1190.0	0.0005231	86.1870000362
1190.0	0.0005232	86.2339999676
1190.0	0.0005232	86.2809998989
1190.0	0.000523	86.3120000362
1190.0	0.0005225	86.3589999676
1200.0	0.0005238	86.625
1200.0	0.0005246	86.6719999313
1200.0	0.0005251	86.7179999352
1200.0	0.0005252	86.75
1200.0	0.0005257	86.7969999313
1200.0	0.0005258	86.8280000687
1200.0	0.0005258	86.875
1200.0	0.0005261	86.9219999313
1200.0	0.0005263	86.9530000687
1200.0	0.0005268	87.0
1200.0	0.0005267	87.0469999313
1200.0	0.0005267	87.0780000687
1200.0	0.0005265	87.125
1200.0	0.0005258	87.1559998989
1200.0	0.0005256	87.2030000687
1200.0	0.0005255	87.25
1200.0	0.0005255	87.2809998989
1200.0	0.0005255	87.3280000687
1200.0	0.0005255	87.375
1200.0	0.0005256	87.4059998989
1200.0	0.0005255	87.4530000687
1200.0	0.0005255	87.5
1200.0	0.0005256	87.5309998989
1200.0	0.0005258	87.5780000687
1200.0	0.0005262	87.6089999676
1200.0	0.0005263	87.6559998989
1200.0	0.0005262	87.7030000687
1200.0	0.0005262	87.7339999676
1200.0	0.0005256	87.7809998989
1200.0	0.000525	87.8280000687
1200.0	0.0005251	87.8589999676
1200.0	0.0005255	87.9059998989
1200.0	0.0005257	87.9370000362
1200.0	0.0005261	87.9839999676
1200.0	0.0005263	88.0309998989
1200.0	0.0005267	88.0620000362
1200.0	0.0005263	88.1089999676
1210.0	0.0005286	88.375
1210.0	0.0005293	88.4059998989
1210.0	0.0005302	88.4530000687
1210.0	0.0005312	88.5
1210.0	0.0005318	88.5309998989
1210.0	0.000532	88.5780000687
1210.0	0.000532	88.625
1210.0	0.0005318	88.6559998989
1210.0	0.0005317	88.7030000687
1210.0	0.0005318	88.7339999676
1210.0	0.0005323	88.7809998989
1210.0	0.0005327	88.8280000687
1210.0	0.000533	88.8589999676
1210.0	0.0005326	88.9059998989
1210.0	0.0005325	88.9530000687
1210.0	0.0005325	88.9839999676
1210.0	0.0005332	89.0309998989
1210.0	0.0005337	89.0620000362
1210.0	0.000534	89.1089999676
1210.0	0.0005342	89.1559998989
1210.0	0.0005343	89.1870000362
1210.0	0.000534	89.2339999676
1210.0	0.0005338	89.2809998989
1210.0	0.000534	89.3120000362
1210.0	0.0005336	89.3589999676
1210.0	0.000533	89.3899998665
1210.0	0.0005331	89.4370000362
1210.0	0.0005331	89.4839999676
1210.0	0.000533	89.5149998665
1210.0	0.0005327	89.5620000362
1210.0	0.000533	89.6089999676
1210.0	0.0005327	89.6399998665
1210.0	0.0005327	89.6870000362
1210.0	0.000533	89.7179999352
1210.0	0.000533	89.7649998665
1210.0	0.000533	89.8120000362
1210.0	0.0005331	89.8429999352
1220.0	0.0005373	90.1089999676
1220.0	0.0005383	90.1559998989
1220.0	0.0005392	90.2030000687
1220.0	0.0005395	90.2339999676
1220.0	0.00054	90.2809998989
1220.0	0.0005401	90.3280000687
1220.0	0.0005406	90.3589999676
1220.0	0.0005411	90.4059998989
1220.0	0.0005412	90.4370000362
1220.0	0.0005412	90.4839999676
1220.0	0.0005413	90.5309998989
1220.0	0.0005417	90.5620000362
1220.0	0.0005417	90.6089999676
1220.0	0.000542	90.6559998989
1220.0	0.000542	90.6870000362
1220.0	0.000542	90.7339999676
1220.0	0.0005421	90.7649998665
1220.0	0.0005421	90.8120000362
1220.0	0.0005421	90.8589999676
1220.0	0.0005417	90.8899998665
1220.0	0.0005413	90.9370000362
1220.0	0.0005407	90.9839999676
1220.0	0.0005402	91.0149998665
1220.0	0.0005402	91.0620000362
1220.0	0.0005406	91.1089999676
1220.0	0.0005408	91.1399998665
1220.0	0.0005411	91.1870000362
1220.0	0.0005413	91.2179999352
1220.0	0.0005415	91.2649998665
1220.0	0.0005415	91.3120000362
1220.0	0.0005418	91.3429999352
1220.0	0.000542	91.3899998665
1220.0	0.000542	91.4370000362
1220.0	0.000542	91.4679999352
1220.0	0.0005421	91.5149998665
1220.0	0.000542	91.5469999313
1220.0	0.000542	91.5929999352
1230.0	0.0005455	91.8589999676
1230.0	0.0005465	91.9059998989
1230.0	0.0005475	91.9370000362
1230.0	0.0005487	91.9839999676
1230.0	0.0005493	92.0309998989
1230.0	0.0005498	92.0620000362
1230.0	0.0005502	92.1089999676
1230.0	0.0005505	92.1559998989
1230.0	0.0005507	92.1870000362
1230.0	0.0005512	92.2339999676
1230.0	0.0005512	92.2649998665
1230.0	0.0005512	92.3120000362
1230.0	0.0005511	92.3589999676
1230.0	0.0005515	92.3899998665
1230.0	0.0005517	92.4370000362
1230.0	0.0005518	92.4839999676
1230.0	0.000552	92.5149998665
1230.0	0.000552	92.5620000362
1230.0	0.000552	92.5929999352
1230.0	0.000552	92.6399998665
1230.0	0.0005515	92.6870000362
1230.0	0.0005513	92.7179999352
1230.0	0.0005512	92.7649998665
1230.0	0.0005511	92.8120000362
1230.0	0.0005508	92.8429999352
1230.0	0.0005508	92.8899998665
1230.0	0.0005511	92.9219999313
1230.0	0.0005513	92.9679999352
1230.0	0.0005513	93.0149998665
1230.0	0.0005513	93.0469999313
1230.0	0.0005513	93.0929999352
1230.0	0.0005515	93.1399998665
1230.0	0.0005513	93.1719999313
1230.0	0.0005512	93.2179999352
1230.0	0.0005517	93.2649998665
1230.0	0.000552	93.2969999313
1230.0	0.000552	93.3429999352
1240.0	0.0005558	93.6089999676
1240.0	0.0005571	93.6559998989
1240.0	0.0005581	93.6870000362
1240.0	0.000559	93.7339999676
1240.0	0.0005598	93.7649998665
1240.0	0.0005605	93.8120000362
1240.0	0.0005611	93.8589999676
1240.0	0.0005612	93.8899998665
1240.0	0.0005608	93.9370000362
1240.0	0.0005611	93.9839999676
1240.0	0.0005615	94.0149998665
1240.0	0.000562	94.0620000362
1240.0	0.000562	94.0929999352
1240.0	0.000562	94.1399998665
1240.0	0.0005617	94.1870000362
1240.0	0.0005615	94.2179999352
1240.0	0.0005617	94.2649998665
1240.0	0.0005617	94.3120000362
1240.0	0.0005615	94.3429999352
1240.0	0.0005613	94.3899998665
1240.0	0.0005617	94.4219999313
1240.0	0.0005617	94.4679999352
1240.0	0.0005612	94.5149998665
1240.0	0.0005611	94.5469999313
1240.0	0.0005611	94.5929999352
1240.0	0.0005612	94.6399998665
1240.0	0.0005613	94.6719999313
1240.0	0.0005615	94.7179999352
1240.0	0.0005617	94.75
1240.0	0.0005623	94.7969999313
1240.0	0.0005623	94.8429999352
1240.0	0.0005623	94.875
1240.0	0.000562	94.9219999313
1240.0	0.000562	94.9679999352
1240.0	0.0005615	95.0
1240.0	0.0005611	95.0469999313
1240.0	0.0005607	95.0780000687
1250.0	0.0005638	95.3589999676
1250.0	0.0005655	95.3899998665
1250.0	0.0005667	95.4370000362
1250.0	0.000568	95.4679999352
1250.0	0.000569	95.5149998665
1250.0	0.0005698	95.5620000362
1250.0	0.00057	95.5929999352
1250.0	0.00057	95.6399998665
1250.0	0.0005705	95.6870000362
1250.0	0.0005707	95.7179999352
1250.0	0.0005708	95.7649998665
1250.0	0.0005711	95.8120000362
1250.0	0.0005717	95.8429999352
1250.0	0.0005721	95.8899998665
1250.0	0.0005726	95.9219999313
1250.0	0.000573	95.9679999352
1250.0	0.0005726	96.0149998665
1250.0	0.0005717	96.0469999313
1250.0	0.0005708	96.0929999352
1250.0	0.0005705	96.1399998665
1250.0	0.0005701	96.1719999313
1250.0	0.0005701	96.2179999352
1250.0	0.0005701	96.25
1250.0	0.00057	96.2969999313
1250.0	0.0005702	96.3429999352
1250.0	0.0005707	96.375
1250.0	0.0005707	96.4219999313
1250.0	0.0005712	96.4679999352
1250.0	0.0005718	96.5
1250.0	0.0005718	96.5469999313
1250.0	0.0005721	96.5780000687
1250.0	0.000572	96.625
1250.0	0.0005717	96.6719999313
1250.0	0.0005715	96.7030000687
1250.0	0.0005713	96.75
1250.0	0.0005711	96.7969999313
1250.0	0.0005705	96.8280000687
1260.0	0.0005751	97.0929999352
1260.0	0.0005756	97.1399998665
1260.0	0.0005765	97.1870000362
1260.0	0.0005773	97.2179999352
1260.0	0.0005781	97.2649998665
1260.0	0.0005792	97.3120000362
1260.0	0.0005798	97.3429999352
1260.0	0.0005798	97.3899998665
1260.0	0.0005796	97.4370000362
1260.0	0.0005793	97.4679999352
1260.0	0.000579	97.5149998665
1260.0	0.0005787	97.5469999313
1260.0	0.0005788	97.5929999352
1260.0	0.000579	97.6399998665
1260.0	0.000579	97.6719999313
1260.0	0.0005792	97.7179999352
1260.0	0.0005792	97.7649998665
1260.0	0.0005787	97.7969999313
1260.0	0.000579	97.8429999352
1260.0	0.0005792	97.8899998665
1260.0	0.0005792	97.9219999313
1260.0	0.0005795	97.9679999352
1260.0	0.0005795	98.0
1260.0	0.000579	98.0469999313
1260.0	0.0005792	98.0929999352
1260.0	0.0005792	98.125
1260.0	0.0005792	98.1719999313
1260.0	0.0005787	98.2179999352
1260.0	0.0005788	98.25
1260.0	0.000579	98.2969999313
1260.0	0.000579	98.3280000687
1260.0	0.0005796	98.375
1260.0	0.00058	98.4219999313
1260.0	0.0005801	98.4530000687
1260.0	0.0005801	98.5
1260.0	0.00058	98.5469999313
1260.0	0.0005798	98.5780000687
1270.0	0.0005823	98.8429999352
1270.0	0.0005836	98.8899998665
1270.0	0.0005843	98.9370000362
1270.0	0.000585	98.9679999352
1270.0	0.0005856	99.0149998665
1270.0	0.0005857	99.0469999313
1270.0	0.0005861	99.0929999352
1270.0	0.0005858	99.1399998665
1270.0	0.0005858	99.1719999313
1270.0	0.0005856	99.2179999352
1270.0	0.0005856	99.2649998665
1270.0	0.0005856	99.2969999313
1270.0	0.0005856	99.3429999352
1270.0	0.0005858	99.375
1270.0	0.0005862	99.4219999313
1270.0	0.0005861	99.4679999352
1270.0	0.0005861	99.5
1270.0	0.0005861	99.5469999313
1270.0	0.0005862	99.5929999352
1270.0	0.0005861	99.625
1270.0	0.0005857	99.6719999313
1270.0	0.0005857	99.7179999352
1270.0	0.0005861	99.75
1270.0	0.0005865	99.7969999313
1270.0	0.0005863	99.8280000687
1270.0	0.0005862	99.875
1270.0	0.0005862	99.9219999313
1270.0	0.0005861	99.9530000687
1270.0	0.0005863	100.0
1270.0	0.0005865	100.046999931
1270.0	0.0005867	100.078000069
1270.0	0.0005867	100.125
1270.0	0.0005867	100.155999899
1270.0	0.0005863	100.203000069
1270.0	0.0005865	100.25
1270.0	0.0005863	100.280999899
1270.0	0.0005862	100.328000069
1280.0	0.0005888	100.592999935
1280.0	0.0005893	100.639999866
1280.0	0.0005901	100.671999931
1280.0	0.0005905	100.717999935
1280.0	0.0005911	100.75
1280.0	0.0005917	100.796999931
1280.0	0.0005917	100.842999935
1280.0	0.0005918	100.875
1280.0	0.000592	100.921999931
1280.0	0.0005917	100.967999935
1280.0	0.0005913	101.0
1280.0	0.0005912	101.046999931
1280.0	0.0005912	101.092999935
1280.0	0.0005912	101.125
1280.0	0.0005913	101.171999931
1280.0	0.0005918	101.203000069
1280.0	0.000592	101.25
1280.0	0.0005921	101.296999931
1280.0	0.0005923	101.328000069
1280.0	0.0005918	101.375
1280.0	0.0005915	101.421999931
1280.0	0.0005915	101.453000069
1280.0	0.0005915	101.5
1280.0	0.0005913	101.530999899
1280.0	0.0005913	101.578000069
1280.0	0.0005915	101.625
1280.0	0.0005915	101.655999899
1280.0	0.0005913	101.703000069
1280.0	0.0005913	101.75
1280.0	0.0005913	101.780999899
1280.0	0.0005912	101.828000069
1280.0	0.0005912	101.875
1280.0	0.0005911	101.905999899
1280.0	0.0005915	101.953000069
1280.0	0.0005913	101.983999968
1280.0	0.0005915	102.030999899
1280.0	0.0005913	102.078000069
1290.0	0.0005921	102.342999935
1290.0	0.0005921	102.375
1290.0	0.0005923	102.421999931
1290.0	0.0005926	102.467999935
1290.0	0.0005926	102.5
1290.0	0.0005925	102.546999931
1290.0	0.0005925	102.592999935
1290.0	0.0005921	102.625
1290.0	0.0005926	102.671999931
1290.0	0.0005927	102.703000069
1290.0	0.0005927	102.75
1290.0	0.0005926	102.796999931
1290.0	0.000593	102.828000069
1290.0	0.0005932	102.875
1290.0	0.0005931	102.921999931
1290.0	0.0005927	102.953000069
1290.0	0.0005926	103.0
1290.0	0.0005921	103.030999899
1290.0	0.0005921	103.078000069
1290.0	0.0005926	103.125
1290.0	0.000593	103.155999899
1290.0	0.0005932	103.203000069
1290.0	0.0005933	103.25
1290.0	0.0005933	103.280999899
1290.0	0.0005933	103.328000069
1290.0	0.0005936	103.358999968
1290.0	0.0005932	103.405999899
1290.0	0.000593	103.453000069
1290.0	0.000593	103.483999968
1290.0	0.000593	103.530999899
1290.0	0.0005933	103.578000069
1290.0	0.0005938	103.608999968
1290.0	0.000594	103.655999899
1290.0	0.0005936	103.687000036
1290.0	0.0005932	103.733999968
1290.0	0.0005938	103.780999899
1290.0	0.000594	103.812000036
1300.0	0.0005918	104.078000069
1300.0	0.0005917	104.125
1300.0	0.0005913	104.155999899
1300.0	0.0005912	104.203000069
1300.0	0.0005908	104.25
1300.0	0.0005908	104.280999899
1300.0	0.0005908	104.328000069
1300.0	0.0005907	104.375
1300.0	0.0005908	104.405999899
1300.0	0.0005907	104.453000069
1300.0	0.0005907	104.483999968
1300.0	0.0005912	104.530999899
1300.0	0.0005913	104.578000069
1300.0	0.0005913	104.608999968
1300.0	0.0005913	104.655999899
1300.0	0.0005912	104.703000069
1300.0	0.0005908	104.733999968
1300.0	0.0005911	104.780999899
1300.0	0.0005911	104.828000069
1300.0	0.0005907	104.858999968
1300.0	0.0005905	104.905999899
1300.0	0.0005905	104.937000036
1300.0	0.0005902	104.983999968
1300.0	0.0005906	105.030999899
1300.0	0.0005907	105.062000036
1300.0	0.0005908	105.108999968
1300.0	0.0005907	105.139999866
1300.0	0.0005908	105.187000036
1300.0	0.0005908	105.233999968
1300.0	0.0005907	105.264999866
1300.0	0.0005908	105.312000036
1300.0	0.0005906	105.358999968
1300.0	0.0005902	105.389999866
1300.0	0.0005906	105.437000036
1300.0	0.0005908	105.483999968
1300.0	0.0005907	105.514999866
1300.0	0.0005906	105.562000036
1310.0	0.0005873	105.828000069
1310.0	0.0005865	105.875
1310.0	0.0005858	105.905999899
1310.0	0.0005851	105.953000069
1310.0	0.0005846	106.0
1310.0	0.0005843	106.030999899
1310.0	0.0005836	106.078000069
1310.0	0.000583	106.125
1310.0	0.0005825	106.155999899
1310.0	0.0005821	106.203000069
1310.0	0.000582	106.233999968
1310.0	0.0005823	106.280999899
1310.0	0.0005831	106.328000069
1310.0	0.0005832	106.358999968
1310.0	0.0005836	106.405999899
1310.0	0.0005837	106.453000069
1310.0	0.0005836	106.483999968
1310.0	0.0005837	106.530999899
1310.0	0.0005836	106.578000069
1310.0	0.0005832	106.608999968
1310.0	0.0005832	106.655999899
1310.0	0.0005836	106.687000036
1310.0	0.0005838	106.733999968
1310.0	0.0005837	106.780999899
1310.0	0.0005836	106.812000036
1310.0	0.0005837	106.858999968
1310.0	0.0005836	106.889999866
1310.0	0.000584	106.937000036
1310.0	0.000584	106.983999968
1310.0	0.0005838	107.014999866
1310.0	0.0005838	107.062000036
1310.0	0.000584	107.108999968
1310.0	0.0005837	107.139999866
1310.0	0.0005832	107.187000036
1310.0	0.0005832	107.233999968
1310.0	0.0005832	107.264999866
1310.0	0.0005833	107.312000036
1320.0	0.0005786	107.578000069
1320.0	0.0005762	107.625
1320.0	0.0005743	107.655999899
1320.0	0.000573	107.703000069
1320.0	0.0005715	107.733999968
1320.0	0.0005706	107.780999899
1320.0	0.0005701	107.828000069
1320.0	0.0005695	107.858999968
1320.0	0.0005695	107.905999899
1320.0	0.0005692	107.953000069
1320.0	0.0005692	107.983999968
1320.0	0.000569	108.030999899
1320.0	0.0005688	108.062000036
1320.0	0.000569	108.108999968
1320.0	0.0005692	108.155999899
1320.0	0.0005692	108.187000036
1320.0	0.0005692	108.233999968
1320.0	0.000569	108.280999899
1320.0	0.0005688	108.312000036
1320.0	0.0005692	108.358999968
1320.0	0.0005688	108.389999866
1320.0	0.0005686	108.437000036
1320.0	0.0005682	108.483999968
1320.0	0.0005683	108.514999866
1320.0	0.0005683	108.562000036
1320.0	0.0005681	108.608999968
1320.0	0.0005681	108.639999866
1320.0	0.0005675	108.687000036
1320.0	0.0005671	108.717999935
1320.0	0.0005673	108.764999866
1320.0	0.0005675	108.812000036
1320.0	0.0005676	108.842999935
1320.0	0.0005676	108.889999866
1320.0	0.0005675	108.937000036
1320.0	0.0005671	108.967999935
1320.0	0.0005671	109.014999866
1320.0	0.000567	109.046999931
1330.0	0.0005602	109.328000069
1330.0	0.0005571	109.358999968
1330.0	0.0005548	109.405999899
1330.0	0.0005533	109.453000069
1330.0	0.0005521	109.483999968
1330.0	0.0005511	109.530999899
1330.0	0.0005502	109.578000069
1330.0	0.0005498	109.608999968
1330.0	0.0005488	109.655999899
1330.0	0.0005487	109.703000069
1330.0	0.0005488	109.733999968
1330.0	0.0005488	109.780999899
1330.0	0.0005483	109.812000036
1330.0	0.000548	109.858999968
1330.0	0.0005473	109.905999899
1330.0	0.0005468	109.937000036
1330.0	0.0005468	109.983999968
1330.0	0.000547	110.030999899
1330.0	0.0005471	110.062000036
1330.0	0.0005471	110.108999968
1330.0	0.0005475	110.139999866
1330.0	0.0005473	110.187000036
1330.0	0.0005473	110.233999968
1330.0	0.0005475	110.264999866
1330.0	0.0005471	110.312000036
1330.0	0.0005468	110.358999968
1330.0	0.0005471	110.389999866
1330.0	0.0005475	110.437000036
1330.0	0.0005476	110.467999935
1330.0	0.000548	110.514999866
1330.0	0.0005476	110.562000036
1330.0	0.000547	110.592999935
1330.0	0.0005467	110.639999866
1330.0	0.0005467	110.687000036
1330.0	0.0005468	110.717999935
1330.0	0.0005465	110.764999866
1330.0	0.0005463	110.796999931
1340.0	0.0005355	111.078000069
1340.0	0.0005317	111.108999968
1340.0	0.0005283	111.155999899
1340.0	0.0005252	111.203000069
1340.0	0.0005231	111.233999968
1340.0	0.0005212	111.280999899
1340.0	0.0005201	111.328000069
1340.0	0.0005195	111.358999968
1340.0	0.0005195	111.405999899
1340.0	0.0005192	111.453000069
1340.0	0.000519	111.483999968
1340.0	0.0005188	111.530999899
1340.0	0.0005187	111.562000036
1340.0	0.0005182	111.608999968
1340.0	0.000518	111.655999899
1340.0	0.0005176	111.687000036
1340.0	0.0005176	111.733999968
1340.0	0.0005177	111.764999866
1340.0	0.0005181	111.812000036
1340.0	0.0005182	111.858999968
1340.0	0.0005182	111.889999866
1340.0	0.000518	111.937000036
1340.0	0.0005177	111.983999968
1340.0	0.0005176	112.014999866
1340.0	0.0005175	112.062000036
1340.0	0.000517	112.108999968
1340.0	0.0005167	112.139999866
1340.0	0.0005165	112.187000036
1340.0	0.0005161	112.217999935
1340.0	0.0005161	112.264999866
1340.0	0.0005163	112.312000036
1340.0	0.0005165	112.342999935
1340.0	0.0005168	112.389999866
1340.0	0.000517	112.437000036
1340.0	0.0005173	112.467999935
1340.0	0.0005173	112.514999866
1340.0	0.0005176	112.546999931
1350.0	0.0005057	112.828000069
1350.0	0.0005012	112.858999968
1350.0	0.0004981	112.905999899
1350.0	0.0004957	112.937000036
1350.0	0.0004937	112.983999968
1350.0	0.0004918	113.030999899
1350.0	0.0004901	113.062000036
1350.0	0.0004888	113.108999968
1350.0	0.0004881	113.155999899
1350.0	0.0004876	113.187000036
1350.0	0.000487	113.233999968
1350.0	0.000487	113.264999866
1350.0	0.0004873	113.312000036
1350.0	0.0004873	113.358999968
1350.0	0.0004873	113.389999866
1350.0	0.000487	113.437000036
1350.0	0.0004868	113.483999968
1350.0	0.0004867	113.514999866
1350.0	0.0004868	113.562000036
1350.0	0.0004871	113.592999935
1350.0	0.000487	113.639999866
1350.0	0.0004868	113.687000036
1350.0	0.0004867	113.717999935
1350.0	0.0004863	113.764999866
1350.0	0.0004858	113.812000036
1350.0	0.0004861	113.842999935
1350.0	0.0004863	113.889999866
1350.0	0.0004865	113.937000036
1350.0	0.0004867	113.967999935
1350.0	0.0004865	114.014999866
1350.0	0.0004867	114.046999931
1350.0	0.000487	114.092999935
1350.0	0.0004867	114.139999866
1350.0	0.0004862	114.171999931
1350.0	0.0004858	114.217999935
1350.0	0.0004857	114.264999866
1350.0	0.0004855	114.296999931
1360.0	0.0004737	114.562000036
1360.0	0.0004698	114.608999968
1360.0	0.0004661	114.639999866
1360.0	0.0004627	114.687000036
1360.0	0.0004602	114.717999935
1360.0	0.0004583	114.764999866
1360.0	0.0004565	114.812000036
1360.0	0.0004557	114.842999935
1360.0	0.000455	114.889999866
1360.0	0.000454	114.937000036
1360.0	0.0004537	114.967999935
1360.0	0.0004533	115.014999866
1360.0	0.0004532	115.062000036
1360.0	0.0004533	115.092999935
1360.0	0.0004536	115.139999866
1360.0	0.0004532	115.171999931
1360.0	0.0004533	115.217999935
1360.0	0.0004532	115.264999866
1360.0	0.000453	115.296999931
1360.0	0.0004526	115.342999935
1360.0	0.000453	115.389999866
1360.0	0.000453	115.421999931
1360.0	0.000453	115.467999935
1360.0	0.0004527	115.5
1360.0	0.0004527	115.546999931
1360.0	0.0004525	115.592999935
1360.0	0.0004526	115.625
1360.0	0.0004527	115.671999931
1360.0	0.0004527	115.717999935
1360.0	0.000453	115.75
1360.0	0.0004531	115.796999931
1360.0	0.000453	115.828000069
1360.0	0.0004527	115.875
1360.0	0.0004523	115.921999931
1360.0	0.000452	115.953000069
1360.0	0.0004515	116.0
1360.0	0.0004517	116.046999931
1370.0	0.0004405	116.296999931
1370.0	0.0004365	116.342999935
1370.0	0.0004332	116.389999866
1370.0	0.0004302	116.421999931
1370.0	0.0004282	116.467999935
1370.0	0.0004267	116.514999866
1370.0	0.0004255	116.546999931
1370.0	0.0004242	116.592999935
1370.0	0.0004232	116.639999866
1370.0	0.0004225	116.671999931
1370.0	0.0004213	116.717999935
1370.0	0.0004206	116.75
1370.0	0.0004202	116.796999931
1370.0	0.00042	116.842999935
1370.0	0.0004195	116.875
1370.0	0.0004195	116.921999931
1370.0	0.0004195	116.967999935
1370.0	0.0004195	117.0
1370.0	0.0004193	117.046999931
1370.0	0.0004192	117.078000069
1370.0	0.0004192	117.125
1370.0	0.000419	117.171999931
1370.0	0.0004186	117.203000069
1370.0	0.0004181	117.25
1370.0	0.000418	117.296999931
1370.0	0.0004176	117.328000069
1370.0	0.0004173	117.375
1370.0	0.0004171	117.405999899
1370.0	0.000417	117.453000069
1370.0	0.0004167	117.5
1370.0	0.0004167	117.530999899
1370.0	0.0004167	117.578000069
1370.0	0.0004168	117.625
1370.0	0.000417	117.655999899
1370.0	0.0004175	117.703000069
1370.0	0.000418	117.733999968
1370.0	0.0004176	117.780999899
1380.0	0.0004077	118.046999931
1380.0	0.0004042	118.092999935
1380.0	0.0004017	118.125
1380.0	0.0003998	118.171999931
1380.0	0.0003981	118.217999935
1380.0	0.0003965	118.264999866
1380.0	0.0003956	118.296999931
1380.0	0.0003948	118.342999935
1380.0	0.000394	118.375
1380.0	0.0003937	118.421999931
1380.0	0.0003936	118.467999935
1380.0	0.0003933	118.5
1380.0	0.0003931	118.546999931
1380.0	0.0003926	118.592999935
1380.0	0.0003923	118.625
1380.0	0.0003923	118.671999931
1380.0	0.0003921	118.717999935
1380.0	0.0003923	118.75
1380.0	0.000393	118.796999931
1380.0	0.0003932	118.828000069
1380.0	0.0003932	118.875
1380.0	0.0003931	118.921999931
1380.0	0.0003931	118.953000069
1380.0	0.000393	119.0
1380.0	0.000393	119.046999931
1380.0	0.000393	119.078000069
1380.0	0.0003932	119.125
1380.0	0.0003932	119.155999899
1380.0	0.0003931	119.203000069
1380.0	0.0003932	119.25
1380.0	0.0003936	119.280999899
1380.0	0.000394	119.328000069
1380.0	0.0003942	119.375
1380.0	0.0003942	119.405999899
1380.0	0.000394	119.453000069
1380.0	0.000394	119.483999968
1380.0	0.0003942	119.530999899
1390.0	0.0003857	119.796999931
1390.0	0.0003836	119.842999935
1390.0	0.0003817	119.875
1390.0	0.00038	119.921999931
1390.0	0.0003788	119.967999935
1390.0	0.0003781	120.0
1390.0	0.0003777	120.046999931
1390.0	0.0003775	120.092999935
1390.0	0.0003765	120.125
1390.0	0.0003758	120.171999931
1390.0	0.0003761	120.203000069
1390.0	0.0003763	120.25
1390.0	0.0003763	120.296999931
1390.0	0.0003763	120.328000069
1390.0	0.0003761	120.375
1390.0	0.0003755	120.421999931
1390.0	0.000375	120.453000069
1390.0	0.0003748	120.5
1390.0	0.0003743	120.546999931
1390.0	0.0003742	120.578000069
1390.0	0.000374	120.625
1390.0	0.0003738	120.655999899
1390.0	0.0003742	120.703000069
1390.0	0.0003745	120.75
1390.0	0.0003752	120.780999899
1390.0	0.0003756	120.828000069
1390.0	0.0003757	120.875
1390.0	0.0003757	120.905999899
1390.0	0.0003755	120.953000069
1390.0	0.0003755	120.983999968
1390.0	0.0003752	121.030999899
1390.0	0.0003751	121.078000069
1390.0	0.0003751	121.108999968
1390.0	0.000375	121.155999899
1390.0	0.0003745	121.203000069
1390.0	0.0003742	121.233999968
1390.0	0.000374	121.280999899
1400.0	0.0003701	121.546999931
1400.0	0.000369	121.578000069
1400.0	0.0003677	121.625
1400.0	0.0003665	121.671999931
1400.0	0.000365	121.703000069
1400.0	0.0003642	121.75
1400.0	0.0003637	121.780999899
1400.0	0.0003632	121.828000069
1400.0	0.0003631	121.875
1400.0	0.000363	121.905999899
1400.0	0.0003627	121.953000069
1400.0	0.0003626	122.0
1400.0	0.0003627	122.030999899
1400.0	0.000363	122.078000069
1400.0	0.0003631	122.108999968
1400.0	0.0003633	122.155999899
1400.0	0.0003636	122.203000069
1400.0	0.0003633	122.233999968
1400.0	0.0003627	122.280999899
1400.0	0.0003626	122.328000069
1400.0	0.0003625	122.358999968
1400.0	0.0003626	122.405999899
1400.0	0.000363	122.437000036
1400.0	0.0003632	122.483999968
1400.0	0.0003631	122.530999899
1400.0	0.000363	122.562000036
1400.0	0.0003626	122.608999968
1400.0	0.0003623	122.655999899
1400.0	0.000362	122.687000036
1400.0	0.000362	122.733999968
1400.0	0.0003621	122.764999866
1400.0	0.0003625	122.812000036
1400.0	0.0003623	122.858999968
1400.0	0.0003621	122.889999866
1400.0	0.0003621	122.937000036
1400.0	0.0003621	122.983999968
1400.0	0.000362	123.014999866
1410.0	0.0003606	123.280999899
1410.0	0.0003601	123.328000069
1410.0	0.0003595	123.358999968
1410.0	0.0003588	123.405999899
1410.0	0.0003581	123.453000069
1410.0	0.0003576	123.483999968
1410.0	0.0003573	123.530999899
1410.0	0.0003576	123.562000036
1410.0	0.0003577	123.608999968
1410.0	0.0003573	123.655999899
1410.0	0.000357	123.687000036
1410.0	0.0003568	123.733999968
1410.0	0.0003567	123.780999899
1410.0	0.0003565	123.812000036
1410.0	0.0003567	123.858999968
1410.0	0.0003567	123.889999866
1410.0	0.0003568	123.937000036
1410.0	0.0003568	123.983999968
1410.0	0.0003565	124.014999866
1410.0	0.0003561	124.062000036
1410.0	0.0003555	124.108999968
1410.0	0.0003552	124.139999866
1410.0	0.0003552	124.187000036
1410.0	0.0003557	124.233999968
1410.0	0.0003558	124.264999866
1410.0	0.0003561	124.312000036
1410.0	0.0003562	124.342999935
1410.0	0.0003565	124.389999866
1410.0	0.0003565	124.437000036
1410.0	0.0003567	124.467999935
1410.0	0.000357	124.514999866
1410.0	0.0003568	124.562000036
1410.0	0.0003567	124.592999935
1410.0	0.0003567	124.639999866
1410.0	0.0003568	124.671999931
1410.0	0.0003568	124.717999935
1410.0	0.000357	124.764999866
1420.0	0.0003576	125.030999899
1420.0	0.0003576	125.062000036
1420.0	0.0003576	125.108999968
1420.0	0.0003577	125.155999899
1420.0	0.000358	125.187000036
1420.0	0.000358	125.233999968
1420.0	0.0003582	125.280999899
1420.0	0.0003586	125.312000036
1420.0	0.0003588	125.358999968
1420.0	0.000359	125.389999866
1420.0	0.000359	125.437000036
1420.0	0.000359	125.483999968
1420.0	0.0003588	125.514999866
1420.0	0.0003587	125.562000036
1420.0	0.0003586	125.608999968
1420.0	0.0003586	125.639999866
1420.0	0.0003586	125.687000036
1420.0	0.0003583	125.717999935
1420.0	0.0003586	125.764999866
1420.0	0.0003583	125.812000036
1420.0	0.0003586	125.842999935
1420.0	0.0003586	125.889999866
1420.0	0.0003588	125.937000036
1420.0	0.0003588	125.967999935
1420.0	0.0003592	126.014999866
1420.0	0.0003593	126.046999931
1420.0	0.0003592	126.092999935
1420.0	0.0003592	126.139999866
1420.0	0.0003592	126.171999931
1420.0	0.0003588	126.217999935
1420.0	0.0003592	126.264999866
1420.0	0.0003596	126.296999931
1420.0	0.0003601	126.342999935
1420.0	0.0003602	126.389999866
1420.0	0.0003605	126.421999931
1420.0	0.0003598	126.467999935
1420.0	0.0003592	126.5
1430.0	0.0003617	126.764999866
1430.0	0.0003625	126.812000036
1430.0	0.0003626	126.858999968
1430.0	0.000363	126.889999866
1430.0	0.0003632	126.937000036
1430.0	0.0003633	126.983999968
1430.0	0.0003633	127.014999866
1430.0	0.0003637	127.062000036
1430.0	0.0003638	127.092999935
1430.0	0.0003642	127.139999866
1430.0	0.0003646	127.187000036
1430.0	0.000365	127.217999935
1430.0	0.0003651	127.264999866
1430.0	0.0003651	127.312000036
1430.0	0.0003651	127.342999935
1430.0	0.000365	127.389999866
1430.0	0.000365	127.437000036
1430.0	0.0003646	127.467999935
1430.0	0.0003642	127.514999866
1430.0	0.000364	127.546999931
1430.0	0.0003642	127.592999935
1430.0	0.0003643	127.639999866
1430.0	0.0003642	127.671999931
1430.0	0.000364	127.717999935
1430.0	0.0003642	127.764999866
1430.0	0.0003642	127.796999931
1430.0	0.0003642	127.842999935
1430.0	0.0003638	127.875
1430.0	0.0003638	127.921999931
1430.0	0.0003637	127.967999935
1430.0	0.0003636	128.0
1430.0	0.0003633	128.046999931
1430.0	0.0003637	128.092999935
1430.0	0.0003637	128.125
1430.0	0.0003637	128.171999931
1430.0	0.0003642	128.203000069
1430.0	0.0003645	128.25
1440.0	0.0003682	128.514999866
1440.0	0.0003696	128.562000036
1440.0	0.0003711	128.592999935
1440.0	0.0003718	128.639999866
1440.0	0.0003723	128.687000036
1440.0	0.0003727	128.717999935
1440.0	0.0003733	128.764999866
1440.0	0.0003738	128.812000036
1440.0	0.0003738	128.842999935
1440.0	0.000374	128.889999866
1440.0	0.0003738	128.921999931
1440.0	0.0003738	128.967999935
1440.0	0.0003738	129.014999866
1440.0	0.0003737	129.046999931
1440.0	0.0003737	129.092999935
1440.0	0.0003736	129.139999866
1440.0	0.0003736	129.171999931
1440.0	0.0003737	129.217999935
1440.0	0.0003742	129.264999866
1440.0	0.0003743	129.296999931
1440.0	0.0003745	129.342999935
1440.0	0.0003745	129.375
1440.0	0.0003743	129.421999931
1440.0	0.0003742	129.467999935
1440.0	0.0003742	129.5
1440.0	0.0003738	129.546999931
1440.0	0.0003737	129.592999935
1440.0	0.000374	129.625
1440.0	0.0003738	129.671999931
1440.0	0.0003738	129.703000069
1440.0	0.0003737	129.75
1440.0	0.0003737	129.796999931
1440.0	0.0003737	129.828000069
1440.0	0.0003736	129.875
1440.0	0.0003736	129.921999931
1440.0	0.0003738	129.953000069
1440.0	0.0003742	130.0
1450.0	0.0003781	130.264999866
1450.0	0.000379	130.312000036
1450.0	0.0003801	130.342999935
1450.0	0.0003812	130.389999866
1450.0	0.0003821	130.421999931
1450.0	0.000383	130.467999935
1450.0	0.0003838	130.514999866
1450.0	0.0003842	130.546999931
1450.0	0.0003845	130.592999935
1450.0	0.000385	130.639999866
1450.0	0.000385	130.671999931
1450.0	0.000385	130.717999935
1450.0	0.0003851	130.75
1450.0	0.0003851	130.796999931
1450.0	0.0003852	130.842999935
1450.0	0.0003851	130.875
1450.0	0.0003851	130.921999931
1450.0	0.0003848	130.967999935
1450.0	0.000385	131.0
1450.0	0.0003851	131.046999931
1450.0	0.0003855	131.078000069
1450.0	0.0003856	131.125
1450.0	0.0003855	131.171999931
1450.0	0.0003852	131.203000069
1450.0	0.0003851	131.25
1450.0	0.0003851	131.296999931
1450.0	0.0003851	131.328000069
1450.0	0.000385	131.375
1450.0	0.000385	131.421999931
1450.0	0.0003846	131.453000069
1450.0	0.0003843	131.5
1450.0	0.0003845	131.530999899
1450.0	0.000385	131.578000069
1450.0	0.0003852	131.625
1450.0	0.0003851	131.655999899
1450.0	0.0003848	131.703000069
1450.0	0.0003843	131.75
1460.0	0.0003887	132.014999866
1460.0	0.0003901	132.046999931
1460.0	0.0003906	132.092999935
1460.0	0.0003911	132.139999866
1460.0	0.0003917	132.171999931
1460.0	0.0003923	132.217999935
1460.0	0.0003927	132.25
1460.0	0.0003932	132.296999931
1460.0	0.0003936	132.342999935
1460.0	0.0003937	132.375
1460.0	0.0003938	132.421999931
1460.0	0.0003936	132.467999935
1460.0	0.0003932	132.5
1460.0	0.0003936	132.546999931
1460.0	0.0003937	132.578000069
1460.0	0.0003942	132.625
1460.0	0.0003943	132.671999931
1460.0	0.0003945	132.703000069
1460.0	0.0003943	132.75
1460.0	0.0003946	132.796999931
1460.0	0.000395	132.828000069
1460.0	0.0003945	132.875
1460.0	0.000394	132.905999899
1460.0	0.0003938	132.953000069
1460.0	0.0003932	133.0
1460.0	0.0003932	133.030999899
1460.0	0.0003932	133.078000069
1460.0	0.0003931	133.125
1460.0	0.0003932	133.155999899
1460.0	0.0003932	133.203000069
1460.0	0.0003936	133.25
1460.0	0.000394	133.280999899
1460.0	0.0003946	133.328000069
1460.0	0.0003951	133.358999968
1460.0	0.0003946	133.405999899
1460.0	0.0003945	133.453000069
1460.0	0.0003945	133.483999968
1470.0	0.0003987	133.75
1470.0	0.0003996	133.796999931
1470.0	0.0004002	133.842999935
1470.0	0.0004007	133.875
1470.0	0.0004017	133.921999931
1470.0	0.0004025	133.953000069
1470.0	0.000403	134.0
1470.0	0.000403	134.046999931
1470.0	0.0004027	134.078000069
1470.0	0.0004025	134.125
1470.0	0.0004021	134.171999931
1470.0	0.0004021	134.203000069
1470.0	0.000402	134.25
1470.0	0.0004018	134.296999931
1470.0	0.0004018	134.328000069
1470.0	0.000402	134.375
1470.0	0.0004021	134.405999899
1470.0	0.0004025	134.453000069
1470.0	0.0004026	134.5
1470.0	0.0004026	134.530999899
1470.0	0.0004025	134.578000069
1470.0	0.0004026	134.625
1470.0	0.0004026	134.655999899
1470.0	0.0004025	134.703000069
1470.0	0.000402	134.733999968
1470.0	0.0004017	134.780999899
1470.0	0.000402	134.828000069
1470.0	0.0004023	134.858999968
1470.0	0.0004026	134.905999899
1470.0	0.0004027	134.953000069
1470.0	0.0004031	134.983999968
1470.0	0.0004031	135.030999899
1470.0	0.000403	135.062000036
1470.0	0.0004027	135.108999968
1470.0	0.0004027	135.155999899
1470.0	0.0004027	135.187000036
1470.0	0.000403	135.233999968
1480.0	0.0004051	135.5
1480.0	0.0004062	135.546999931
1480.0	0.000407	135.592999935
1480.0	0.0004071	135.625
1480.0	0.0004077	135.671999931
1480.0	0.0004082	135.703000069
1480.0	0.0004083	135.75
1480.0	0.0004083	135.796999931
1480.0	0.0004082	135.828000069
1480.0	0.0004083	135.875
1480.0	0.0004081	135.921999931
1480.0	0.0004081	135.953000069
1480.0	0.0004082	136.0
1480.0	0.0004081	136.046999931
1480.0	0.000408	136.078000069
1480.0	0.0004076	136.125
1480.0	0.0004076	136.155999899
1480.0	0.0004076	136.203000069
1480.0	0.0004076	136.25
1480.0	0.0004076	136.280999899
1480.0	0.0004076	136.328000069
1480.0	0.0004077	136.375
1480.0	0.0004076	136.405999899
1480.0	0.0004073	136.453000069
1480.0	0.0004073	136.483999968
1480.0	0.0004076	136.530999899
1480.0	0.0004077	136.578000069
1480.0	0.0004076	136.608999968
1480.0	0.0004075	136.655999899
1480.0	0.0004071	136.703000069
1480.0	0.000407	136.733999968
1480.0	0.000407	136.780999899
1480.0	0.0004068	136.812000036
1480.0	0.000407	136.858999968
1480.0	0.0004075	136.905999899
1480.0	0.0004076	136.937000036
1480.0	0.0004076	136.983999968
1490.0	0.0004092	137.25
1490.0	0.0004098	137.296999931
1490.0	0.0004101	137.328000069
1490.0	0.0004105	137.375
1490.0	0.0004105	137.421999931
1490.0	0.0004102	137.453000069
1490.0	0.0004105	137.5
1490.0	0.0004107	137.530999899
1490.0	0.0004105	137.578000069
1490.0	0.0004102	137.625
1490.0	0.0004105	137.655999899
1490.0	0.0004106	137.703000069
1490.0	0.0004107	137.75
1490.0	0.0004111	137.780999899
1490.0	0.0004113	137.828000069
1490.0	0.0004113	137.875
1490.0	0.0004121	137.905999899
1490.0	0.0004127	137.953000069
1490.0	0.0004131	137.983999968
1490.0	0.000413	138.030999899
1490.0	0.0004127	138.078000069
1490.0	0.0004125	138.108999968
1490.0	0.0004126	138.155999899
1490.0	0.0004127	138.203000069
1490.0	0.0004126	138.233999968
1490.0	0.0004125	138.280999899
1490.0	0.0004131	138.312000036
1490.0	0.0004133	138.358999968
1490.0	0.0004131	138.405999899
1490.0	0.0004126	138.437000036
1490.0	0.0004123	138.483999968
1490.0	0.000412	138.530999899
1490.0	0.0004115	138.562000036
1490.0	0.0004111	138.608999968
1490.0	0.0004107	138.639999866
1490.0	0.0004108	138.687000036
1490.0	0.0004113	138.733999968
1500.0	0.0004123	139.0
1500.0	0.0004123	139.030999899
1500.0	0.0004123	139.078000069
1500.0	0.0004125	139.125
1500.0	0.000413	139.155999899
1500.0	0.000413	139.203000069
1500.0	0.0004131	139.25
1500.0	0.0004132	139.280999899
1500.0	0.0004137	139.328000069
1500.0	0.000414	139.358999968
1500.0	0.0004142	139.405999899
1500.0	0.0004143	139.453000069
1500.0	0.0004143	139.483999968
1500.0	0.0004145	139.530999899
1500.0	0.0004143	139.578000069
1500.0	0.000414	139.608999968
1500.0	0.0004137	139.655999899
1500.0	0.0004136	139.687000036
1500.0	0.0004136	139.733999968
1500.0	0.0004132	139.780999899
1500.0	0.000413	139.812000036
1500.0	0.000413	139.858999968
1500.0	0.0004127	139.905999899
1500.0	0.0004126	139.937000036
1500.0	0.0004126	139.983999968
1500.0	0.0004127	140.014999866
1500.0	0.000413	140.062000036
1500.0	0.0004132	140.108999968
1500.0	0.0004132	140.139999866
1500.0	0.0004131	140.187000036
1500.0	0.000413	140.233999968
1500.0	0.0004127	140.264999866
1500.0	0.0004127	140.312000036
1500.0	0.000413	140.342999935
1500.0	0.000413	140.389999866
1500.0	0.0004126	140.437000036
1500.0	0.0004126	140.467999935
1510.0	0.0004148	140.75
1510.0	0.000415	140.796999931
1510.0	0.0004152	140.828000069
1510.0	0.0004155	140.875
1510.0	0.0004156	140.921999931
1510.0	0.0004156	140.953000069
1510.0	0.0004156	141.0
1510.0	0.0004157	141.030999899
1510.0	0.0004163	141.078000069
1510.0	0.0004167	141.125
1510.0	0.0004167	141.155999899
1510.0	0.0004168	141.203000069
1510.0	0.0004167	141.25
1510.0	0.0004163	141.280999899
1510.0	0.0004165	141.328000069
1510.0	0.0004165	141.358999968
1510.0	0.0004158	141.405999899
1510.0	0.0004157	141.453000069
1510.0	0.0004165	141.483999968
1510.0	0.000417	141.530999899
1510.0	0.000417	141.578000069
1510.0	0.0004167	141.608999968
1510.0	0.0004162	141.655999899
1510.0	0.0004158	141.703000069
1510.0	0.0004161	141.733999968
1510.0	0.0004157	141.780999899
1510.0	0.0004158	141.812000036
1510.0	0.0004161	141.858999968
1510.0	0.0004161	141.905999899
1510.0	0.0004157	141.937000036
1510.0	0.0004156	141.983999968
1510.0	0.0004155	142.014999866
1510.0	0.000415	142.062000036
1510.0	0.0004146	142.108999968
1510.0	0.000415	142.139999866
1510.0	0.0004151	142.187000036
1510.0	0.0004152	142.233999968
1520.0	0.0004156	142.5
1520.0	0.0004152	142.546999931
1520.0	0.0004155	142.592999935
1520.0	0.0004155	142.625
1520.0	0.0004152	142.671999931
1520.0	0.0004151	142.703000069
1520.0	0.0004151	142.75
1520.0	0.000415	142.796999931
1520.0	0.0004151	142.828000069
1520.0	0.0004155	142.875
1520.0	0.0004156	142.921999931
1520.0	0.0004158	142.953000069
1520.0	0.0004158	143.0
1520.0	0.0004158	143.030999899
1520.0	0.0004161	143.078000069
1520.0	0.0004161	143.125
1520.0	0.0004157	143.155999899
1520.0	0.0004161	143.203000069
1520.0	0.0004162	143.25
1520.0	0.0004161	143.280999899
1520.0	0.0004161	143.328000069
1520.0	0.0004162	143.358999968
1520.0	0.0004163	143.405999899
1520.0	0.0004163	143.453000069
1520.0	0.0004167	143.483999968
1520.0	0.0004168	143.530999899
1520.0	0.0004168	143.578000069
1520.0	0.0004168	143.608999968
1520.0	0.000417	143.655999899
1520.0	0.0004168	143.687000036
1520.0	0.0004168	143.733999968
1520.0	0.0004168	143.780999899
1520.0	0.0004167	143.812000036
1520.0	0.0004162	143.858999968
1520.0	0.0004161	143.905999899
1520.0	0.0004158	143.937000036
1520.0	0.0004156	143.983999968
1530.0	0.0004146	144.25
1530.0	0.0004146	144.296999931
1530.0	0.0004143	144.328000069
1530.0	0.000414	144.375
1530.0	0.0004138	144.421999931
1530.0	0.0004142	144.453000069
1530.0	0.0004142	144.5
1530.0	0.0004137	144.546999931
1530.0	0.0004133	144.578000069
1530.0	0.0004133	144.625
1530.0	0.0004136	144.671999931
1530.0	0.0004133	144.703000069
1530.0	0.0004132	144.75
1530.0	0.0004131	144.780999899
1530.0	0.000413	144.828000069
1530.0	0.0004131	144.875
1530.0	0.0004133	144.905999899
1530.0	0.0004136	144.953000069
1530.0	0.0004136	145.0
1530.0	0.0004138	145.030999899
1530.0	0.0004138	145.078000069
1530.0	0.0004136	145.108999968
1530.0	0.0004131	145.155999899
1530.0	0.0004133	145.203000069
1530.0	0.0004136	145.233999968
1530.0	0.0004137	145.280999899
1530.0	0.0004136	145.328000069
1530.0	0.0004136	145.358999968
1530.0	0.0004137	145.405999899
1530.0	0.0004138	145.437000036
1530.0	0.0004142	145.483999968
1530.0	0.0004146	145.530999899
1530.0	0.0004146	145.562000036
1530.0	0.0004145	145.608999968
1530.0	0.0004142	145.655999899
1530.0	0.0004142	145.687000036
1530.0	0.0004137	145.733999968
1540.0	0.0004125	146.0
1540.0	0.0004117	146.046999931
1540.0	0.0004111	146.092999935
1540.0	0.0004107	146.125
1540.0	0.0004105	146.171999931
1540.0	0.0004098	146.217999935
1540.0	0.0004096	146.25
1540.0	0.0004096	146.296999931
1540.0	0.0004095	146.342999935
1540.0	0.0004095	146.375
1540.0	0.0004098	146.421999931
1540.0	0.0004102	146.453000069
1540.0	0.0004106	146.5
1540.0	0.0004111	146.546999931
1540.0	0.0004111	146.578000069
1540.0	0.0004108	146.625
1540.0	0.0004107	146.671999931
1540.0	0.0004106	146.703000069
1540.0	0.0004102	146.75
1540.0	0.0004101	146.780999899
1540.0	0.0004101	146.828000069
1540.0	0.0004098	146.875
1540.0	0.0004098	146.905999899
1540.0	0.00041	146.953000069
1540.0	0.0004101	147.0
1540.0	0.00041	147.030999899
1540.0	0.00041	147.078000069
1540.0	0.0004095	147.108999968
1540.0	0.0004088	147.155999899
1540.0	0.000409	147.203000069
1540.0	0.0004088	147.233999968
1540.0	0.0004083	147.280999899
1540.0	0.0004082	147.328000069
1540.0	0.0004083	147.358999968
1540.0	0.0004086	147.405999899
1540.0	0.0004092	147.453000069
1540.0	0.0004095	147.483999968
1550.0	0.0004067	147.75
1550.0	0.0004058	147.796999931
1550.0	0.0004051	147.842999935
1550.0	0.0004045	147.875
1550.0	0.0004045	147.921999931
1550.0	0.0004038	147.967999935
1550.0	0.0004032	148.0
1550.0	0.0004031	148.046999931
1550.0	0.000403	148.078000069
1550.0	0.0004026	148.125
1550.0	0.0004021	148.171999931
1550.0	0.0004023	148.203000069
1550.0	0.000402	148.25
1550.0	0.0004017	148.296999931
1550.0	0.0004018	148.328000069
1550.0	0.000402	148.375
1550.0	0.0004021	148.421999931
1550.0	0.0004026	148.453000069
1550.0	0.0004026	148.5
1550.0	0.0004026	148.530999899
1550.0	0.0004025	148.578000069
1550.0	0.0004027	148.625
1550.0	0.0004026	148.655999899
1550.0	0.0004023	148.703000069
1550.0	0.0004023	148.75
1550.0	0.000402	148.780999899
1550.0	0.0004018	148.828000069
1550.0	0.000402	148.858999968
1550.0	0.000402	148.905999899
1550.0	0.0004021	148.953000069
1550.0	0.0004021	148.983999968
1550.0	0.000402	149.030999899
1550.0	0.000402	149.078000069
1550.0	0.000402	149.108999968
1550.0	0.0004018	149.155999899
1550.0	0.0004015	149.187000036
1550.0	0.0004013	149.233999968
1560.0	0.000397	149.514999866
1560.0	0.0003956	149.546999931
1560.0	0.0003943	149.592999935
1560.0	0.0003932	149.639999866
1560.0	0.0003923	149.671999931
1560.0	0.000392	149.717999935
1560.0	0.0003913	149.75
1560.0	0.0003911	149.796999931
1560.0	0.0003912	149.842999935
1560.0	0.0003912	149.875
1560.0	0.0003917	149.921999931
1560.0	0.000392	149.967999935
1560.0	0.0003918	150.0
1560.0	0.0003915	150.046999931
1560.0	0.0003911	150.092999935
1560.0	0.0003907	150.125
1560.0	0.0003905	150.171999931
1560.0	0.0003905	150.203000069
1560.0	0.0003905	150.25
1560.0	0.00039	150.296999931
1560.0	0.0003898	150.328000069
1560.0	0.0003896	150.375
1560.0	0.0003898	150.421999931
1560.0	0.0003901	150.453000069
1560.0	0.0003901	150.5
1560.0	0.0003898	150.530999899
1560.0	0.0003898	150.578000069
1560.0	0.00039	150.625
1560.0	0.0003905	150.655999899
1560.0	0.0003906	150.703000069
1560.0	0.0003906	150.75
1560.0	0.0003905	150.780999899
1560.0	0.0003901	150.828000069
1560.0	0.00039	150.858999968
1560.0	0.00039	150.905999899
1560.0	0.0003901	150.953000069
1560.0	0.0003906	150.983999968
1570.0	0.0003856	151.264999866
1570.0	0.0003833	151.312000036
1570.0	0.0003815	151.342999935
1570.0	0.00038	151.389999866
1570.0	0.000379	151.421999931
1570.0	0.0003782	151.467999935
1570.0	0.0003775	151.514999866
1570.0	0.0003768	151.546999931
1570.0	0.0003765	151.592999935
1570.0	0.0003761	151.639999866
1570.0	0.0003757	151.671999931
1570.0	0.0003752	151.717999935
1570.0	0.000375	151.75
1570.0	0.0003748	151.796999931
1570.0	0.0003748	151.842999935
1570.0	0.0003746	151.875
1570.0	0.0003742	151.921999931
1570.0	0.000374	151.967999935
1570.0	0.0003742	152.0
1570.0	0.0003742	152.046999931
1570.0	0.0003745	152.092999935
1570.0	0.0003751	152.125
1570.0	0.0003756	152.171999931
1570.0	0.0003758	152.203000069
1570.0	0.0003762	152.25
1570.0	0.0003762	152.296999931
1570.0	0.0003756	152.328000069
1570.0	0.000375	152.375
1570.0	0.0003743	152.421999931
1570.0	0.000374	152.453000069
1570.0	0.0003742	152.5
1570.0	0.0003743	152.530999899
1570.0	0.0003743	152.578000069
1570.0	0.0003743	152.625
1570.0	0.0003742	152.655999899
1570.0	0.0003738	152.703000069
1570.0	0.0003736	152.75
1580.0	0.0003675	153.014999866
1580.0	0.0003656	153.062000036
1580.0	0.0003636	153.092999935
1580.0	0.0003618	153.139999866
1580.0	0.0003605	153.187000036
1580.0	0.0003596	153.217999935
1580.0	0.000359	153.264999866
1580.0	0.0003582	153.312000036
1580.0	0.0003573	153.342999935
1580.0	0.000357	153.389999866
1580.0	0.0003568	153.421999931
1580.0	0.0003567	153.467999935
1580.0	0.0003561	153.514999866
1580.0	0.0003557	153.546999931
1580.0	0.0003556	153.592999935
1580.0	0.0003556	153.639999866
1580.0	0.0003551	153.671999931
1580.0	0.0003552	153.717999935
1580.0	0.0003555	153.75
1580.0	0.0003552	153.796999931
1580.0	0.0003551	153.842999935
1580.0	0.0003548	153.875
1580.0	0.0003545	153.921999931
1580.0	0.0003542	153.967999935
1580.0	0.0003545	154.0
1580.0	0.0003546	154.046999931
1580.0	0.0003546	154.092999935
1580.0	0.0003548	154.125
1580.0	0.0003552	154.171999931
1580.0	0.0003556	154.203000069
1580.0	0.0003557	154.25
1580.0	0.0003557	154.296999931
1580.0	0.0003555	154.328000069
1580.0	0.0003555	154.375
1580.0	0.0003555	154.421999931
1580.0	0.0003556	154.453000069
1580.0	0.0003558	154.5
1590.0	0.0003483	154.764999866
1590.0	0.0003451	154.812000036
1590.0	0.0003421	154.842999935
1590.0	0.0003395	154.889999866
1590.0	0.0003377	154.937000036
1590.0	0.0003365	154.967999935
1590.0	0.0003361	155.014999866
1590.0	0.0003356	155.062000036
1590.0	0.0003355	155.092999935
1590.0	0.0003351	155.139999866
1590.0	0.0003348	155.171999931
1590.0	0.0003345	155.217999935
1590.0	0.0003342	155.264999866
1590.0	0.0003338	155.296999931
1590.0	0.0003336	155.342999935
1590.0	0.0003332	155.389999866
1590.0	0.0003327	155.421999931
1590.0	0.0003325	155.467999935
1590.0	0.0003326	155.514999866
1590.0	0.000333	155.546999931
1590.0	0.0003333	155.592999935
1590.0	0.0003338	155.625
1590.0	0.0003343	155.671999931
1590.0	0.0003342	155.717999935
1590.0	0.0003345	155.75
1590.0	0.0003345	155.796999931
1590.0	0.0003343	155.842999935
1590.0	0.0003345	155.875
1590.0	0.0003342	155.921999931
1590.0	0.0003336	155.953000069
1590.0	0.0003336	156.0
1590.0	0.0003336	156.046999931
1590.0	0.0003333	156.078000069
1590.0	0.0003331	156.125
1590.0	0.0003331	156.171999931
1590.0	0.0003332	156.203000069
1590.0	0.0003332	156.25
1600.0	0.0003242	156.530999899
1600.0	0.0003211	156.562000036
1600.0	0.0003185	156.608999968
1600.0	0.000316	156.655999899
1600.0	0.0003143	156.687000036
1600.0	0.0003131	156.733999968
1600.0	0.000312	156.764999866
1600.0	0.0003108	156.812000036
1600.0	0.0003106	156.858999968
1600.0	0.0003103	156.889999866
1600.0	0.0003102	156.937000036
1600.0	0.0003101	156.983999968
1600.0	0.0003101	157.014999866
1600.0	0.0003096	157.062000036
1600.0	0.0003093	157.092999935
1600.0	0.0003091	157.139999866
1600.0	0.000309	157.187000036
1600.0	0.0003088	157.217999935
1600.0	0.0003088	157.264999866
1600.0	0.0003088	157.312000036
1600.0	0.0003088	157.342999935
1600.0	0.000309	157.389999866
1600.0	0.000309	157.421999931
1600.0	0.0003091	157.467999935
1600.0	0.0003093	157.514999866
1600.0	0.0003093	157.546999931
1600.0	0.0003091	157.592999935
1600.0	0.0003093	157.639999866
1600.0	0.0003093	157.671999931
1600.0	0.0003095	157.717999935
1600.0	0.0003095	157.764999866
1600.0	0.0003097	157.796999931
1600.0	0.00031	157.842999935
1600.0	0.0003097	157.875
1600.0	0.0003097	157.921999931
1600.0	0.0003095	157.967999935
1600.0	0.000309	158.0
1610.0	0.0003006	158.280999899
1610.0	0.0002972	158.328000069
1610.0	0.0002943	158.358999968
1610.0	0.000292	158.405999899
1610.0	0.0002897	158.437000036
1610.0	0.0002881	158.483999968
1610.0	0.0002866	158.530999899
1610.0	0.0002856	158.562000036
1610.0	0.000285	158.608999968
1610.0	0.0002843	158.655999899
1610.0	0.0002837	158.687000036
1610.0	0.0002832	158.733999968
1610.0	0.0002831	158.764999866
1610.0	0.0002827	158.812000036
1610.0	0.0002822	158.858999968
1610.0	0.0002826	158.889999866
1610.0	0.0002826	158.937000036
1610.0	0.0002827	158.983999968
1610.0	0.0002831	159.014999866
1610.0	0.0002833	159.062000036
1610.0	0.0002831	159.092999935
1610.0	0.0002831	159.139999866
1610.0	0.0002831	159.187000036
1610.0	0.0002827	159.217999935
1610.0	0.0002825	159.264999866
1610.0	0.0002826	159.312000036
1610.0	0.0002828	159.342999935
1610.0	0.0002828	159.389999866
1610.0	0.0002828	159.421999931
1610.0	0.0002831	159.467999935
1610.0	0.0002832	159.514999866
1610.0	0.0002832	159.546999931
1610.0	0.0002831	159.592999935
1610.0	0.0002831	159.639999866
1610.0	0.0002832	159.671999931
1610.0	0.0002831	159.717999935
1610.0	0.0002831	159.764999866
1620.0	0.0002737	160.030999899
1620.0	0.0002701	160.078000069
1620.0	0.0002672	160.125
1620.0	0.0002647	160.155999899
1620.0	0.0002627	160.203000069
1620.0	0.000261	160.25
1620.0	0.0002597	160.280999899
1620.0	0.0002588	160.328000069
1620.0	0.0002583	160.358999968
1620.0	0.0002581	160.405999899
1620.0	0.0002575	160.453000069
1620.0	0.0002571	160.483999968
1620.0	0.0002565	160.530999899
1620.0	0.0002562	160.578000069
1620.0	0.000256	160.608999968
1620.0	0.0002562	160.655999899
1620.0	0.0002563	160.703000069
1620.0	0.0002562	160.733999968
1620.0	0.0002566	160.780999899
1620.0	0.000257	160.812000036
1620.0	0.0002572	160.858999968
1620.0	0.0002578	160.905999899
1620.0	0.0002577	160.937000036
1620.0	0.0002572	160.983999968
1620.0	0.0002568	161.014999866
1620.0	0.0002566	161.062000036
1620.0	0.0002563	161.108999968
1620.0	0.0002558	161.139999866
1620.0	0.0002557	161.187000036
1620.0	0.0002552	161.233999968
1620.0	0.000255	161.264999866
1620.0	0.0002552	161.312000036
1620.0	0.0002557	161.342999935
1620.0	0.0002558	161.389999866
1620.0	0.0002558	161.437000036
1620.0	0.0002563	161.467999935
1620.0	0.0002565	161.514999866
1630.0	0.0002476	161.796999931
1630.0	0.0002445	161.842999935
1630.0	0.0002418	161.875
1630.0	0.0002391	161.921999931
1630.0	0.0002366	161.953000069
1630.0	0.000235	162.0
1630.0	0.0002335	162.046999931
1630.0	0.0002326	162.078000069
1630.0	0.0002318	162.125
1630.0	0.000231	162.171999931
1630.0	0.0002306	162.203000069
1630.0	0.0002306	162.25
1630.0	0.0002307	162.280999899
1630.0	0.0002307	162.328000069
1630.0	0.0002307	162.375
1630.0	0.0002308	162.405999899
1630.0	0.000231	162.453000069
1630.0	0.0002308	162.5
1630.0	0.0002308	162.530999899
1630.0	0.0002307	162.578000069
1630.0	0.0002303	162.625
1630.0	0.0002302	162.655999899
1630.0	0.00023	162.703000069
1630.0	0.0002297	162.733999968
1630.0	0.0002296	162.780999899
1630.0	0.0002297	162.828000069
1630.0	0.00023	162.858999968
1630.0	0.00023	162.905999899
1630.0	0.00023	162.953000069
1630.0	0.0002295	162.983999968
1630.0	0.0002291	163.030999899
1630.0	0.000229	163.062000036
1630.0	0.0002288	163.108999968
1630.0	0.000229	163.155999899
1630.0	0.0002291	163.187000036
1630.0	0.0002291	163.233999968
1630.0	0.0002293	163.280999899
1640.0	0.000221	163.546999931
1640.0	0.0002181	163.592999935
1640.0	0.0002152	163.639999866
1640.0	0.0002127	163.671999931
1640.0	0.0002108	163.717999935
1640.0	0.0002096	163.764999866
1640.0	0.0002083	163.796999931
1640.0	0.0002076	163.842999935
1640.0	0.0002075	163.875
1640.0	0.0002072	163.921999931
1640.0	0.0002066	163.967999935
1640.0	0.000206	164.0
1640.0	0.0002056	164.046999931
1640.0	0.0002052	164.092999935
1640.0	0.0002047	164.125
1640.0	0.0002046	164.171999931
1640.0	0.0002046	164.203000069
1640.0	0.0002047	164.25
1640.0	0.0002047	164.296999931
1640.0	0.0002046	164.328000069
1640.0	0.0002043	164.375
1640.0	0.0002043	164.421999931
1640.0	0.0002043	164.453000069
1640.0	0.000204	164.5
1640.0	0.0002038	164.546999931
1640.0	0.0002038	164.578000069
1640.0	0.0002038	164.625
1640.0	0.0002041	164.655999899
1640.0	0.0002045	164.703000069
1640.0	0.0002047	164.75
1640.0	0.0002046	164.780999899
1640.0	0.0002046	164.828000069
1640.0	0.0002046	164.875
1640.0	0.0002046	164.905999899
1640.0	0.0002046	164.953000069
1640.0	0.0002043	164.983999968
1640.0	0.0002038	165.030999899
1650.0	0.0001953	165.312000036
1650.0	0.0001927	165.358999968
1650.0	0.00019	165.389999866
1650.0	0.0001872	165.437000036
1650.0	0.0001851	165.467999935
1650.0	0.0001835	165.514999866
1650.0	0.0001825	165.562000036
1650.0	0.0001821	165.592999935
1650.0	0.0001818	165.639999866
1650.0	0.0001816	165.687000036
1650.0	0.0001815	165.717999935
1650.0	0.0001815	165.764999866
1650.0	0.0001815	165.796999931
1650.0	0.0001813	165.842999935
1650.0	0.0001815	165.889999866
1650.0	0.0001815	165.921999931
1650.0	0.000181	165.967999935
1650.0	0.0001806	166.014999866
1650.0	0.0001803	166.046999931
1650.0	0.0001803	166.092999935
1650.0	0.0001802	166.139999866
1650.0	0.0001806	166.171999931
1650.0	0.0001801	166.217999935
1650.0	0.00018	166.25
1650.0	0.0001797	166.296999931
1650.0	0.0001796	166.342999935
1650.0	0.0001795	166.375
1650.0	0.0001793	166.421999931
1650.0	0.0001795	166.467999935
1650.0	0.0001796	166.5
1650.0	0.0001797	166.546999931
1650.0	0.0001802	166.578000069
1650.0	0.0001802	166.625
1650.0	0.0001802	166.671999931
1650.0	0.0001797	166.703000069
1650.0	0.0001795	166.75
1650.0	0.0001796	166.796999931
1660.0	0.0001726	167.078000069
1660.0	0.0001697	167.108999968
1660.0	0.0001675	167.155999899
1660.0	0.0001658	167.203000069
1660.0	0.0001647	167.233999968
1660.0	0.0001643	167.280999899
1660.0	0.0001638	167.328000069
1660.0	0.0001632	167.358999968
1660.0	0.0001631	167.405999899
1660.0	0.0001622	167.437000036
1660.0	0.0001616	167.483999968
1660.0	0.0001616	167.530999899
1660.0	0.0001615	167.562000036
1660.0	0.0001616	167.608999968
1660.0	0.0001615	167.639999866
1660.0	0.0001613	167.687000036
1660.0	0.0001612	167.733999968
1660.0	0.000161	167.764999866
1660.0	0.0001612	167.812000036
1660.0	0.0001613	167.858999968
1660.0	0.0001612	167.889999866
1660.0	0.0001612	167.937000036
1660.0	0.0001612	167.983999968
1660.0	0.0001613	168.014999866
1660.0	0.0001613	168.062000036
1660.0	0.0001608	168.092999935
1660.0	0.0001608	168.139999866
1660.0	0.0001612	168.187000036
1660.0	0.0001613	168.217999935
1660.0	0.0001612	168.264999866
1660.0	0.0001608	168.312000036
1660.0	0.000161	168.342999935
1660.0	0.0001608	168.389999866
1660.0	0.0001607	168.421999931
1660.0	0.0001606	168.467999935
1660.0	0.0001606	168.514999866
1660.0	0.0001607	168.546999931
1670.0	0.0001546	168.842999935
1670.0	0.0001525	168.875
1670.0	0.0001506	168.921999931
1670.0	0.000149	168.967999935
1670.0	0.0001475	169.0
1670.0	0.000146	169.046999931
1670.0	0.000145	169.078000069
1670.0	0.0001441	169.125
1670.0	0.0001437	169.171999931
1670.0	0.0001433	169.203000069
1670.0	0.0001433	169.25
1670.0	0.0001435	169.296999931
1670.0	0.0001435	169.328000069
1670.0	0.0001437	169.375
1670.0	0.000144	169.421999931
1670.0	0.0001441	169.453000069
1670.0	0.0001438	169.5
1670.0	0.0001435	169.530999899
1670.0	0.0001432	169.578000069
1670.0	0.0001431	169.625
1670.0	0.0001431	169.655999899
1670.0	0.0001428	169.703000069
1670.0	0.0001427	169.75
1670.0	0.0001428	169.780999899
1670.0	0.0001431	169.828000069
1670.0	0.0001432	169.858999968
1670.0	0.0001431	169.905999899
1670.0	0.0001431	169.953000069
1670.0	0.0001431	169.983999968
1670.0	0.0001431	170.030999899
1670.0	0.0001433	170.078000069
1670.0	0.0001433	170.108999968
1670.0	0.0001432	170.155999899
1670.0	0.0001433	170.187000036
1670.0	0.0001433	170.233999968
1670.0	0.0001431	170.280999899
1670.0	0.0001428	170.312000036
1680.0	0.0001376	170.592999935
1680.0	0.0001356	170.639999866
1680.0	0.0001338	170.687000036
1680.0	0.0001325	170.717999935
1680.0	0.0001312	170.764999866
1680.0	0.0001301	170.812000036
1680.0	0.0001291	170.842999935
1680.0	0.0001287	170.889999866
1680.0	0.0001282	170.937000036
1680.0	0.0001277	170.967999935
1680.0	0.0001277	171.014999866
1680.0	0.0001277	171.046999931
1680.0	0.0001277	171.092999935
1680.0	0.0001277	171.139999866
1680.0	0.0001281	171.171999931
1680.0	0.0001278	171.217999935
1680.0	0.0001275	171.264999866
1680.0	0.0001272	171.296999931
1680.0	0.0001271	171.342999935
1680.0	0.0001271	171.375
1680.0	0.000127	171.421999931
1680.0	0.0001266	171.467999935
1680.0	0.000127	171.5
1680.0	0.0001272	171.546999931
1680.0	0.0001271	171.592999935
1680.0	0.0001272	171.625
1680.0	0.0001275	171.671999931
1680.0	0.0001275	171.703000069
1680.0	0.000127	171.75
1680.0	0.000127	171.796999931
1680.0	0.000127	171.828000069
1680.0	0.0001275	171.875
1680.0	0.0001278	171.921999931
1680.0	0.0001277	171.953000069
1680.0	0.0001275	172.0
1680.0	0.0001268	172.030999899
1680.0	0.0001268	172.078000069
1690.0	0.000122	172.375
1690.0	0.00012	172.405999899
1690.0	0.0001185	172.453000069
1690.0	0.0001175	172.483999968
1690.0	0.0001168	172.530999899
1690.0	0.0001165	172.578000069
1690.0	0.0001158	172.608999968
1690.0	0.0001151	172.655999899
1690.0	0.0001145	172.703000069
1690.0	0.0001143	172.733999968
1690.0	0.0001141	172.780999899
1690.0	0.0001141	172.812000036
1690.0	0.0001138	172.858999968
1690.0	0.000114	172.905999899
1690.0	0.000114	172.937000036
1690.0	0.0001143	172.983999968
1690.0	0.0001143	173.030999899
1690.0	0.0001143	173.062000036
1690.0	0.000114	173.108999968
1690.0	0.0001137	173.139999866
1690.0	0.0001133	173.187000036
1690.0	0.0001132	173.233999968
1690.0	0.0001132	173.264999866
1690.0	0.0001132	173.312000036
1690.0	0.0001132	173.358999968
1690.0	0.0001135	173.389999866
1690.0	0.000114	173.437000036
1690.0	0.0001143	173.467999935
1690.0	0.0001146	173.514999866
1690.0	0.0001145	173.562000036
1690.0	0.0001143	173.592999935
1690.0	0.0001143	173.639999866
1690.0	0.000114	173.687000036
1690.0	0.0001138	173.717999935
1690.0	0.0001137	173.764999866
1690.0	0.0001135	173.812000036
1690.0	0.0001131	173.842999935
1700.0	0.0001091	174.139999866
1700.0	0.0001077	174.171999931
1700.0	0.0001063	174.217999935
1700.0	0.000105	174.25
1700.0	0.0001038	174.296999931
1700.0	0.0001031	174.342999935
1700.0	0.0001025	174.375
1700.0	0.0001021	174.421999931
1700.0	0.0001018	174.467999935
1700.0	0.0001013	174.5
1700.0	0.0001013	174.546999931
1700.0	0.0001012	174.578000069
1700.0	0.0001012	174.625
1700.0	0.0001012	174.671999931
1700.0	0.0001015	174.703000069
1700.0	0.000102	174.75
1700.0	0.0001021	174.796999931
1700.0	0.000102	174.828000069
1700.0	0.0001018	174.875
1700.0	0.0001018	174.921999931
1700.0	0.0001021	174.953000069
1700.0	0.0001022	175.0
1700.0	0.0001021	175.030999899
1700.0	0.000102	175.078000069
1700.0	0.0001018	175.125
1700.0	0.0001015	175.155999899
1700.0	0.0001015	175.203000069
1700.0	0.0001013	175.25
1700.0	0.0001013	175.280999899
1700.0	0.000101	175.328000069
1700.0	0.000101	175.358999968
1700.0	0.0001012	175.405999899
1700.0	0.0001012	175.453000069
1700.0	0.0001013	175.483999968
1700.0	0.0001013	175.530999899
1700.0	0.0001012	175.578000069
1700.0	0.000101	175.608999968
1710.0	9.65e-05	175.889999866
1710.0	9.57e-05	175.921999931
1710.0	9.5e-05	175.967999935
1710.0	9.41e-05	176.0
1710.0	9.35e-05	176.046999931
1710.0	9.31e-05	176.078000069
1710.0	9.25e-05	176.108999968
1710.0	9.2e-05	176.155999899
1710.0	9.16e-05	176.187000036
1710.0	9.16e-05	176.217999935
1710.0	9.15e-05	176.264999866
1710.0	9.12e-05	176.296999931
1710.0	9.08e-05	176.328000069
1710.0	9.07e-05	176.375
1710.0	9.07e-05	176.405999899
1710.0	9.08e-05	176.453000069
1710.0	9.08e-05	176.483999968
1710.0	9.1e-05	176.514999866
1710.0	9.15e-05	176.562000036
1710.0	9.18e-05	176.592999935
1710.0	9.18e-05	176.625
1710.0	9.18e-05	176.671999931
1710.0	9.18e-05	176.703000069
1710.0	9.16e-05	176.75
1710.0	9.12e-05	176.780999899
1710.0	9.08e-05	176.812000036
1710.0	9.06e-05	176.858999968
1710.0	9.03e-05	176.889999866
1710.0	9.03e-05	176.921999931
1710.0	9.07e-05	176.967999935
1710.0	9.07e-05	177.0
1710.0	9.08e-05	177.030999899
1710.0	9.08e-05	177.078000069
1710.0	9.07e-05	177.108999968
1710.0	9.07e-05	177.139999866
1710.0	9.07e-05	177.187000036
1710.0	9.03e-05	177.217999935
1710.0	9.03e-05	177.264999866
1710.0	9.06e-05	177.296999931
1710.0	9.03e-05	177.328000069
1710.0	9.02e-05	177.375
1720.0	8.72e-05	177.639999866
1720.0	8.63e-05	177.687000036
1720.0	8.56e-05	177.717999935
1720.0	8.47e-05	177.75
1720.0	8.41e-05	177.796999931
1720.0	8.37e-05	177.828000069
1720.0	8.35e-05	177.875
1720.0	8.35e-05	177.905999899
1720.0	8.33e-05	177.937000036
1720.0	8.32e-05	177.983999968
1720.0	8.28e-05	178.014999866
1720.0	8.27e-05	178.046999931
1720.0	8.28e-05	178.092999935
1720.0	8.31e-05	178.125
1720.0	8.31e-05	178.155999899
1720.0	8.28e-05	178.203000069
1720.0	8.27e-05	178.233999968
1720.0	8.25e-05	178.280999899
1720.0	8.26e-05	178.312000036
1720.0	8.25e-05	178.342999935
1720.0	8.22e-05	178.389999866
1720.0	8.25e-05	178.421999931
1720.0	8.26e-05	178.453000069
1720.0	8.26e-05	178.5
1720.0	8.27e-05	178.530999899
1720.0	8.28e-05	178.562000036
1720.0	8.27e-05	178.608999968
1720.0	8.26e-05	178.639999866
1720.0	8.27e-05	178.687000036
1720.0	8.27e-05	178.717999935
1720.0	8.27e-05	178.75
1720.0	8.22e-05	178.796999931
1720.0	8.2e-05	178.828000069
1720.0	8.18e-05	178.858999968
1720.0	8.2e-05	178.905999899
1720.0	8.21e-05	178.937000036
1720.0	8.22e-05	178.967999935
1720.0	8.25e-05	179.014999866
1720.0	8.26e-05	179.046999931
1720.0	8.27e-05	179.092999935
1720.0	8.27e-05	179.125
1730.0	8.02e-05	179.405999899
1730.0	7.91e-05	179.437000036
1730.0	7.88e-05	179.483999968
1730.0	7.83e-05	179.514999866
1730.0	7.77e-05	179.546999931
1730.0	7.68e-05	179.592999935
1730.0	7.63e-05	179.625
1730.0	7.63e-05	179.655999899
1730.0	7.65e-05	179.703000069
1730.0	7.65e-05	179.733999968
1730.0	7.62e-05	179.764999866
1730.0	7.6e-05	179.812000036
1730.0	7.62e-05	179.842999935
1730.0	7.62e-05	179.889999866
1730.0	7.62e-05	179.921999931
1730.0	7.6e-05	179.953000069
1730.0	7.58e-05	180.0
1730.0	7.58e-05	180.030999899
1730.0	7.58e-05	180.062000036
1730.0	7.57e-05	180.108999968
1730.0	7.56e-05	180.139999866
1730.0	7.52e-05	180.187000036
1730.0	7.5e-05	180.217999935
1730.0	7.46e-05	180.25
1730.0	7.46e-05	180.296999931
1730.0	7.47e-05	180.328000069
1730.0	7.51e-05	180.358999968
1730.0	7.56e-05	180.405999899
1730.0	7.57e-05	180.437000036
1730.0	7.57e-05	180.467999935
1730.0	7.58e-05	180.514999866
1730.0	7.58e-05	180.546999931
1730.0	7.57e-05	180.592999935
1730.0	7.53e-05	180.625
1730.0	7.51e-05	180.655999899
1730.0	7.46e-05	180.703000069
1730.0	7.45e-05	180.733999968
1730.0	7.45e-05	180.764999866
1730.0	7.43e-05	180.812000036
1730.0	7.43e-05	180.842999935
1730.0	7.43e-05	180.875
1740.0	7.27e-05	181.155999899
1740.0	7.22e-05	181.187000036
1740.0	7.18e-05	181.233999968
1740.0	7.08e-05	181.264999866
1740.0	7e-05	181.312000036
1740.0	6.9e-05	181.342999935
1740.0	6.85e-05	181.375
1740.0	6.83e-05	181.421999931
1740.0	6.82e-05	181.453000069
1740.0	6.81e-05	181.483999968
1740.0	6.78e-05	181.530999899
1740.0	6.81e-05	181.562000036
1740.0	6.81e-05	181.592999935
1740.0	6.82e-05	181.639999866
1740.0	6.83e-05	181.671999931
1740.0	6.87e-05	181.717999935
1740.0	6.88e-05	181.75
1740.0	6.93e-05	181.780999899
1740.0	6.93e-05	181.828000069
1740.0	6.91e-05	181.858999968
1740.0	6.93e-05	181.889999866
1740.0	6.93e-05	181.937000036
1740.0	6.91e-05	181.967999935
1740.0	6.91e-05	182.0
1740.0	6.91e-05	182.046999931
1740.0	6.9e-05	182.078000069
1740.0	6.88e-05	182.125
1740.0	6.87e-05	182.155999899
1740.0	6.87e-05	182.187000036
1740.0	6.83e-05	182.233999968
1740.0	6.81e-05	182.264999866
1740.0	6.75e-05	182.296999931
1740.0	6.71e-05	182.342999935
1740.0	6.71e-05	182.375
1740.0	6.7e-05	182.421999931
1740.0	6.71e-05	182.453000069
1740.0	6.75e-05	182.483999968
1740.0	6.81e-05	182.530999899
1740.0	6.81e-05	182.562000036
1740.0	6.77e-05	182.592999935
1740.0	6.72e-05	182.639999866
1750.0	6.58e-05	182.905999899
1750.0	6.53e-05	182.953000069
1750.0	6.5e-05	182.983999968
1750.0	6.4e-05	183.014999866
1750.0	6.33e-05	183.062000036
1750.0	6.26e-05	183.092999935
1750.0	6.21e-05	183.139999866
1750.0	6.18e-05	183.171999931
1750.0	6.16e-05	183.203000069
1750.0	6.15e-05	183.25
1750.0	6.13e-05	183.280999899
1750.0	6.13e-05	183.312000036
1750.0	6.18e-05	183.358999968
1750.0	6.22e-05	183.389999866
1750.0	6.26e-05	183.421999931
1750.0	6.27e-05	183.467999935
1750.0	6.28e-05	183.5
1750.0	6.28e-05	183.546999931
1750.0	6.27e-05	183.578000069
1750.0	6.26e-05	183.608999968
1750.0	6.22e-05	183.655999899
1750.0	6.2e-05	183.687000036
1750.0	6.2e-05	183.717999935
1750.0	6.2e-05	183.764999866
1750.0	6.2e-05	183.796999931
1750.0	6.21e-05	183.828000069
1750.0	6.22e-05	183.875
1750.0	6.25e-05	183.905999899
1750.0	6.26e-05	183.953000069
1750.0	6.27e-05	183.983999968
1750.0	6.32e-05	184.014999866
1750.0	6.32e-05	184.062000036
1750.0	6.32e-05	184.092999935
1750.0	6.28e-05	184.125
1750.0	6.27e-05	184.171999931
1750.0	6.26e-05	184.203000069
1750.0	6.22e-05	184.233999968
1750.0	6.25e-05	184.280999899
1750.0	6.22e-05	184.312000036
1750.0	6.2e-05	184.358999968
1750.0	6.18e-05	184.389999866
1760.0	5.97e-05	184.671999931
1760.0	5.9e-05	184.703000069
1760.0	5.82e-05	184.733999968
1760.0	5.77e-05	184.780999899
1760.0	5.72e-05	184.812000036
1760.0	5.65e-05	184.842999935
1760.0	5.63e-05	184.889999866
1760.0	5.65e-05	184.921999931
1760.0	5.65e-05	184.953000069
1760.0	5.65e-05	185.0
1760.0	5.62e-05	185.030999899
1760.0	5.58e-05	185.078000069
1760.0	5.57e-05	185.108999968
1760.0	5.57e-05	185.139999866
1760.0	5.56e-05	185.187000036
1760.0	5.57e-05	185.217999935
1760.0	5.56e-05	185.25
1760.0	5.53e-05	185.296999931
1760.0	5.52e-05	185.328000069
1760.0	5.53e-05	185.358999968
1760.0	5.56e-05	185.405999899
1760.0	5.58e-05	185.437000036
1760.0	5.6e-05	185.483999968
1760.0	5.6e-05	185.514999866
1760.0	5.6e-05	185.546999931
1760.0	5.62e-05	185.592999935
1760.0	5.65e-05	185.625
1760.0	5.66e-05	185.655999899
1760.0	5.68e-05	185.703000069
1760.0	5.7e-05	185.733999968
1760.0	5.72e-05	185.764999866
1760.0	5.72e-05	185.812000036
1760.0	5.71e-05	185.842999935
1760.0	5.68e-05	185.889999866
1760.0	5.68e-05	185.921999931
1760.0	5.68e-05	185.953000069
1760.0	5.7e-05	186.0
1760.0	5.7e-05	186.030999899
1760.0	5.65e-05	186.062000036
1760.0	5.58e-05	186.108999968
1760.0	5.53e-05	186.139999866
1770.0	5.38e-05	186.421999931
1770.0	5.32e-05	186.453000069
1770.0	5.28e-05	186.5
1770.0	5.22e-05	186.530999899
1770.0	5.2e-05	186.562000036
1770.0	5.16e-05	186.608999968
1770.0	5.08e-05	186.639999866
1770.0	5.02e-05	186.671999931
1770.0	5e-05	186.717999935
1770.0	5.02e-05	186.75
1770.0	5.03e-05	186.780999899
1770.0	5.01e-05	186.828000069
1770.0	5.01e-05	186.858999968
1770.0	5.01e-05	186.905999899
1770.0	5.03e-05	186.937000036
1770.0	5.07e-05	186.967999935
1770.0	5.07e-05	187.014999866
1770.0	5.06e-05	187.046999931
1770.0	5.06e-05	187.078000069
1770.0	5.06e-05	187.125
1770.0	5.07e-05	187.155999899
1770.0	5.08e-05	187.187000036
1770.0	5.12e-05	187.233999968
1770.0	5.12e-05	187.264999866
1770.0	5.12e-05	187.312000036
1770.0	5.15e-05	187.342999935
1770.0	5.13e-05	187.375
1770.0	5.13e-05	187.421999931
1770.0	5.15e-05	187.453000069
1770.0	5.16e-05	187.483999968
1770.0	5.16e-05	187.530999899
1770.0	5.21e-05	187.562000036
1770.0	5.26e-05	187.592999935
1770.0	5.25e-05	187.639999866
1770.0	5.21e-05	187.671999931
1770.0	5.18e-05	187.717999935
1770.0	5.16e-05	187.75
1770.0	5.13e-05	187.780999899
1770.0	5.1e-05	187.828000069
1770.0	5.08e-05	187.858999968
1770.0	5.1e-05	187.889999866
1780.0	4.78e-05	188.171999931
1780.0	4.77e-05	188.203000069
1780.0	4.76e-05	188.25
1780.0	4.71e-05	188.280999899
1780.0	4.66e-05	188.328000069
1780.0	4.58e-05	188.358999968
1780.0	4.52e-05	188.389999866
1780.0	4.47e-05	188.437000036
1780.0	4.46e-05	188.467999935
1780.0	4.46e-05	188.5
1780.0	4.45e-05	188.546999931
1780.0	4.45e-05	188.578000069
1780.0	4.45e-05	188.608999968
1780.0	4.45e-05	188.655999899
1780.0	4.5e-05	188.687000036
1780.0	4.51e-05	188.717999935
1780.0	4.51e-05	188.764999866
1780.0	4.52e-05	188.796999931
1780.0	4.56e-05	188.842999935
1780.0	4.58e-05	188.875
1780.0	4.6e-05	188.905999899
1780.0	4.6e-05	188.953000069
1780.0	4.6e-05	188.983999968
1780.0	4.62e-05	189.014999866
1780.0	4.6e-05	189.062000036
1780.0	4.62e-05	189.092999935
1780.0	4.65e-05	189.139999866
1780.0	4.62e-05	189.171999931
1780.0	4.6e-05	189.203000069
1780.0	4.6e-05	189.25
1780.0	4.58e-05	189.280999899
1780.0	4.57e-05	189.312000036
1780.0	4.58e-05	189.358999968
1780.0	4.6e-05	189.389999866
1780.0	4.58e-05	189.421999931
1780.0	4.58e-05	189.467999935
1780.0	4.58e-05	189.5
1780.0	4.57e-05	189.546999931
1780.0	4.56e-05	189.578000069
1780.0	4.52e-05	189.608999968
1780.0	4.51e-05	189.655999899
1790.0	4.27e-05	189.937000036
1790.0	4.22e-05	189.967999935
1790.0	4.16e-05	190.014999866
1790.0	4.12e-05	190.046999931
1790.0	4.1e-05	190.078000069
1790.0	4.08e-05	190.125
1790.0	4.06e-05	190.155999899
1790.0	4.07e-05	190.187000036
1790.0	4.08e-05	190.233999968
1790.0	4.08e-05	190.264999866
1790.0	4.08e-05	190.296999931
1790.0	4.12e-05	190.342999935
1790.0	4.13e-05	190.375
1790.0	4.12e-05	190.421999931
1790.0	4.08e-05	190.453000069
1790.0	4.07e-05	190.483999968
1790.0	4.03e-05	190.530999899
1790.0	4.01e-05	190.562000036
1790.0	4.01e-05	190.592999935
1790.0	3.97e-05	190.639999866
1790.0	3.95e-05	190.671999931
1790.0	3.93e-05	190.703000069
1790.0	3.96e-05	190.75
1790.0	3.97e-05	190.780999899
1790.0	3.96e-05	190.828000069
1790.0	3.97e-05	190.858999968
1790.0	4.02e-05	190.889999866
1790.0	4.03e-05	190.937000036
1790.0	4.06e-05	190.967999935
1790.0	4.03e-05	191.0
1790.0	4.02e-05	191.046999931
1790.0	4e-05	191.078000069
1790.0	4.01e-05	191.125
1790.0	4.01e-05	191.155999899
1790.0	4.01e-05	191.187000036
1790.0	4.01e-05	191.233999968
1790.0	4e-05	191.264999866
1790.0	4e-05	191.296999931
1790.0	4.03e-05	191.342999935
1790.0	4.02e-05	191.375
1790.0	4.03e-05	191.405999899
1800.0	3.97e-05	191.687000036
1800.0	3.91e-05	191.733999968
1800.0	3.88e-05	191.764999866
1800.0	3.78e-05	191.796999931
1800.0	3.76e-05	191.842999935
1800.0	3.71e-05	191.875
1800.0	3.68e-05	191.921999931
1800.0	3.65e-05	191.953000069
1800.0	3.63e-05	191.983999968
1800.0	3.62e-05	192.030999899
1800.0	3.62e-05	192.062000036
1800.0	3.58e-05	192.092999935
1800.0	3.56e-05	192.139999866
1800.0	3.56e-05	192.171999931
1800.0	3.52e-05	192.203000069
1800.0	3.5e-05	192.25
1800.0	3.46e-05	192.280999899
1800.0	3.45e-05	192.328000069
1800.0	3.47e-05	192.358999968
1800.0	3.52e-05	192.389999866
1800.0	3.58e-05	192.437000036
1800.0	3.63e-05	192.467999935
1800.0	3.65e-05	192.5
1800.0	3.65e-05	192.546999931
1800.0	3.63e-05	192.578000069
1800.0	3.63e-05	192.608999968
1800.0	3.63e-05	192.655999899
1800.0	3.62e-05	192.687000036
1800.0	3.62e-05	192.733999968
1800.0	3.6e-05	192.764999866
1800.0	3.56e-05	192.796999931
1800.0	3.53e-05	192.842999935
1800.0	3.52e-05	192.875
1800.0	3.52e-05	192.905999899
1800.0	3.52e-05	192.953000069
1800.0	3.52e-05	192.983999968
1800.0	3.51e-05	193.014999866
1800.0	3.52e-05	193.062000036
1800.0	3.56e-05	193.092999935
1800.0	3.56e-05	193.139999866
1800.0	3.58e-05	193.171999931
