Your edit line - do NOT delete this line
Wavelength [nm], Voltage [V], Elapsed time [s]
800.0	8.43e-05	12.125
800.0	8.3e-05	12.1560001373
800.0	8.13e-05	12.2030000687
800.0	8e-05	12.25
800.0	7.93e-05	12.2810001373
800.0	7.95e-05	12.3280000687
800.0	7.93e-05	12.375
800.0	7.93e-05	12.4060001373
800.0	8e-05	12.4530000687
800.0	8e-05	12.4839999676
800.0	7.93e-05	12.5310001373
800.0	7.9e-05	12.5780000687
800.0	7.88e-05	12.625
800.0	7.88e-05	12.6560001373
800.0	7.88e-05	12.7030000687
800.0	7.83e-05	12.7339999676
800.0	7.83e-05	12.7810001373
800.0	7.83e-05	12.8280000687
800.0	7.88e-05	12.8589999676
800.0	7.9e-05	12.9060001373
800.0	7.93e-05	12.9530000687
800.0	7.95e-05	12.9839999676
800.0	8e-05	13.0310001373
800.0	8.03e-05	13.0620000362
800.0	8.13e-05	13.1089999676
800.0	8.2e-05	13.1560001373
800.0	8.25e-05	13.1870000362
800.0	8.18e-05	13.2339999676
800.0	8.08e-05	13.2810001373
800.0	8.05e-05	13.3280000687
800.0	7.95e-05	13.375
800.0	7.9e-05	13.4060001373
800.0	7.88e-05	13.4530000687
800.0	7.9e-05	13.5
800.0	7.9e-05	13.5310001373
800.0	7.9e-05	13.5780000687
810.0	8e-05	13.9060001373
810.0	8.05e-05	13.9530000687
810.0	8.08e-05	14.0
810.0	8.13e-05	14.0310001373
810.0	8.2e-05	14.0780000687
810.0	8.25e-05	14.1089999676
810.0	8.28e-05	14.1560001373
810.0	8.33e-05	14.2030000687
810.0	8.33e-05	14.2339999676
810.0	8.28e-05	14.2810001373
810.0	8.28e-05	14.3280000687
810.0	8.33e-05	14.3589999676
810.0	8.3e-05	14.4060001373
810.0	8.33e-05	14.4530000687
810.0	8.38e-05	14.4839999676
810.0	8.38e-05	14.5310001373
810.0	8.38e-05	14.5620000362
810.0	8.4e-05	14.6089999676
810.0	8.38e-05	14.6560001373
810.0	8.4e-05	14.6870000362
810.0	8.43e-05	14.7339999676
810.0	8.5e-05	14.7810001373
810.0	8.5e-05	14.8120000362
810.0	8.5e-05	14.8589999676
810.0	8.5e-05	14.8900001049
810.0	8.5e-05	14.9370000362
810.0	8.53e-05	14.9839999676
810.0	8.55e-05	15.0150001049
810.0	8.5e-05	15.0620000362
810.0	8.5e-05	15.1089999676
810.0	8.43e-05	15.1400001049
810.0	8.43e-05	15.1870000362
810.0	8.4e-05	15.2179999352
810.0	8.4e-05	15.2650001049
810.0	8.4e-05	15.3120000362
810.0	8.4e-05	15.3429999352
810.0	8.45e-05	15.3900001049
820.0	8.83e-05	15.7179999352
820.0	8.88e-05	15.7650001049
820.0	8.93e-05	15.8120000362
820.0	8.95e-05	15.8429999352
820.0	9.03e-05	15.8900001049
820.0	9.05e-05	15.9219999313
820.0	9.05e-05	15.9679999352
820.0	9.08e-05	16.0150001049
820.0	9.08e-05	16.0620000362
820.0	9.05e-05	16.0929999352
820.0	9.05e-05	16.1400001049
820.0	9.03e-05	16.1719999313
820.0	8.95e-05	16.2179999352
820.0	9.03e-05	16.2650001049
820.0	9.08e-05	16.2969999313
820.0	9.13e-05	16.3429999352
820.0	9.15e-05	16.3900001049
820.0	9.15e-05	16.4219999313
820.0	9.18e-05	16.4679999352
820.0	9.18e-05	16.5150001049
820.0	9.15e-05	16.5469999313
820.0	9.18e-05	16.5929999352
820.0	9.18e-05	16.625
820.0	9.18e-05	16.6719999313
820.0	9.18e-05	16.7179999352
820.0	9.15e-05	16.75
820.0	9.2e-05	16.7969999313
820.0	9.25e-05	16.8280000687
820.0	9.18e-05	16.875
820.0	9.15e-05	16.9219999313
820.0	9.08e-05	16.9530000687
820.0	9.05e-05	17.0
820.0	9.03e-05	17.0469999313
820.0	9.05e-05	17.0780000687
820.0	9.05e-05	17.125
820.0	9.05e-05	17.1719999313
820.0	9e-05	17.2030000687
830.0	9.33e-05	17.5310001373
830.0	9.45e-05	17.5780000687
830.0	9.65e-05	17.625
830.0	9.7e-05	17.6560001373
830.0	9.78e-05	17.7030000687
830.0	9.83e-05	17.75
830.0	9.9e-05	17.7810001373
830.0	9.93e-05	17.8280000687
830.0	9.95e-05	17.875
830.0	0.0001	17.9060001373
830.0	9.93e-05	17.9530000687
830.0	9.93e-05	18.0
830.0	9.83e-05	18.0310001373
830.0	9.8e-05	18.0780000687
830.0	9.8e-05	18.125
830.0	9.78e-05	18.1560001373
830.0	9.8e-05	18.2030000687
830.0	9.8e-05	18.2339999676
830.0	9.8e-05	18.2810001373
830.0	9.7e-05	18.3280000687
830.0	9.7e-05	18.3589999676
830.0	9.75e-05	18.4060001373
830.0	9.8e-05	18.4530000687
830.0	9.8e-05	18.4839999676
830.0	9.8e-05	18.5310001373
830.0	9.78e-05	18.5780000687
830.0	9.7e-05	18.625
830.0	9.65e-05	18.6560001373
830.0	9.63e-05	18.7030000687
830.0	9.65e-05	18.7339999676
830.0	9.75e-05	18.7810001373
830.0	9.78e-05	18.8280000687
830.0	9.75e-05	18.8589999676
830.0	9.68e-05	18.9060001373
830.0	9.65e-05	18.9530000687
830.0	9.63e-05	18.9839999676
830.0	9.68e-05	19.0310001373
840.0	0.0001018	19.3589999676
840.0	0.0001033	19.3900001049
840.0	0.0001045	19.4370000362
840.0	0.0001053	19.4839999676
840.0	0.0001055	19.5150001049
840.0	0.0001063	19.5620000362
840.0	0.000107	19.5929999352
840.0	0.0001068	19.6400001049
840.0	0.0001068	19.6870000362
840.0	0.000107	19.7179999352
840.0	0.0001068	19.7650001049
840.0	0.000107	19.8120000362
840.0	0.0001078	19.8429999352
840.0	0.0001078	19.8900001049
840.0	0.0001078	19.9219999313
840.0	0.0001075	19.9679999352
840.0	0.0001078	20.0150001049
840.0	0.0001078	20.0469999313
840.0	0.000108	20.0929999352
840.0	0.000108	20.1400001049
840.0	0.0001078	20.1719999313
840.0	0.0001078	20.2179999352
840.0	0.000108	20.2650001049
840.0	0.0001075	20.2969999313
840.0	0.000107	20.3429999352
840.0	0.0001075	20.375
840.0	0.0001075	20.4219999313
840.0	0.000107	20.4679999352
840.0	0.0001078	20.5
840.0	0.000108	20.5469999313
840.0	0.000107	20.5780000687
840.0	0.000107	20.625
840.0	0.0001075	20.6719999313
840.0	0.000107	20.7030000687
840.0	0.000107	20.75
840.0	0.0001068	20.7969999313
840.0	0.0001068	20.8280000687
850.0	0.0001113	21.1560001373
850.0	0.0001125	21.1870000362
850.0	0.0001133	21.2339999676
850.0	0.0001145	21.2810001373
850.0	0.0001158	21.3120000362
850.0	0.0001168	21.3589999676
850.0	0.0001165	21.4060001373
850.0	0.0001163	21.4370000362
850.0	0.0001165	21.4839999676
850.0	0.0001165	21.5150001049
850.0	0.0001165	21.5620000362
850.0	0.000117	21.6089999676
850.0	0.0001178	21.6560001373
850.0	0.0001183	21.6870000362
850.0	0.000119	21.7339999676
850.0	0.0001193	21.7650001049
850.0	0.000119	21.8120000362
850.0	0.000119	21.8589999676
850.0	0.0001188	21.8900001049
850.0	0.0001188	21.9370000362
850.0	0.000119	21.9839999676
850.0	0.0001188	22.0150001049
850.0	0.000118	22.0620000362
850.0	0.0001175	22.0929999352
850.0	0.0001178	22.1400001049
850.0	0.0001178	22.1870000362
850.0	0.0001175	22.2179999352
850.0	0.0001178	22.2650001049
850.0	0.000118	22.3120000362
850.0	0.000118	22.3429999352
850.0	0.0001183	22.3900001049
850.0	0.0001188	22.4370000362
850.0	0.0001188	22.4679999352
850.0	0.0001188	22.5150001049
850.0	0.0001188	22.5620000362
850.0	0.0001188	22.5929999352
850.0	0.0001188	22.6400001049
860.0	0.0001228	22.9530000687
860.0	0.000124	23.0
860.0	0.0001255	23.0469999313
860.0	0.000127	23.0780000687
860.0	0.0001283	23.125
860.0	0.000129	23.1719999313
860.0	0.0001293	23.2030000687
860.0	0.000129	23.25
860.0	0.0001283	23.2810001373
860.0	0.0001288	23.3280000687
860.0	0.0001293	23.375
860.0	0.0001293	23.4060001373
860.0	0.0001293	23.4530000687
860.0	0.0001295	23.5
860.0	0.00013	23.5310001373
860.0	0.00013	23.5780000687
860.0	0.0001305	23.6089999676
860.0	0.0001308	23.6560001373
860.0	0.0001305	23.7030000687
860.0	0.0001308	23.7339999676
860.0	0.0001308	23.7810001373
860.0	0.0001308	23.8280000687
860.0	0.0001308	23.8589999676
860.0	0.0001308	23.9060001373
860.0	0.0001308	23.9530000687
860.0	0.0001303	23.9839999676
860.0	0.00013	24.0310001373
860.0	0.00013	24.0620000362
860.0	0.0001303	24.1089999676
860.0	0.0001313	24.1560001373
860.0	0.0001315	24.1870000362
860.0	0.0001318	24.2339999676
860.0	0.0001318	24.2810001373
860.0	0.0001313	24.3120000362
860.0	0.0001313	24.3589999676
860.0	0.0001313	24.3900001049
860.0	0.0001305	24.4370000362
870.0	0.0001355	24.75
870.0	0.000137	24.7969999313
870.0	0.0001383	24.8429999352
870.0	0.0001403	24.875
870.0	0.0001418	24.9219999313
870.0	0.0001433	24.9530000687
870.0	0.0001443	25.0
870.0	0.0001453	25.0469999313
870.0	0.0001455	25.0780000687
870.0	0.0001455	25.125
870.0	0.0001453	25.1719999313
870.0	0.000145	25.2030000687
870.0	0.0001453	25.25
870.0	0.0001445	25.2810001373
870.0	0.0001443	25.3280000687
870.0	0.0001443	25.375
870.0	0.000144	25.4060001373
870.0	0.000144	25.4530000687
870.0	0.0001445	25.5
870.0	0.000145	25.5310001373
870.0	0.000145	25.5780000687
870.0	0.0001445	25.6089999676
870.0	0.0001445	25.6560001373
870.0	0.0001445	25.7030000687
870.0	0.000144	25.7339999676
870.0	0.000144	25.7810001373
870.0	0.0001438	25.8280000687
870.0	0.0001438	25.8589999676
870.0	0.0001443	25.9060001373
870.0	0.000144	25.9530000687
870.0	0.0001428	25.9839999676
870.0	0.0001428	26.0310001373
870.0	0.0001428	26.0620000362
870.0	0.0001425	26.1089999676
870.0	0.0001428	26.1560001373
870.0	0.0001438	26.1870000362
870.0	0.0001443	26.2339999676
880.0	0.0001515	26.5469999313
880.0	0.000154	26.5929999352
880.0	0.0001558	26.625
880.0	0.000157	26.6719999313
880.0	0.0001583	26.7030000687
880.0	0.0001593	26.75
880.0	0.00016	26.7969999313
880.0	0.0001603	26.8280000687
880.0	0.0001603	26.875
880.0	0.0001603	26.9219999313
880.0	0.0001603	26.9530000687
880.0	0.0001608	27.0
880.0	0.0001608	27.0310001373
880.0	0.0001608	27.0780000687
880.0	0.0001608	27.125
880.0	0.0001615	27.1719999313
880.0	0.0001613	27.2030000687
880.0	0.0001608	27.25
880.0	0.0001605	27.2810001373
880.0	0.0001603	27.3280000687
880.0	0.0001603	27.375
880.0	0.00016	27.4060001373
880.0	0.0001603	27.4530000687
880.0	0.0001605	27.5
880.0	0.0001605	27.5310001373
880.0	0.0001605	27.5780000687
880.0	0.0001605	27.625
880.0	0.0001613	27.6560001373
880.0	0.0001613	27.7030000687
880.0	0.0001605	27.7339999676
880.0	0.0001603	27.7810001373
880.0	0.0001603	27.8280000687
880.0	0.00016	27.8589999676
880.0	0.0001603	27.9060001373
880.0	0.0001608	27.9530000687
880.0	0.0001608	27.9839999676
880.0	0.0001608	28.0310001373
890.0	0.0001705	28.3429999352
890.0	0.000173	28.375
890.0	0.0001743	28.4219999313
890.0	0.0001753	28.4679999352
890.0	0.0001765	28.5
890.0	0.000177	28.5469999313
890.0	0.0001775	28.5929999352
890.0	0.0001775	28.625
890.0	0.0001778	28.6719999313
890.0	0.0001775	28.7030000687
890.0	0.000177	28.75
890.0	0.0001765	28.7969999313
890.0	0.0001765	28.8280000687
890.0	0.0001765	28.875
890.0	0.0001768	28.9219999313
890.0	0.000177	28.9530000687
890.0	0.000177	29.0
890.0	0.0001778	29.0310001373
890.0	0.000178	29.0780000687
890.0	0.0001783	29.125
890.0	0.000179	29.1560001373
890.0	0.0001793	29.2030000687
890.0	0.000179	29.25
890.0	0.0001793	29.2810001373
890.0	0.0001793	29.3280000687
890.0	0.000179	29.3589999676
890.0	0.0001788	29.4060001373
890.0	0.0001788	29.4530000687
890.0	0.0001788	29.4839999676
890.0	0.0001788	29.5310001373
890.0	0.0001793	29.5780000687
890.0	0.00018	29.625
890.0	0.00018	29.6560001373
890.0	0.00018	29.7030000687
890.0	0.00018	29.7339999676
890.0	0.00018	29.7810001373
890.0	0.00018	29.8280000687
900.0	0.0001878	30.125
900.0	0.0001905	30.1719999313
900.0	0.000192	30.2179999352
900.0	0.0001933	30.25
900.0	0.000195	30.2969999313
900.0	0.0001965	30.3429999352
900.0	0.000197	30.375
900.0	0.0001975	30.4219999313
900.0	0.000197	30.4530000687
900.0	0.0001965	30.5
900.0	0.0001975	30.5469999313
900.0	0.0001975	30.5780000687
900.0	0.000197	30.625
900.0	0.000197	30.6719999313
900.0	0.0001975	30.7030000687
900.0	0.000198	30.75
900.0	0.0001988	30.7810001373
900.0	0.0001988	30.8280000687
900.0	0.000199	30.875
900.0	0.000199	30.9060001373
900.0	0.000199	30.9530000687
900.0	0.0001993	31.0
900.0	0.0001993	31.0310001373
900.0	0.0001995	31.0780000687
900.0	0.0001993	31.1089999676
900.0	0.0001988	31.1560001373
900.0	0.000199	31.2030000687
900.0	0.0001995	31.2339999676
900.0	0.0002	31.2810001373
900.0	0.0002005	31.3280000687
900.0	0.0002013	31.3589999676
900.0	0.0002015	31.4060001373
900.0	0.0002015	31.4370000362
900.0	0.0002013	31.4839999676
900.0	0.0002003	31.5310001373
900.0	0.0001995	31.5620000362
900.0	0.0001995	31.6089999676
910.0	0.0002058	31.9219999313
910.0	0.0002083	31.9530000687
910.0	0.0002105	32.0
910.0	0.000213	32.0469999313
910.0	0.000215	32.0780000687
910.0	0.0002168	32.125
910.0	0.0002175	32.1560001373
910.0	0.0002183	32.2030000687
910.0	0.0002188	32.25
910.0	0.000219	32.2810001373
910.0	0.0002188	32.3280000687
910.0	0.0002193	32.375
910.0	0.0002195	32.4060001373
910.0	0.0002195	32.4530000687
910.0	0.00022	32.5
910.0	0.00022	32.5310001373
910.0	0.000219	32.5780000687
910.0	0.000219	32.6089999676
910.0	0.0002193	32.6560001373
910.0	0.0002203	32.7030000687
910.0	0.0002203	32.7339999676
910.0	0.0002203	32.7810001373
910.0	0.00022	32.8280000687
910.0	0.0002203	32.8589999676
910.0	0.0002203	32.9060001373
910.0	0.0002203	32.9530000687
910.0	0.0002208	32.9839999676
910.0	0.0002215	33.0310001373
910.0	0.0002215	33.0780000687
910.0	0.0002215	33.1089999676
910.0	0.0002215	33.1560001373
910.0	0.0002215	33.2030000687
910.0	0.0002213	33.2339999676
910.0	0.0002208	33.2810001373
910.0	0.0002208	33.3280000687
910.0	0.0002208	33.3589999676
910.0	0.0002208	33.4060001373
920.0	0.0002313	33.7179999352
920.0	0.000234	33.75
920.0	0.0002368	33.7969999313
920.0	0.0002383	33.8280000687
920.0	0.0002393	33.875
920.0	0.0002395	33.9219999313
920.0	0.0002408	33.9530000687
920.0	0.000242	34.0
920.0	0.000243	34.0469999313
920.0	0.000243	34.0780000687
920.0	0.0002433	34.125
920.0	0.000243	34.1560001373
920.0	0.000243	34.2030000687
920.0	0.0002433	34.25
920.0	0.000244	34.2810001373
920.0	0.000244	34.3280000687
920.0	0.0002443	34.375
920.0	0.000244	34.4060001373
920.0	0.0002433	34.4530000687
920.0	0.0002433	34.5
920.0	0.0002443	34.5310001373
920.0	0.0002443	34.5780000687
920.0	0.000244	34.6089999676
920.0	0.0002438	34.6560001373
920.0	0.0002428	34.7030000687
920.0	0.0002425	34.7339999676
920.0	0.0002425	34.7810001373
920.0	0.0002428	34.8280000687
920.0	0.0002428	34.8589999676
920.0	0.0002428	34.9060001373
920.0	0.0002425	34.9370000362
920.0	0.0002418	34.9839999676
920.0	0.0002428	35.0310001373
920.0	0.0002433	35.0620000362
920.0	0.0002433	35.1089999676
920.0	0.0002438	35.1560001373
920.0	0.0002443	35.1870000362
930.0	0.0002528	35.5
930.0	0.0002558	35.5310001373
930.0	0.0002588	35.5780000687
930.0	0.0002605	35.625
930.0	0.000262	35.6560001373
930.0	0.0002638	35.7030000687
930.0	0.000265	35.7339999676
930.0	0.0002663	35.7810001373
930.0	0.000267	35.8280000687
930.0	0.0002675	35.8589999676
930.0	0.0002678	35.9060001373
930.0	0.000268	35.9530000687
930.0	0.0002683	35.9839999676
930.0	0.0002683	36.0310001373
930.0	0.0002683	36.0780000687
930.0	0.0002675	36.1089999676
930.0	0.0002668	36.1560001373
930.0	0.000267	36.1870000362
930.0	0.000267	36.2339999676
930.0	0.000267	36.2810001373
930.0	0.0002675	36.3120000362
930.0	0.0002675	36.3589999676
930.0	0.000267	36.4060001373
930.0	0.0002668	36.4370000362
930.0	0.0002665	36.4839999676
930.0	0.000267	36.5310001373
930.0	0.0002675	36.5620000362
930.0	0.0002668	36.6089999676
930.0	0.0002663	36.6560001373
930.0	0.0002665	36.6870000362
930.0	0.000267	36.7339999676
930.0	0.0002675	36.7650001049
930.0	0.0002675	36.8120000362
930.0	0.0002678	36.8589999676
930.0	0.0002678	36.8900001049
930.0	0.000268	36.9370000362
930.0	0.0002683	36.9839999676
940.0	0.000278	37.2810001373
940.0	0.0002805	37.3120000362
940.0	0.000283	37.3589999676
940.0	0.0002855	37.4060001373
940.0	0.000288	37.4370000362
940.0	0.0002893	37.4839999676
940.0	0.0002895	37.5310001373
940.0	0.00029	37.5620000362
940.0	0.0002905	37.6089999676
940.0	0.0002905	37.6400001049
940.0	0.0002908	37.6870000362
940.0	0.0002915	37.7339999676
940.0	0.0002918	37.7650001049
940.0	0.0002918	37.8120000362
940.0	0.0002918	37.8589999676
940.0	0.000292	37.8900001049
940.0	0.0002925	37.9370000362
940.0	0.0002928	37.9679999352
940.0	0.0002928	38.0150001049
940.0	0.0002925	38.0620000362
940.0	0.000292	38.0929999352
940.0	0.0002925	38.1400001049
940.0	0.000293	38.1870000362
940.0	0.0002938	38.2339999676
940.0	0.0002943	38.2650001049
940.0	0.000294	38.3120000362
940.0	0.000294	38.3429999352
940.0	0.0002943	38.3900001049
940.0	0.000294	38.4370000362
940.0	0.0002938	38.4679999352
940.0	0.0002938	38.5150001049
940.0	0.0002933	38.5620000362
940.0	0.0002928	38.5929999352
940.0	0.0002925	38.6400001049
940.0	0.0002928	38.6719999313
940.0	0.0002928	38.7179999352
940.0	0.000293	38.7650001049
950.0	0.000304	39.0620000362
950.0	0.0003068	39.0929999352
950.0	0.000309	39.1400001049
950.0	0.0003113	39.1870000362
950.0	0.000312	39.2179999352
950.0	0.0003125	39.2650001049
950.0	0.0003128	39.2969999313
950.0	0.0003138	39.3429999352
950.0	0.0003143	39.3900001049
950.0	0.0003153	39.4219999313
950.0	0.0003155	39.4679999352
950.0	0.0003155	39.5150001049
950.0	0.0003158	39.5469999313
950.0	0.0003163	39.5929999352
950.0	0.0003163	39.625
950.0	0.0003158	39.6719999313
950.0	0.0003165	39.7179999352
950.0	0.0003168	39.75
950.0	0.000317	39.7969999313
950.0	0.000317	39.8429999352
950.0	0.0003168	39.875
950.0	0.000317	39.9219999313
950.0	0.000317	39.9530000687
950.0	0.0003168	40.0
950.0	0.0003165	40.0469999313
950.0	0.0003165	40.0780000687
950.0	0.0003163	40.125
950.0	0.0003163	40.1719999313
950.0	0.0003165	40.2030000687
950.0	0.0003165	40.25
950.0	0.0003168	40.2810001373
950.0	0.0003168	40.3280000687
950.0	0.0003175	40.375
950.0	0.0003175	40.4060001373
950.0	0.0003178	40.4530000687
950.0	0.0003178	40.5
950.0	0.0003175	40.5310001373
960.0	0.0003288	40.8280000687
960.0	0.0003308	40.8589999676
960.0	0.0003333	40.9060001373
960.0	0.0003353	40.9530000687
960.0	0.0003365	40.9839999676
960.0	0.0003378	41.0310001373
960.0	0.0003388	41.0620000362
960.0	0.0003393	41.1089999676
960.0	0.0003393	41.1560001373
960.0	0.000339	41.1870000362
960.0	0.000339	41.2339999676
960.0	0.0003395	41.2810001373
960.0	0.0003403	41.3120000362
960.0	0.00034	41.3589999676
960.0	0.0003405	41.3900001049
960.0	0.0003413	41.4370000362
960.0	0.0003413	41.4839999676
960.0	0.0003415	41.5150001049
960.0	0.0003418	41.5620000362
960.0	0.0003418	41.6089999676
960.0	0.0003415	41.6400001049
960.0	0.0003413	41.6870000362
960.0	0.0003405	41.7179999352
960.0	0.0003403	41.7650001049
960.0	0.0003403	41.8120000362
960.0	0.0003403	41.8429999352
960.0	0.0003403	41.8900001049
960.0	0.00034	41.9370000362
960.0	0.0003395	41.9679999352
960.0	0.0003393	42.0150001049
960.0	0.0003393	42.0469999313
960.0	0.0003395	42.0929999352
960.0	0.00034	42.1400001049
960.0	0.0003403	42.1719999313
960.0	0.0003408	42.2179999352
960.0	0.0003413	42.2650001049
960.0	0.0003405	42.2969999313
970.0	0.00035	42.5780000687
970.0	0.000353	42.625
970.0	0.0003558	42.6719999313
970.0	0.000357	42.7030000687
970.0	0.0003588	42.75
970.0	0.0003595	42.7969999313
970.0	0.0003605	42.8280000687
970.0	0.0003613	42.875
970.0	0.0003618	42.9219999313
970.0	0.0003613	42.9530000687
970.0	0.0003618	43.0
970.0	0.000363	43.0469999313
970.0	0.0003633	43.0780000687
970.0	0.0003633	43.125
970.0	0.0003638	43.1719999313
970.0	0.0003643	43.2030000687
970.0	0.000365	43.25
970.0	0.0003655	43.2969999313
970.0	0.0003655	43.3280000687
970.0	0.0003653	43.375
970.0	0.000365	43.4060001373
970.0	0.0003643	43.4530000687
970.0	0.000363	43.5
970.0	0.0003633	43.5310001373
970.0	0.000363	43.5780000687
970.0	0.0003625	43.625
970.0	0.000363	43.6560001373
970.0	0.0003638	43.7030000687
970.0	0.000363	43.75
970.0	0.0003628	43.7810001373
970.0	0.000363	43.8280000687
970.0	0.0003633	43.8589999676
970.0	0.0003643	43.9060001373
970.0	0.0003643	43.9530000687
970.0	0.000364	43.9839999676
970.0	0.0003638	44.0310001373
970.0	0.0003638	44.0780000687
980.0	0.0003733	44.3589999676
980.0	0.0003763	44.3900001049
980.0	0.0003783	44.4370000362
980.0	0.00038	44.4839999676
980.0	0.0003815	44.5150001049
980.0	0.0003825	44.5620000362
980.0	0.0003838	44.6089999676
980.0	0.0003845	44.6400001049
980.0	0.0003845	44.6870000362
980.0	0.0003845	44.7339999676
980.0	0.0003845	44.7650001049
980.0	0.000385	44.8120000362
980.0	0.0003855	44.8589999676
980.0	0.0003853	44.8900001049
980.0	0.000385	44.9370000362
980.0	0.0003855	44.9679999352
980.0	0.0003863	45.0150001049
980.0	0.0003863	45.0620000362
980.0	0.0003865	45.0929999352
980.0	0.000387	45.1400001049
980.0	0.0003868	45.1870000362
980.0	0.0003863	45.2179999352
980.0	0.0003858	45.2650001049
980.0	0.0003863	45.2969999313
980.0	0.0003863	45.3429999352
980.0	0.0003863	45.3900001049
980.0	0.0003865	45.4219999313
980.0	0.000387	45.4679999352
980.0	0.0003878	45.5150001049
980.0	0.0003878	45.5469999313
980.0	0.000387	45.5929999352
980.0	0.0003875	45.625
980.0	0.0003878	45.6719999313
980.0	0.0003878	45.7179999352
980.0	0.0003875	45.75
980.0	0.0003875	45.7969999313
980.0	0.000387	45.8429999352
990.0	0.0003958	46.1089999676
990.0	0.0003988	46.1560001373
990.0	0.0004013	46.2030000687
990.0	0.000403	46.2339999676
990.0	0.0004038	46.2810001373
990.0	0.0004045	46.3280000687
990.0	0.0004063	46.3589999676
990.0	0.0004075	46.4060001373
990.0	0.000408	46.4530000687
990.0	0.000409	46.4839999676
990.0	0.0004095	46.5310001373
990.0	0.00041	46.5780000687
990.0	0.00041	46.6089999676
990.0	0.00041	46.6560001373
990.0	0.0004095	46.7030000687
990.0	0.0004093	46.7339999676
990.0	0.0004088	46.7810001373
990.0	0.000408	46.8120000362
990.0	0.000408	46.8589999676
990.0	0.000408	46.9060001373
990.0	0.0004075	46.9370000362
990.0	0.0004075	46.9839999676
990.0	0.000408	47.0310001373
990.0	0.000408	47.0620000362
990.0	0.0004083	47.1089999676
990.0	0.0004088	47.1400001049
990.0	0.0004088	47.1870000362
990.0	0.0004093	47.2339999676
990.0	0.00041	47.2650001049
990.0	0.0004095	47.3120000362
990.0	0.0004093	47.3589999676
990.0	0.0004095	47.3900001049
990.0	0.00041	47.4370000362
990.0	0.0004095	47.4679999352
990.0	0.0004093	47.5150001049
990.0	0.000409	47.5620000362
990.0	0.000408	47.5929999352
1000.0	0.000418	47.875
1000.0	0.0004203	47.9219999313
1000.0	0.000422	47.9530000687
1000.0	0.0004233	48.0
1000.0	0.000425	48.0469999313
1000.0	0.0004265	48.0780000687
1000.0	0.000428	48.125
1000.0	0.000429	48.1719999313
1000.0	0.00043	48.2030000687
1000.0	0.0004305	48.25
1000.0	0.0004313	48.2969999313
1000.0	0.0004315	48.3280000687
1000.0	0.0004308	48.375
1000.0	0.00043	48.4060001373
1000.0	0.0004303	48.4530000687
1000.0	0.0004308	48.5
1000.0	0.0004308	48.5310001373
1000.0	0.0004313	48.5780000687
1000.0	0.0004313	48.625
1000.0	0.0004313	48.6560001373
1000.0	0.0004308	48.7030000687
1000.0	0.0004313	48.75
1000.0	0.0004305	48.7810001373
1000.0	0.0004303	48.8280000687
1000.0	0.0004305	48.875
1000.0	0.0004308	48.9060001373
1000.0	0.0004308	48.9530000687
1000.0	0.0004308	48.9839999676
1000.0	0.0004305	49.0310001373
1000.0	0.00043	49.0780000687
1000.0	0.00043	49.1089999676
1000.0	0.0004303	49.1560001373
1000.0	0.0004303	49.2030000687
1000.0	0.0004305	49.2339999676
1000.0	0.0004313	49.2810001373
1000.0	0.0004313	49.3120000362
1000.0	0.0004313	49.3589999676
1010.0	0.0004383	49.6400001049
1010.0	0.0004415	49.6870000362
1010.0	0.0004438	49.7179999352
1010.0	0.0004453	49.7650001049
1010.0	0.000447	49.8120000362
1010.0	0.0004483	49.8429999352
1010.0	0.000449	49.8900001049
1010.0	0.000449	49.9219999313
1010.0	0.0004495	49.9679999352
1010.0	0.0004505	50.0150001049
1010.0	0.0004505	50.0469999313
1010.0	0.0004505	50.0929999352
1010.0	0.0004505	50.125
1010.0	0.0004513	50.1719999313
1010.0	0.000452	50.2179999352
1010.0	0.0004525	50.25
1010.0	0.0004525	50.2969999313
1010.0	0.0004528	50.3429999352
1010.0	0.000453	50.375
1010.0	0.000452	50.4219999313
1010.0	0.0004513	50.4679999352
1010.0	0.0004515	50.5
1010.0	0.0004515	50.5469999313
1010.0	0.0004513	50.5780000687
1010.0	0.000452	50.625
1010.0	0.0004525	50.6719999313
1010.0	0.000453	50.7030000687
1010.0	0.0004528	50.75
1010.0	0.000453	50.7969999313
1010.0	0.000452	50.8280000687
1010.0	0.0004515	50.875
1010.0	0.0004513	50.9060001373
1010.0	0.0004513	50.9530000687
1010.0	0.0004518	51.0
1010.0	0.0004525	51.0310001373
1010.0	0.0004525	51.0780000687
1010.0	0.0004525	51.125
1020.0	0.00046	51.4060001373
1020.0	0.000463	51.4370000362
1020.0	0.0004655	51.4839999676
1020.0	0.0004678	51.5150001049
1020.0	0.0004693	51.5620000362
1020.0	0.0004713	51.6089999676
1020.0	0.000472	51.6400001049
1020.0	0.0004733	51.6870000362
1020.0	0.0004738	51.7339999676
1020.0	0.000474	51.7650001049
1020.0	0.0004745	51.8120000362
1020.0	0.0004753	51.8429999352
1020.0	0.0004755	51.8900001049
1020.0	0.0004755	51.9370000362
1020.0	0.0004763	51.9679999352
1020.0	0.0004765	52.0150001049
1020.0	0.0004758	52.0620000362
1020.0	0.0004755	52.0929999352
1020.0	0.000475	52.1400001049
1020.0	0.000474	52.1719999313
1020.0	0.000474	52.2179999352
1020.0	0.000474	52.2650001049
1020.0	0.0004738	52.2969999313
1020.0	0.0004733	52.3429999352
1020.0	0.0004733	52.3900001049
1020.0	0.0004733	52.4219999313
1020.0	0.0004733	52.4679999352
1020.0	0.0004738	52.5
1020.0	0.0004733	52.5469999313
1020.0	0.0004738	52.5929999352
1020.0	0.0004743	52.625
1020.0	0.0004745	52.6719999313
1020.0	0.0004753	52.7179999352
1020.0	0.0004753	52.75
1020.0	0.0004743	52.7969999313
1020.0	0.0004738	52.8280000687
1020.0	0.0004738	52.875
1030.0	0.000482	53.1560001373
1030.0	0.0004858	53.2030000687
1030.0	0.0004888	53.2339999676
1030.0	0.0004908	53.2810001373
1030.0	0.000493	53.3280000687
1030.0	0.0004945	53.3589999676
1030.0	0.0004955	53.4060001373
1030.0	0.0004963	53.4370000362
1030.0	0.000497	53.4839999676
1030.0	0.000497	53.5310001373
1030.0	0.0004968	53.5620000362
1030.0	0.0004963	53.6089999676
1030.0	0.0004955	53.6560001373
1030.0	0.0004955	53.6870000362
1030.0	0.0004958	53.7339999676
1030.0	0.0004958	53.7650001049
1030.0	0.0004955	53.8120000362
1030.0	0.0004958	53.8589999676
1030.0	0.0004965	53.8900001049
1030.0	0.0004965	53.9370000362
1030.0	0.000497	53.9839999676
1030.0	0.0004975	54.0150001049
1030.0	0.0004968	54.0620000362
1030.0	0.0004965	54.1089999676
1030.0	0.0004968	54.1400001049
1030.0	0.0004968	54.1870000362
1030.0	0.0004968	54.2339999676
1030.0	0.0004968	54.2650001049
1030.0	0.0004968	54.3120000362
1030.0	0.000497	54.3429999352
1030.0	0.000497	54.3900001049
1030.0	0.0004968	54.4370000362
1030.0	0.0004963	54.4679999352
1030.0	0.0004955	54.5150001049
1030.0	0.0004955	54.5620000362
1030.0	0.0004955	54.5929999352
1030.0	0.0004955	54.6400001049
1040.0	0.0005063	54.9219999313
1040.0	0.0005095	54.9679999352
1040.0	0.0005118	55.0
1040.0	0.0005138	55.0469999313
1040.0	0.0005153	55.0929999352
1040.0	0.0005163	55.125
1040.0	0.0005168	55.1719999313
1040.0	0.000517	55.2030000687
1040.0	0.000517	55.25
1040.0	0.0005175	55.2969999313
1040.0	0.0005178	55.3280000687
1040.0	0.000518	55.375
1040.0	0.000518	55.4219999313
1040.0	0.0005188	55.4530000687
1040.0	0.0005188	55.5
1040.0	0.0005193	55.5310001373
1040.0	0.00052	55.5780000687
1040.0	0.0005195	55.625
1040.0	0.000519	55.6560001373
1040.0	0.0005188	55.7030000687
1040.0	0.000518	55.75
1040.0	0.000518	55.7810001373
1040.0	0.000518	55.8280000687
1040.0	0.0005183	55.8589999676
1040.0	0.000518	55.9060001373
1040.0	0.0005188	55.9530000687
1040.0	0.0005193	55.9839999676
1040.0	0.00052	56.0310001373
1040.0	0.0005203	56.0780000687
1040.0	0.0005208	56.1089999676
1040.0	0.0005213	56.1560001373
1040.0	0.0005205	56.2030000687
1040.0	0.0005203	56.2339999676
1040.0	0.00052	56.2810001373
1040.0	0.0005193	56.3280000687
1040.0	0.0005195	56.3589999676
1040.0	0.0005195	56.4060001373
1050.0	0.0005268	56.6870000362
1050.0	0.00053	56.7179999352
1050.0	0.0005325	56.7650001049
1050.0	0.000535	56.8120000362
1050.0	0.0005368	56.8429999352
1050.0	0.0005383	56.8900001049
1050.0	0.00054	56.9370000362
1050.0	0.0005408	56.9679999352
1050.0	0.0005413	57.0150001049
1050.0	0.0005413	57.0469999313
1050.0	0.0005413	57.0929999352
1050.0	0.0005408	57.1400001049
1050.0	0.0005408	57.1719999313
1050.0	0.0005413	57.2179999352
1050.0	0.0005413	57.2650001049
1050.0	0.0005408	57.2969999313
1050.0	0.0005405	57.3429999352
1050.0	0.00054	57.375
1050.0	0.0005395	57.4219999313
1050.0	0.00054	57.4679999352
1050.0	0.00054	57.5
1050.0	0.0005395	57.5469999313
1050.0	0.00054	57.5929999352
1050.0	0.00054	57.625
1050.0	0.00054	57.6719999313
1050.0	0.0005395	57.7179999352
1050.0	0.0005393	57.75
1050.0	0.0005388	57.7969999313
1050.0	0.0005388	57.8280000687
1050.0	0.000539	57.875
1050.0	0.0005393	57.9219999313
1050.0	0.0005395	57.9530000687
1050.0	0.0005405	58.0
1050.0	0.0005413	58.0469999313
1050.0	0.0005415	58.0780000687
1050.0	0.0005418	58.125
1050.0	0.0005415	58.1560001373
1060.0	0.000548	58.4370000362
1060.0	0.0005505	58.4839999676
1060.0	0.0005533	58.5310001373
1060.0	0.0005555	58.5620000362
1060.0	0.0005568	58.6089999676
1060.0	0.0005568	58.6400001049
1060.0	0.0005578	58.6870000362
1060.0	0.0005588	58.7339999676
1060.0	0.0005588	58.7650001049
1060.0	0.0005595	58.8120000362
1060.0	0.0005608	58.8589999676
1060.0	0.0005618	58.9060001373
1060.0	0.0005628	58.9370000362
1060.0	0.0005628	58.9839999676
1060.0	0.0005625	59.0150001049
1060.0	0.000562	59.0620000362
1060.0	0.0005618	59.1089999676
1060.0	0.0005615	59.1400001049
1060.0	0.0005615	59.1870000362
1060.0	0.0005618	59.2339999676
1060.0	0.0005615	59.2650001049
1060.0	0.0005618	59.3120000362
1060.0	0.0005625	59.3589999676
1060.0	0.0005628	59.3900001049
1060.0	0.0005625	59.4370000362
1060.0	0.000562	59.4839999676
1060.0	0.0005618	59.5150001049
1060.0	0.0005618	59.5620000362
1060.0	0.0005618	59.5929999352
1060.0	0.000562	59.6400001049
1060.0	0.000563	59.6870000362
1060.0	0.0005638	59.7179999352
1060.0	0.0005633	59.7650001049
1060.0	0.0005628	59.8120000362
1060.0	0.000563	59.8429999352
1060.0	0.000563	59.8900001049
1060.0	0.0005628	59.9219999313
1070.0	0.000568	60.2030000687
1070.0	0.0005705	60.25
1070.0	0.0005728	60.2969999313
1070.0	0.0005743	60.3280000687
1070.0	0.0005755	60.375
1070.0	0.0005765	60.4060001373
1070.0	0.0005775	60.4530000687
1070.0	0.000578	60.5
1070.0	0.0005788	60.5310001373
1070.0	0.000579	60.5780000687
1070.0	0.0005793	60.625
1070.0	0.0005805	60.6560001373
1070.0	0.0005813	60.7030000687
1070.0	0.0005813	60.7339999676
1070.0	0.0005805	60.7810001373
1070.0	0.0005808	60.8280000687
1070.0	0.0005805	60.875
1070.0	0.0005803	60.9060001373
1070.0	0.0005803	60.9530000687
1070.0	0.0005803	61.0
1070.0	0.00058	61.0310001373
1070.0	0.0005805	61.0780000687
1070.0	0.0005805	61.1089999676
1070.0	0.0005808	61.1560001373
1070.0	0.0005813	61.2030000687
1070.0	0.0005815	61.2339999676
1070.0	0.0005813	61.2810001373
1070.0	0.0005818	61.3280000687
1070.0	0.0005818	61.3589999676
1070.0	0.0005815	61.4060001373
1070.0	0.0005805	61.4370000362
1070.0	0.0005805	61.4839999676
1070.0	0.0005805	61.5310001373
1070.0	0.0005805	61.5620000362
1070.0	0.0005813	61.6089999676
1070.0	0.0005815	61.6560001373
1070.0	0.0005815	61.6870000362
1080.0	0.0005878	61.9679999352
1080.0	0.00059	62.0150001049
1080.0	0.000592	62.0469999313
1080.0	0.0005933	62.0929999352
1080.0	0.0005945	62.1400001049
1080.0	0.0005955	62.1870000362
1080.0	0.0005963	62.2179999352
1080.0	0.000597	62.2650001049
1080.0	0.0005983	62.2969999313
1080.0	0.000599	62.3429999352
1080.0	0.0005993	62.3900001049
1080.0	0.0005988	62.4219999313
1080.0	0.0005988	62.4679999352
1080.0	0.0005983	62.5150001049
1080.0	0.0005993	62.5469999313
1080.0	0.0005995	62.5929999352
1080.0	0.0006	62.625
1080.0	0.0005995	62.6719999313
1080.0	0.0005993	62.7179999352
1080.0	0.0005988	62.75
1080.0	0.0005988	62.7969999313
1080.0	0.000599	62.8429999352
1080.0	0.0005988	62.875
1080.0	0.0005988	62.9219999313
1080.0	0.000599	62.9530000687
1080.0	0.000599	63.0
1080.0	0.0005988	63.0469999313
1080.0	0.0005993	63.0780000687
1080.0	0.0005993	63.125
1080.0	0.000598	63.1719999313
1080.0	0.000598	63.2030000687
1080.0	0.0005978	63.25
1080.0	0.0005975	63.2810001373
1080.0	0.0005975	63.3280000687
1080.0	0.0005975	63.375
1080.0	0.000597	63.4060001373
1080.0	0.000597	63.4530000687
1090.0	0.0006025	63.7339999676
1090.0	0.000604	63.7650001049
1090.0	0.0006053	63.8120000362
1090.0	0.0006063	63.8429999352
1090.0	0.000607	63.8900001049
1090.0	0.0006078	63.9370000362
1090.0	0.000608	63.9679999352
1090.0	0.0006078	64.0150001049
1090.0	0.0006075	64.0620000362
1090.0	0.0006075	64.0929999352
1090.0	0.0006078	64.1400001049
1090.0	0.0006088	64.1870000362
1090.0	0.0006093	64.2179999352
1090.0	0.0006095	64.2650001049
1090.0	0.0006103	64.2969999313
1090.0	0.0006108	64.3429999352
1090.0	0.0006113	64.3900001049
1090.0	0.0006113	64.4219999313
1090.0	0.0006118	64.4679999352
1090.0	0.0006118	64.5150001049
1090.0	0.000612	64.5469999313
1090.0	0.0006125	64.5929999352
1090.0	0.0006125	64.625
1090.0	0.0006125	64.6719999313
1090.0	0.0006125	64.7179999352
1090.0	0.0006118	64.75
1090.0	0.0006113	64.7969999313
1090.0	0.0006108	64.8429999352
1090.0	0.0006103	64.875
1090.0	0.0006095	64.9219999313
1090.0	0.00061	64.9530000687
1090.0	0.0006105	65.0
1090.0	0.0006113	65.0469999313
1090.0	0.0006108	65.0780000687
1090.0	0.0006113	65.125
1090.0	0.0006113	65.1719999313
1090.0	0.0006103	65.2030000687
1100.0	0.000613	65.5
1100.0	0.0006143	65.5469999313
1100.0	0.000615	65.5780000687
1100.0	0.0006158	65.625
1100.0	0.0006165	65.6560001373
1100.0	0.0006168	65.7030000687
1100.0	0.0006175	65.75
1100.0	0.0006178	65.7810001373
1100.0	0.000617	65.8280000687
1100.0	0.000617	65.875
1100.0	0.0006178	65.9060001373
1100.0	0.0006175	65.9530000687
1100.0	0.0006168	65.9839999676
1100.0	0.0006175	66.0310001373
1100.0	0.0006175	66.0780000687
1100.0	0.0006175	66.1089999676
1100.0	0.000618	66.1560001373
1100.0	0.000618	66.2030000687
1100.0	0.000618	66.2339999676
1100.0	0.0006193	66.2810001373
1100.0	0.0006195	66.3120000362
1100.0	0.0006203	66.3589999676
1100.0	0.0006208	66.4060001373
1100.0	0.0006218	66.4370000362
1100.0	0.0006215	66.4839999676
1100.0	0.0006213	66.5310001373
1100.0	0.0006213	66.5620000362
1100.0	0.0006205	66.6089999676
1100.0	0.00062	66.6560001373
1100.0	0.00062	66.6870000362
1100.0	0.0006195	66.7339999676
1100.0	0.0006195	66.7650001049
1100.0	0.0006205	66.8120000362
1100.0	0.0006213	66.8589999676
1100.0	0.0006213	66.8900001049
1100.0	0.0006213	66.9370000362
1100.0	0.0006208	66.9839999676
1110.0	0.000622	67.25
1110.0	0.000623	67.2969999313
1110.0	0.000624	67.3280000687
1110.0	0.000625	67.375
1110.0	0.000625	67.4060001373
1110.0	0.0006245	67.4530000687
1110.0	0.000624	67.5
1110.0	0.0006238	67.5310001373
1110.0	0.0006233	67.5780000687
1110.0	0.000623	67.625
1110.0	0.0006238	67.6560001373
1110.0	0.000624	67.7030000687
1110.0	0.000624	67.7339999676
1110.0	0.0006243	67.7810001373
1110.0	0.0006243	67.8280000687
1110.0	0.000624	67.8589999676
1110.0	0.0006233	67.9060001373
1110.0	0.0006238	67.9530000687
1110.0	0.0006233	67.9839999676
1110.0	0.0006233	68.0310001373
1110.0	0.0006238	68.0620000362
1110.0	0.000624	68.1089999676
1110.0	0.0006238	68.1560001373
1110.0	0.000624	68.1870000362
1110.0	0.0006245	68.2339999676
1110.0	0.0006245	68.2810001373
1110.0	0.0006245	68.3120000362
1110.0	0.0006243	68.3589999676
1110.0	0.000624	68.4060001373
1110.0	0.000624	68.4370000362
1110.0	0.0006233	68.4839999676
1110.0	0.0006225	68.5310001373
1110.0	0.0006228	68.5620000362
1110.0	0.0006228	68.6089999676
1110.0	0.0006225	68.6560001373
1110.0	0.0006228	68.6870000362
1110.0	0.0006233	68.7339999676
1120.0	0.000624	69.0
1120.0	0.000625	69.0469999313
1120.0	0.0006253	69.0780000687
1120.0	0.0006255	69.125
1120.0	0.0006255	69.1719999313
1120.0	0.0006255	69.2030000687
1120.0	0.0006258	69.25
1120.0	0.0006265	69.2969999313
1120.0	0.0006265	69.3280000687
1120.0	0.0006263	69.375
1120.0	0.0006263	69.4060001373
1120.0	0.0006263	69.4530000687
1120.0	0.0006263	69.5
1120.0	0.0006263	69.5310001373
1120.0	0.0006263	69.5780000687
1120.0	0.0006255	69.625
1120.0	0.000625	69.6560001373
1120.0	0.0006245	69.7030000687
1120.0	0.000624	69.7339999676
1120.0	0.0006238	69.7810001373
1120.0	0.000624	69.8280000687
1120.0	0.0006243	69.8589999676
1120.0	0.0006238	69.9060001373
1120.0	0.0006245	69.9530000687
1120.0	0.0006253	69.9839999676
1120.0	0.0006255	70.0310001373
1120.0	0.0006253	70.0620000362
1120.0	0.0006253	70.1089999676
1120.0	0.0006245	70.1560001373
1120.0	0.000625	70.1870000362
1120.0	0.000625	70.2339999676
1120.0	0.0006253	70.2810001373
1120.0	0.000625	70.3120000362
1120.0	0.000625	70.3589999676
1120.0	0.0006245	70.4060001373
1120.0	0.000624	70.4370000362
1120.0	0.0006245	70.4839999676
1130.0	0.000627	70.75
1130.0	0.0006268	70.7969999313
1130.0	0.0006265	70.8280000687
1130.0	0.0006263	70.875
1130.0	0.0006255	70.9219999313
1130.0	0.0006245	70.9530000687
1130.0	0.0006233	71.0
1130.0	0.0006228	71.0310001373
1130.0	0.0006228	71.0780000687
1130.0	0.000623	71.125
1130.0	0.000623	71.1560001373
1130.0	0.000623	71.2030000687
1130.0	0.0006238	71.25
1130.0	0.000624	71.2810001373
1130.0	0.0006243	71.3280000687
1130.0	0.0006245	71.375
1130.0	0.000624	71.4060001373
1130.0	0.0006238	71.4530000687
1130.0	0.0006233	71.4839999676
1130.0	0.0006233	71.5310001373
1130.0	0.0006233	71.5780000687
1130.0	0.0006233	71.6089999676
1130.0	0.0006238	71.6560001373
1130.0	0.0006238	71.7030000687
1130.0	0.000624	71.7339999676
1130.0	0.0006243	71.7810001373
1130.0	0.000625	71.8120000362
1130.0	0.0006245	71.8589999676
1130.0	0.0006243	71.9060001373
1130.0	0.000624	71.9370000362
1130.0	0.0006238	71.9839999676
1130.0	0.000624	72.0310001373
1130.0	0.0006233	72.0620000362
1130.0	0.000623	72.1089999676
1130.0	0.0006225	72.1560001373
1130.0	0.0006225	72.1870000362
1130.0	0.0006228	72.2339999676
1140.0	0.0006243	72.5
1140.0	0.0006238	72.5469999313
1140.0	0.0006228	72.5780000687
1140.0	0.0006225	72.625
1140.0	0.0006215	72.6719999313
1140.0	0.0006208	72.7030000687
1140.0	0.0006203	72.75
1140.0	0.0006195	72.7810001373
1140.0	0.0006188	72.8280000687
1140.0	0.0006188	72.875
1140.0	0.0006193	72.9060001373
1140.0	0.0006193	72.9530000687
1140.0	0.00062	73.0
1140.0	0.0006205	73.0310001373
1140.0	0.0006205	73.0780000687
1140.0	0.0006213	73.125
1140.0	0.0006215	73.1560001373
1140.0	0.0006215	73.2030000687
1140.0	0.0006208	73.2339999676
1140.0	0.0006215	73.2810001373
1140.0	0.0006218	73.3280000687
1140.0	0.0006218	73.3589999676
1140.0	0.000622	73.4060001373
1140.0	0.000622	73.4530000687
1140.0	0.0006225	73.4839999676
1140.0	0.0006233	73.5310001373
1140.0	0.0006233	73.5620000362
1140.0	0.0006228	73.6089999676
1140.0	0.0006225	73.6560001373
1140.0	0.0006228	73.6870000362
1140.0	0.0006225	73.7339999676
1140.0	0.0006225	73.7810001373
1140.0	0.0006225	73.8120000362
1140.0	0.0006218	73.8589999676
1140.0	0.0006213	73.8900001049
1140.0	0.0006213	73.9370000362
1140.0	0.0006205	73.9839999676
1150.0	0.0006183	74.25
1150.0	0.000618	74.2810001373
1150.0	0.0006175	74.3280000687
1150.0	0.000617	74.375
1150.0	0.0006168	74.4219999313
1150.0	0.0006165	74.4530000687
1150.0	0.0006163	74.5
1150.0	0.0006163	74.5310001373
1150.0	0.0006163	74.5780000687
1150.0	0.0006163	74.625
1150.0	0.0006158	74.6560001373
1150.0	0.0006163	74.7030000687
1150.0	0.0006155	74.75
1150.0	0.0006158	74.7810001373
1150.0	0.0006158	74.8280000687
1150.0	0.0006163	74.8589999676
1150.0	0.0006163	74.9060001373
1150.0	0.0006163	74.9530000687
1150.0	0.0006165	74.9839999676
1150.0	0.0006168	75.0310001373
1150.0	0.0006168	75.0780000687
1150.0	0.0006175	75.1089999676
1150.0	0.0006178	75.1560001373
1150.0	0.0006178	75.2030000687
1150.0	0.0006168	75.2339999676
1150.0	0.0006168	75.2810001373
1150.0	0.000617	75.3120000362
1150.0	0.0006168	75.3589999676
1150.0	0.0006168	75.4060001373
1150.0	0.0006168	75.4370000362
1150.0	0.0006168	75.4839999676
1150.0	0.0006168	75.5310001373
1150.0	0.0006168	75.5620000362
1150.0	0.000617	75.6089999676
1150.0	0.000617	75.6400001049
1150.0	0.000617	75.6870000362
1150.0	0.000617	75.7339999676
1160.0	0.0006155	76.0
1160.0	0.0006153	76.0310001373
1160.0	0.0006145	76.0780000687
1160.0	0.000614	76.125
1160.0	0.0006138	76.1560001373
1160.0	0.0006138	76.2030000687
1160.0	0.0006133	76.25
1160.0	0.0006128	76.2810001373
1160.0	0.0006128	76.3280000687
1160.0	0.0006125	76.3589999676
1160.0	0.0006128	76.4060001373
1160.0	0.0006128	76.4530000687
1160.0	0.000613	76.4839999676
1160.0	0.000613	76.5310001373
1160.0	0.0006133	76.5780000687
1160.0	0.0006138	76.6089999676
1160.0	0.0006133	76.6560001373
1160.0	0.000614	76.6870000362
1160.0	0.0006145	76.7339999676
1160.0	0.000615	76.7810001373
1160.0	0.000615	76.8120000362
1160.0	0.000615	76.8589999676
1160.0	0.000615	76.9060001373
1160.0	0.0006153	76.9370000362
1160.0	0.000615	76.9839999676
1160.0	0.0006145	77.0310001373
1160.0	0.0006138	77.0620000362
1160.0	0.000613	77.1089999676
1160.0	0.000613	77.1400001049
1160.0	0.000613	77.1870000362
1160.0	0.0006133	77.2339999676
1160.0	0.0006133	77.2650001049
1160.0	0.0006138	77.3120000362
1160.0	0.000613	77.3589999676
1160.0	0.0006125	77.3900001049
1160.0	0.0006118	77.4370000362
1160.0	0.0006118	77.4679999352
1170.0	0.0006113	77.75
1170.0	0.0006108	77.7810001373
1170.0	0.0006108	77.8280000687
1170.0	0.00061	77.875
1170.0	0.0006093	77.9060001373
1170.0	0.0006095	77.9530000687
1170.0	0.00061	78.0
1170.0	0.0006108	78.0310001373
1170.0	0.0006113	78.0780000687
1170.0	0.0006108	78.1089999676
1170.0	0.0006105	78.1560001373
1170.0	0.0006108	78.2030000687
1170.0	0.0006113	78.2339999676
1170.0	0.0006113	78.2810001373
1170.0	0.0006113	78.3280000687
1170.0	0.0006113	78.3589999676
1170.0	0.0006113	78.4060001373
1170.0	0.0006108	78.4370000362
1170.0	0.0006108	78.4839999676
1170.0	0.0006113	78.5310001373
1170.0	0.0006113	78.5620000362
1170.0	0.0006115	78.6089999676
1170.0	0.0006118	78.6560001373
1170.0	0.000612	78.6870000362
1170.0	0.000612	78.7339999676
1170.0	0.0006125	78.7650001049
1170.0	0.0006118	78.8120000362
1170.0	0.0006113	78.8589999676
1170.0	0.0006113	78.8900001049
1170.0	0.0006113	78.9370000362
1170.0	0.0006118	78.9839999676
1170.0	0.0006125	79.0150001049
1170.0	0.0006125	79.0620000362
1170.0	0.0006118	79.1089999676
1170.0	0.0006115	79.1400001049
1170.0	0.0006113	79.1870000362
1170.0	0.0006103	79.2179999352
1180.0	0.0006113	79.5
1180.0	0.0006113	79.5310001373
1180.0	0.0006113	79.5780000687
1180.0	0.0006115	79.625
1180.0	0.0006125	79.6719999313
1180.0	0.0006125	79.7030000687
1180.0	0.0006125	79.75
1180.0	0.000612	79.7810001373
1180.0	0.0006118	79.8280000687
1180.0	0.000612	79.875
1180.0	0.0006125	79.9060001373
1180.0	0.0006125	79.9530000687
1180.0	0.0006128	80.0
1180.0	0.000613	80.0310001373
1180.0	0.000613	80.0780000687
1180.0	0.000613	80.1089999676
1180.0	0.0006128	80.1560001373
1180.0	0.0006125	80.2030000687
1180.0	0.0006125	80.2339999676
1180.0	0.0006118	80.2810001373
1180.0	0.000612	80.3280000687
1180.0	0.0006128	80.3589999676
1180.0	0.0006133	80.4060001373
1180.0	0.0006128	80.4370000362
1180.0	0.0006125	80.4839999676
1180.0	0.000612	80.5310001373
1180.0	0.0006118	80.5620000362
1180.0	0.0006118	80.6089999676
1180.0	0.000612	80.6560001373
1180.0	0.0006125	80.6870000362
1180.0	0.000613	80.7339999676
1180.0	0.0006133	80.7650001049
1180.0	0.0006138	80.8120000362
1180.0	0.0006133	80.8589999676
1180.0	0.000613	80.8900001049
1180.0	0.000613	80.9370000362
1180.0	0.0006128	80.9839999676
1190.0	0.0006125	81.25
1190.0	0.0006128	81.2969999313
1190.0	0.0006128	81.3280000687
1190.0	0.000613	81.375
1190.0	0.0006128	81.4060001373
1190.0	0.0006133	81.4530000687
1190.0	0.0006133	81.5
1190.0	0.0006138	81.5310001373
1190.0	0.0006138	81.5780000687
1190.0	0.0006143	81.625
1190.0	0.0006145	81.6719999313
1190.0	0.0006143	81.7030000687
1190.0	0.0006145	81.75
1190.0	0.0006143	81.7810001373
1190.0	0.0006143	81.8280000687
1190.0	0.000615	81.875
1190.0	0.0006163	81.9060001373
1190.0	0.0006165	81.9530000687
1190.0	0.0006168	82.0
1190.0	0.0006165	82.0310001373
1190.0	0.0006155	82.0780000687
1190.0	0.0006143	82.1089999676
1190.0	0.0006143	82.1560001373
1190.0	0.0006143	82.2030000687
1190.0	0.0006145	82.2339999676
1190.0	0.000615	82.2810001373
1190.0	0.0006153	82.3280000687
1190.0	0.0006153	82.3589999676
1190.0	0.000615	82.4060001373
1190.0	0.000615	82.4530000687
1190.0	0.0006145	82.4839999676
1190.0	0.0006143	82.5310001373
1190.0	0.0006145	82.5620000362
1190.0	0.0006145	82.6089999676
1190.0	0.0006145	82.6560001373
1190.0	0.0006145	82.6870000362
1190.0	0.0006143	82.7339999676
1200.0	0.0006183	83.0
1200.0	0.0006188	83.0469999313
1200.0	0.000619	83.0780000687
1200.0	0.0006195	83.125
1200.0	0.0006203	83.1719999313
1200.0	0.00062	83.2030000687
1200.0	0.00062	83.25
1200.0	0.0006203	83.2969999313
1200.0	0.0006208	83.3280000687
1200.0	0.0006208	83.375
1200.0	0.0006208	83.4219999313
1200.0	0.0006205	83.4530000687
1200.0	0.0006213	83.5
1200.0	0.0006218	83.5469999313
1200.0	0.0006215	83.5929999352
1200.0	0.0006218	83.625
1200.0	0.000622	83.6719999313
1200.0	0.0006218	83.7030000687
1200.0	0.000622	83.75
1200.0	0.0006225	83.7969999313
1200.0	0.0006225	83.8280000687
1200.0	0.0006228	83.875
1200.0	0.0006228	83.9219999313
1200.0	0.0006228	83.9530000687
1200.0	0.0006228	84.0
1200.0	0.0006233	84.0310001373
1200.0	0.0006233	84.0780000687
1200.0	0.000623	84.125
1200.0	0.000623	84.1560001373
1200.0	0.0006225	84.2030000687
1200.0	0.0006218	84.25
1200.0	0.0006215	84.2810001373
1200.0	0.0006218	84.3280000687
1200.0	0.0006218	84.375
1200.0	0.0006213	84.4060001373
1200.0	0.0006215	84.4530000687
1200.0	0.0006213	84.4839999676
1210.0	0.000625	84.7650001049
1210.0	0.0006253	84.7969999313
1210.0	0.000625	84.8429999352
1210.0	0.0006263	84.8900001049
1210.0	0.0006268	84.9219999313
1210.0	0.000627	84.9679999352
1210.0	0.0006278	85.0
1210.0	0.0006283	85.0469999313
1210.0	0.0006288	85.0929999352
1210.0	0.0006288	85.125
1210.0	0.0006288	85.1719999313
1210.0	0.000629	85.2179999352
1210.0	0.0006288	85.25
1210.0	0.0006283	85.2969999313
1210.0	0.0006283	85.3429999352
1210.0	0.0006283	85.375
1210.0	0.0006283	85.4219999313
1210.0	0.0006283	85.4530000687
1210.0	0.000628	85.5
1210.0	0.0006283	85.5469999313
1210.0	0.000628	85.5780000687
1210.0	0.000628	85.625
1210.0	0.0006283	85.6719999313
1210.0	0.000628	85.7030000687
1210.0	0.0006283	85.75
1210.0	0.000628	85.7810001373
1210.0	0.000629	85.8280000687
1210.0	0.000629	85.875
1210.0	0.000629	85.9060001373
1210.0	0.000629	85.9530000687
1210.0	0.0006288	86.0
1210.0	0.000629	86.0310001373
1210.0	0.000629	86.0780000687
1210.0	0.000629	86.1089999676
1210.0	0.000629	86.1560001373
1210.0	0.0006288	86.2030000687
1210.0	0.000629	86.2339999676
1220.0	0.0006343	86.5
1220.0	0.0006355	86.5469999313
1220.0	0.0006365	86.5929999352
1220.0	0.0006368	86.6400001049
1220.0	0.0006375	86.6719999313
1220.0	0.000638	86.7179999352
1220.0	0.0006388	86.75
1220.0	0.0006393	86.7969999313
1220.0	0.0006395	86.8429999352
1220.0	0.0006393	86.875
1220.0	0.0006395	86.9219999313
1220.0	0.0006395	86.9679999352
1220.0	0.0006393	87.0
1220.0	0.0006393	87.0469999313
1220.0	0.000639	87.0929999352
1220.0	0.0006388	87.125
1220.0	0.0006388	87.1719999313
1220.0	0.0006388	87.2179999352
1220.0	0.0006375	87.25
1220.0	0.0006365	87.2969999313
1220.0	0.0006365	87.3429999352
1220.0	0.000637	87.375
1220.0	0.0006378	87.4219999313
1220.0	0.0006378	87.4530000687
1220.0	0.0006378	87.5
1220.0	0.000638	87.5469999313
1220.0	0.0006383	87.5929999352
1220.0	0.000638	87.625
1220.0	0.0006378	87.6719999313
1220.0	0.0006388	87.7030000687
1220.0	0.000639	87.75
1220.0	0.000639	87.7969999313
1220.0	0.0006393	87.8280000687
1220.0	0.0006393	87.875
1220.0	0.0006388	87.9219999313
1220.0	0.0006383	88.0310001373
1230.0	0.00064	88.2969999313
1230.0	0.0006418	88.3280000687
1230.0	0.0006428	88.375
1230.0	0.0006435	88.4219999313
1230.0	0.000644	88.4530000687
1230.0	0.0006448	88.5
1230.0	0.0006455	88.5469999313
1230.0	0.0006465	88.5780000687
1230.0	0.0006468	88.625
1230.0	0.0006473	88.6560001373
1230.0	0.0006473	88.7030000687
1230.0	0.0006475	88.75
1230.0	0.0006473	88.7810001373
1230.0	0.0006478	88.8280000687
1230.0	0.000649	88.875
1230.0	0.000649	88.9060001373
1230.0	0.0006488	88.9530000687
1230.0	0.0006488	88.9839999676
1230.0	0.0006493	89.0310001373
1230.0	0.0006493	89.0780000687
1230.0	0.0006498	89.1089999676
1230.0	0.0006503	89.1560001373
1230.0	0.0006503	89.2030000687
1230.0	0.0006503	89.2339999676
1230.0	0.000651	89.2810001373
1230.0	0.000651	89.3120000362
1230.0	0.0006505	89.3589999676
1230.0	0.0006503	89.4060001373
1230.0	0.0006505	89.4370000362
1230.0	0.000651	89.4839999676
1230.0	0.0006515	89.5310001373
1230.0	0.0006515	89.5620000362
1230.0	0.000651	89.6089999676
1230.0	0.0006505	89.6560001373
1230.0	0.0006503	89.6870000362
1230.0	0.00065	89.7339999676
1230.0	0.0006498	89.7650001049
1240.0	0.0006548	90.0310001373
1240.0	0.0006563	90.0780000687
1240.0	0.0006575	90.125
1240.0	0.0006585	90.1560001373
1240.0	0.0006588	90.2030000687
1240.0	0.0006598	90.25
1240.0	0.0006603	90.2810001373
1240.0	0.000661	90.3280000687
1240.0	0.0006605	90.375
1240.0	0.000661	90.4060001373
1240.0	0.0006605	90.4530000687
1240.0	0.0006603	90.4839999676
1240.0	0.0006613	90.5310001373
1240.0	0.0006615	90.5780000687
1240.0	0.0006615	90.6089999676
1240.0	0.0006623	90.6560001373
1240.0	0.0006628	90.7030000687
1240.0	0.0006628	90.7339999676
1240.0	0.0006625	90.7810001373
1240.0	0.0006625	90.8120000362
1240.0	0.0006623	90.8589999676
1240.0	0.0006618	90.9060001373
1240.0	0.0006613	90.9530000687
1240.0	0.0006605	90.9839999676
1240.0	0.0006605	91.0310001373
1240.0	0.0006603	91.0620000362
1240.0	0.00066	91.1089999676
1240.0	0.0006605	91.1560001373
1240.0	0.000661	91.1870000362
1240.0	0.0006613	91.2339999676
1240.0	0.0006615	91.2810001373
1240.0	0.0006623	91.3120000362
1240.0	0.000663	91.3589999676
1240.0	0.000663	91.4060001373
1240.0	0.0006625	91.4370000362
1240.0	0.0006615	91.4839999676
1240.0	0.000661	91.5150001049
1250.0	0.000665	91.7810001373
1250.0	0.0006665	91.8280000687
1250.0	0.0006685	91.875
1250.0	0.0006693	91.9060001373
1250.0	0.00067	91.9530000687
1250.0	0.00067	92.0
1250.0	0.0006703	92.0310001373
1250.0	0.000671	92.0780000687
1250.0	0.0006713	92.125
1250.0	0.0006718	92.1560001373
1250.0	0.0006725	92.2030000687
1250.0	0.0006728	92.2339999676
1250.0	0.0006728	92.2810001373
1250.0	0.0006725	92.3280000687
1250.0	0.0006723	92.375
1250.0	0.0006718	92.4060001373
1250.0	0.0006713	92.4530000687
1250.0	0.000671	92.4839999676
1250.0	0.000671	92.5310001373
1250.0	0.0006715	92.5780000687
1250.0	0.0006713	92.6089999676
1250.0	0.0006713	92.6560001373
1250.0	0.0006713	92.7030000687
1250.0	0.0006703	92.7339999676
1250.0	0.0006698	92.7810001373
1250.0	0.0006703	92.8280000687
1250.0	0.0006705	92.8589999676
1250.0	0.000671	92.9060001373
1250.0	0.0006715	92.9530000687
1250.0	0.0006718	92.9839999676
1250.0	0.0006718	93.0310001373
1250.0	0.0006725	93.0780000687
1250.0	0.000673	93.1089999676
1250.0	0.0006728	93.1560001373
1250.0	0.0006723	93.1870000362
1250.0	0.0006723	93.2339999676
1250.0	0.0006718	93.2810001373
1260.0	0.0006753	93.5469999313
1260.0	0.0006765	93.5780000687
1260.0	0.0006773	93.625
1260.0	0.0006778	93.6719999313
1260.0	0.0006785	93.7030000687
1260.0	0.000679	93.75
1260.0	0.0006793	93.7969999313
1260.0	0.00068	93.8280000687
1260.0	0.000681	93.875
1260.0	0.0006818	93.9060001373
1260.0	0.0006823	93.9530000687
1260.0	0.0006823	94.0
1260.0	0.0006815	94.0310001373
1260.0	0.0006825	94.0780000687
1260.0	0.0006828	94.125
1260.0	0.0006823	94.1560001373
1260.0	0.0006818	94.2030000687
1260.0	0.0006815	94.2339999676
1260.0	0.000681	94.2810001373
1260.0	0.000681	94.3280000687
1260.0	0.000681	94.375
1260.0	0.000681	94.4060001373
1260.0	0.000681	94.4530000687
1260.0	0.0006803	94.4839999676
1260.0	0.00068	94.5310001373
1260.0	0.0006793	94.5780000687
1260.0	0.000679	94.6089999676
1260.0	0.000679	94.6560001373
1260.0	0.000679	94.7030000687
1260.0	0.0006798	94.7339999676
1260.0	0.00068	94.7810001373
1260.0	0.0006798	94.8120000362
1260.0	0.0006803	94.8589999676
1260.0	0.00068	94.9060001373
1260.0	0.00068	94.9370000362
1260.0	0.0006803	94.9839999676
1260.0	0.0006805	95.0310001373
1270.0	0.0006823	95.2969999313
1270.0	0.0006835	95.3280000687
1270.0	0.0006843	95.375
1270.0	0.0006848	95.4219999313
1270.0	0.000685	95.4530000687
1270.0	0.0006853	95.5
1270.0	0.0006853	95.5310001373
1270.0	0.000686	95.5780000687
1270.0	0.0006863	95.625
1270.0	0.000686	95.6560001373
1270.0	0.000686	95.7030000687
1270.0	0.000686	95.75
1270.0	0.0006863	95.7810001373
1270.0	0.0006863	95.8280000687
1270.0	0.0006868	95.875
1270.0	0.0006873	95.9060001373
1270.0	0.0006873	95.9530000687
1270.0	0.0006873	96.0
1270.0	0.0006873	96.0310001373
1270.0	0.0006878	96.0780000687
1270.0	0.0006888	96.125
1270.0	0.0006885	96.1560001373
1270.0	0.0006885	96.2030000687
1270.0	0.000688	96.25
1270.0	0.000688	96.2810001373
1270.0	0.000688	96.3280000687
1270.0	0.000689	96.375
1270.0	0.000689	96.4060001373
1270.0	0.000688	96.4530000687
1270.0	0.0006875	96.4839999676
1270.0	0.0006873	96.5310001373
1270.0	0.0006868	96.5780000687
1270.0	0.0006868	96.6089999676
1270.0	0.0006868	96.6560001373
1270.0	0.0006868	96.7030000687
1270.0	0.0006865	96.7339999676
1270.0	0.0006868	96.7810001373
1280.0	0.0006903	97.0469999313
1280.0	0.0006913	97.0929999352
1280.0	0.0006913	97.125
1280.0	0.000691	97.1719999313
1280.0	0.000691	97.2179999352
1280.0	0.0006913	97.25
1280.0	0.000691	97.2969999313
1280.0	0.0006913	97.3429999352
1280.0	0.0006913	97.375
1280.0	0.000691	97.4219999313
1280.0	0.000691	97.4530000687
1280.0	0.000691	97.5
1280.0	0.0006905	97.5469999313
1280.0	0.0006903	97.5780000687
1280.0	0.0006905	97.625
1280.0	0.0006905	97.6719999313
1280.0	0.000691	97.7179999352
1280.0	0.0006913	97.75
1280.0	0.000691	97.7969999313
1280.0	0.000691	97.8280000687
1280.0	0.0006913	97.875
1280.0	0.0006913	97.9219999313
1280.0	0.0006913	97.9679999352
1280.0	0.0006913	98.0
1280.0	0.000691	98.0469999313
1280.0	0.0006903	98.0780000687
1280.0	0.0006903	98.125
1280.0	0.0006903	98.1719999313
1280.0	0.0006905	98.2030000687
1280.0	0.0006913	98.25
1280.0	0.0006915	98.2969999313
1280.0	0.0006915	98.3280000687
1280.0	0.0006918	98.375
1280.0	0.0006918	98.4060001373
1280.0	0.0006913	98.4530000687
1280.0	0.0006915	98.5
1290.0	0.0006918	98.7650001049
1290.0	0.0006915	98.7969999313
1290.0	0.0006923	98.8429999352
1290.0	0.0006928	98.8900001049
1290.0	0.0006925	98.9219999313
1290.0	0.0006923	98.9679999352
1290.0	0.0006923	99.0150001049
1290.0	0.0006915	99.0469999313
1290.0	0.0006915	99.0929999352
1290.0	0.0006923	99.125
1290.0	0.0006915	99.1719999313
1290.0	0.0006913	99.2179999352
1290.0	0.0006915	99.25
1290.0	0.0006918	99.2969999313
1290.0	0.0006913	99.3429999352
1290.0	0.0006918	99.375
1290.0	0.0006923	99.4219999313
1290.0	0.0006915	99.4530000687
1290.0	0.0006913	99.5
1290.0	0.0006913	99.5469999313
1290.0	0.000691	99.5780000687
1290.0	0.0006903	99.625
1290.0	0.0006903	99.6719999313
1290.0	0.0006898	99.7030000687
1290.0	0.000689	99.75
1290.0	0.000689	99.7969999313
1290.0	0.0006893	99.8280000687
1290.0	0.0006893	99.875
1290.0	0.0006898	99.9060001373
1290.0	0.0006903	99.9530000687
1290.0	0.000691	100.0
1290.0	0.0006915	100.031000137
1290.0	0.0006925	100.078000069
1290.0	0.0006925	100.125
1290.0	0.0006923	100.156000137
1290.0	0.0006923	100.203000069
1290.0	0.0006918	100.25
1300.0	0.000689	100.515000105
1300.0	0.0006875	100.546999931
1300.0	0.0006873	100.592999935
1300.0	0.0006873	100.640000105
1300.0	0.0006865	100.671999931
1300.0	0.000686	100.717999935
1300.0	0.000686	100.765000105
1300.0	0.0006865	100.796999931
1300.0	0.0006865	100.842999935
1300.0	0.0006863	100.875
1300.0	0.000686	100.921999931
1300.0	0.0006855	100.967999935
1300.0	0.000686	101.0
1300.0	0.0006863	101.046999931
1300.0	0.000686	101.092999935
1300.0	0.000686	101.125
1300.0	0.000686	101.171999931
1300.0	0.0006853	101.203000069
1300.0	0.0006853	101.25
1300.0	0.0006863	101.296999931
1300.0	0.0006865	101.328000069
1300.0	0.0006863	101.375
1300.0	0.000686	101.421999931
1300.0	0.000686	101.453000069
1300.0	0.0006853	101.5
1300.0	0.000686	101.546999931
1300.0	0.0006863	101.578000069
1300.0	0.0006863	101.625
1300.0	0.000686	101.656000137
1300.0	0.0006865	101.703000069
1300.0	0.0006868	101.75
1300.0	0.0006863	101.781000137
1300.0	0.000686	101.828000069
1300.0	0.0006855	101.875
1300.0	0.000685	101.906000137
1300.0	0.000685	101.953000069
1300.0	0.0006848	101.983999968
1310.0	0.00068	102.265000105
1310.0	0.0006788	102.296999931
1310.0	0.0006773	102.342999935
1310.0	0.0006755	102.390000105
1310.0	0.000674	102.437000036
1310.0	0.0006728	102.467999935
1310.0	0.0006718	102.515000105
1310.0	0.0006715	102.546999931
1310.0	0.000671	102.592999935
1310.0	0.0006715	102.640000105
1310.0	0.0006718	102.671999931
1310.0	0.0006715	102.717999935
1310.0	0.000671	102.765000105
1310.0	0.000671	102.796999931
1310.0	0.0006703	102.842999935
1310.0	0.00067	102.890000105
1310.0	0.00067	102.921999931
1310.0	0.00067	102.967999935
1310.0	0.0006703	103.015000105
1310.0	0.0006703	103.046999931
1310.0	0.0006703	103.092999935
1310.0	0.0006703	103.125
1310.0	0.00067	103.171999931
1310.0	0.0006703	103.217999935
1310.0	0.0006703	103.25
1310.0	0.000671	103.296999931
1310.0	0.0006715	103.342999935
1310.0	0.0006713	103.390000105
1310.0	0.0006718	103.421999931
1310.0	0.0006725	103.467999935
1310.0	0.0006723	103.5
1310.0	0.0006718	103.546999931
1310.0	0.0006715	103.592999935
1310.0	0.0006713	103.625
1310.0	0.0006713	103.671999931
1310.0	0.0006713	103.717999935
1320.0	0.0006638	103.983999968
1320.0	0.0006613	104.031000137
1320.0	0.0006588	104.062000036
1320.0	0.0006565	104.108999968
1320.0	0.000655	104.140000105
1320.0	0.000654	104.187000036
1320.0	0.0006525	104.233999968
1320.0	0.0006523	104.281000137
1320.0	0.0006523	104.312000036
1320.0	0.0006518	104.358999968
1320.0	0.0006518	104.390000105
1320.0	0.0006518	104.437000036
1320.0	0.0006513	104.483999968
1320.0	0.0006513	104.531000137
1320.0	0.0006505	104.562000036
1320.0	0.0006498	104.608999968
1320.0	0.0006498	104.656000137
1320.0	0.0006493	104.687000036
1320.0	0.000649	104.733999968
1320.0	0.0006488	104.765000105
1320.0	0.000649	104.812000036
1320.0	0.0006493	104.858999968
1320.0	0.000649	104.890000105
1320.0	0.000649	104.937000036
1320.0	0.0006488	104.983999968
1320.0	0.0006485	105.015000105
1320.0	0.000648	105.062000036
1320.0	0.0006475	105.092999935
1320.0	0.0006473	105.140000105
1320.0	0.000648	105.187000036
1320.0	0.000649	105.217999935
1320.0	0.0006498	105.265000105
1320.0	0.0006498	105.312000036
1320.0	0.0006498	105.342999935
1320.0	0.0006493	105.390000105
1320.0	0.0006493	105.421999931
1320.0	0.00065	105.467999935
1330.0	0.0006383	105.733999968
1330.0	0.000634	105.781000137
1330.0	0.0006305	105.828000069
1330.0	0.0006275	105.858999968
1330.0	0.0006255	105.906000137
1330.0	0.000624	105.953000069
1330.0	0.000623	105.983999968
1330.0	0.000622	106.031000137
1330.0	0.0006208	106.078000069
1330.0	0.00062	106.108999968
1330.0	0.00062	106.156000137
1330.0	0.0006193	106.203000069
1330.0	0.0006193	106.233999968
1330.0	0.0006193	106.281000137
1330.0	0.0006193	106.328000069
1330.0	0.0006195	106.358999968
1330.0	0.00062	106.406000137
1330.0	0.00062	106.453000069
1330.0	0.00062	106.483999968
1330.0	0.00062	106.531000137
1330.0	0.0006193	106.578000069
1330.0	0.0006188	106.608999968
1330.0	0.0006188	106.656000137
1330.0	0.0006193	106.687000036
1330.0	0.000619	106.733999968
1330.0	0.000619	106.781000137
1330.0	0.0006188	106.812000036
1330.0	0.0006183	106.858999968
1330.0	0.000618	106.906000137
1330.0	0.000618	106.937000036
1330.0	0.0006175	106.983999968
1330.0	0.0006178	107.031000137
1330.0	0.0006183	107.062000036
1330.0	0.0006188	107.108999968
1330.0	0.0006188	107.156000137
1330.0	0.0006195	107.187000036
1330.0	0.0006205	107.233999968
1340.0	0.0006055	107.5
1340.0	0.0006005	107.546999931
1340.0	0.0005958	107.578000069
1340.0	0.0005925	107.625
1340.0	0.0005893	107.671999931
1340.0	0.0005868	107.703000069
1340.0	0.0005853	107.75
1340.0	0.000584	107.796999931
1340.0	0.000583	107.828000069
1340.0	0.0005818	107.875
1340.0	0.0005815	107.906000137
1340.0	0.0005813	107.953000069
1340.0	0.0005808	108.0
1340.0	0.0005813	108.031000137
1340.0	0.0005808	108.078000069
1340.0	0.0005805	108.125
1340.0	0.0005805	108.156000137
1340.0	0.00058	108.203000069
1340.0	0.0005793	108.25
1340.0	0.0005793	108.281000137
1340.0	0.0005795	108.328000069
1340.0	0.0005793	108.358999968
1340.0	0.0005793	108.406000137
1340.0	0.00058	108.453000069
1340.0	0.0005793	108.483999968
1340.0	0.0005795	108.531000137
1340.0	0.0005803	108.578000069
1340.0	0.0005805	108.608999968
1340.0	0.0005803	108.656000137
1340.0	0.00058	108.687000036
1340.0	0.0005803	108.733999968
1340.0	0.0005815	108.781000137
1340.0	0.0005825	108.812000036
1340.0	0.0005825	108.858999968
1340.0	0.000582	108.906000137
1340.0	0.0005818	108.937000036
1340.0	0.0005815	108.983999968
1350.0	0.0005668	109.25
1350.0	0.0005615	109.296999931
1350.0	0.000557	109.328000069
1350.0	0.000553	109.375
1350.0	0.0005503	109.406000137
1350.0	0.000548	109.453000069
1350.0	0.0005458	109.5
1350.0	0.0005445	109.546999931
1350.0	0.0005438	109.578000069
1350.0	0.0005425	109.625
1350.0	0.000542	109.656000137
1350.0	0.0005418	109.703000069
1350.0	0.0005415	109.75
1350.0	0.0005418	109.796999931
1350.0	0.0005415	109.828000069
1350.0	0.0005408	109.875
1350.0	0.0005403	109.906000137
1350.0	0.0005395	109.953000069
1350.0	0.0005395	110.0
1350.0	0.00054	110.031000137
1350.0	0.0005403	110.078000069
1350.0	0.00054	110.125
1350.0	0.0005405	110.156000137
1350.0	0.0005415	110.203000069
1350.0	0.0005418	110.25
1350.0	0.0005415	110.281000137
1350.0	0.0005415	110.328000069
1350.0	0.0005415	110.358999968
1350.0	0.0005415	110.406000137
1350.0	0.0005418	110.453000069
1350.0	0.0005428	110.483999968
1350.0	0.000543	110.531000137
1350.0	0.0005425	110.578000069
1350.0	0.000542	110.608999968
1350.0	0.0005415	110.656000137
1350.0	0.0005408	110.687000036
1350.0	0.0005408	110.733999968
1360.0	0.0005243	111.0
1360.0	0.0005188	111.046999931
1360.0	0.0005143	111.078000069
1360.0	0.0005103	111.125
1360.0	0.000507	111.171999931
1360.0	0.0005053	111.203000069
1360.0	0.000504	111.25
1360.0	0.0005025	111.296999931
1360.0	0.000502	111.328000069
1360.0	0.0005018	111.375
1360.0	0.0005013	111.421999931
1360.0	0.0005008	111.453000069
1360.0	0.0005005	111.5
1360.0	0.0005003	111.546999931
1360.0	0.0005003	111.578000069
1360.0	0.0005008	111.625
1360.0	0.0005005	111.656000137
1360.0	0.0004995	111.703000069
1360.0	0.0004983	111.75
1360.0	0.0004975	111.781000137
1360.0	0.0004968	111.828000069
1360.0	0.0004968	111.875
1360.0	0.0004968	111.906000137
1360.0	0.000498	111.953000069
1360.0	0.000499	112.0
1360.0	0.0004993	112.031000137
1360.0	0.000499	112.078000069
1360.0	0.000499	112.108999968
1360.0	0.000499	112.156000137
1360.0	0.0004993	112.203000069
1360.0	0.0005	112.233999968
1360.0	0.0005	112.281000137
1360.0	0.0004995	112.328000069
1360.0	0.0005	112.358999968
1360.0	0.0005005	112.406000137
1360.0	0.0005013	112.437000036
1360.0	0.0005013	112.483999968
1370.0	0.0004843	112.75
1370.0	0.0004788	112.796999931
1370.0	0.0004743	112.828000069
1370.0	0.0004705	112.875
1370.0	0.0004683	112.921999931
1370.0	0.0004668	112.953000069
1370.0	0.0004655	113.0
1370.0	0.0004645	113.046999931
1370.0	0.000464	113.078000069
1370.0	0.000463	113.125
1370.0	0.0004625	113.156000137
1370.0	0.0004618	113.203000069
1370.0	0.0004613	113.25
1370.0	0.0004603	113.281000137
1370.0	0.0004595	113.328000069
1370.0	0.000459	113.375
1370.0	0.0004588	113.406000137
1370.0	0.0004588	113.453000069
1370.0	0.0004595	113.483999968
1370.0	0.0004605	113.531000137
1370.0	0.00046	113.578000069
1370.0	0.000459	113.608999968
1370.0	0.0004588	113.656000137
1370.0	0.0004588	113.703000069
1370.0	0.0004583	113.733999968
1370.0	0.000458	113.781000137
1370.0	0.0004575	113.812000036
1370.0	0.0004568	113.858999968
1370.0	0.000457	113.906000137
1370.0	0.0004578	113.937000036
1370.0	0.0004578	113.983999968
1370.0	0.0004583	114.031000137
1370.0	0.0004588	114.062000036
1370.0	0.0004588	114.108999968
1370.0	0.0004588	114.156000137
1370.0	0.000459	114.187000036
1370.0	0.000459	114.233999968
1380.0	0.0004478	114.5
1380.0	0.000444	114.531000137
1380.0	0.00044	114.578000069
1380.0	0.0004375	114.625
1380.0	0.0004365	114.656000137
1380.0	0.000435	114.703000069
1380.0	0.0004333	114.75
1380.0	0.0004328	114.781000137
1380.0	0.0004328	114.828000069
1380.0	0.0004325	114.875
1380.0	0.0004325	114.906000137
1380.0	0.0004325	114.953000069
1380.0	0.0004325	114.983999968
1380.0	0.0004328	115.031000137
1380.0	0.000432	115.078000069
1380.0	0.000432	115.108999968
1380.0	0.0004328	115.156000137
1380.0	0.0004333	115.203000069
1380.0	0.0004338	115.233999968
1380.0	0.000433	115.281000137
1380.0	0.0004328	115.312000036
1380.0	0.0004325	115.358999968
1380.0	0.0004325	115.406000137
1380.0	0.0004325	115.437000036
1380.0	0.000432	115.483999968
1380.0	0.0004318	115.531000137
1380.0	0.0004328	115.562000036
1380.0	0.000433	115.608999968
1380.0	0.0004325	115.640000105
1380.0	0.0004318	115.687000036
1380.0	0.0004315	115.733999968
1380.0	0.0004313	115.765000105
1380.0	0.0004313	115.812000036
1380.0	0.0004313	115.858999968
1380.0	0.0004308	115.906000137
1380.0	0.0004308	115.937000036
1380.0	0.0004313	115.983999968
1390.0	0.000423	116.25
1390.0	0.0004203	116.281000137
1390.0	0.0004175	116.328000069
1390.0	0.000415	116.375
1390.0	0.000413	116.406000137
1390.0	0.0004118	116.453000069
1390.0	0.0004105	116.5
1390.0	0.00041	116.531000137
1390.0	0.0004095	116.578000069
1390.0	0.000409	116.608999968
1390.0	0.0004093	116.656000137
1390.0	0.000409	116.703000069
1390.0	0.0004093	116.733999968
1390.0	0.0004093	116.781000137
1390.0	0.0004103	116.828000069
1390.0	0.0004108	116.858999968
1390.0	0.0004105	116.906000137
1390.0	0.0004105	116.953000069
1390.0	0.0004113	116.983999968
1390.0	0.0004118	117.031000137
1390.0	0.000412	117.078000069
1390.0	0.0004118	117.108999968
1390.0	0.0004115	117.156000137
1390.0	0.0004113	117.203000069
1390.0	0.0004113	117.233999968
1390.0	0.0004113	117.281000137
1390.0	0.0004113	117.312000036
1390.0	0.0004113	117.358999968
1390.0	0.0004105	117.406000137
1390.0	0.0004093	117.437000036
1390.0	0.0004088	117.483999968
1390.0	0.000408	117.531000137
1390.0	0.0004075	117.562000036
1390.0	0.0004078	117.608999968
1390.0	0.0004083	117.656000137
1390.0	0.0004093	117.703000069
1400.0	0.0004053	117.967999935
1400.0	0.000403	118.0
1400.0	0.0004018	118.046999931
1400.0	0.0004008	118.092999935
1400.0	0.0004005	118.125
1400.0	0.0004005	118.171999931
1400.0	0.0004	118.203000069
1400.0	0.000399	118.25
1400.0	0.0003983	118.296999931
1400.0	0.000398	118.328000069
1400.0	0.0003975	118.375
1400.0	0.0003978	118.421999931
1400.0	0.000398	118.453000069
1400.0	0.000398	118.5
1400.0	0.0003975	118.546999931
1400.0	0.0003975	118.578000069
1400.0	0.000397	118.625
1400.0	0.0003975	118.656000137
1400.0	0.0003975	118.703000069
1400.0	0.000397	118.75
1400.0	0.0003968	118.781000137
1400.0	0.000397	118.828000069
1400.0	0.000397	118.875
1400.0	0.000397	118.906000137
1400.0	0.0003968	118.953000069
1400.0	0.000397	119.0
1400.0	0.000397	119.031000137
1400.0	0.000397	119.078000069
1400.0	0.000397	119.125
1400.0	0.000397	119.156000137
1400.0	0.000397	119.203000069
1400.0	0.000397	119.233999968
1400.0	0.000397	119.281000137
1400.0	0.000397	119.328000069
1400.0	0.0003975	119.358999968
1400.0	0.0003968	119.406000137
1400.0	0.0003963	119.453000069
1410.0	0.0003933	119.717999935
1410.0	0.000392	119.75
1410.0	0.0003908	119.796999931
1410.0	0.0003908	119.842999935
1410.0	0.0003913	119.875
1410.0	0.0003913	119.921999931
1410.0	0.0003915	119.953000069
1410.0	0.0003913	120.0
1410.0	0.0003905	120.046999931
1410.0	0.0003905	120.078000069
1410.0	0.0003903	120.125
1410.0	0.00039	120.171999931
1410.0	0.00039	120.203000069
1410.0	0.00039	120.25
1410.0	0.0003893	120.296999931
1410.0	0.0003895	120.328000069
1410.0	0.00039	120.375
1410.0	0.0003893	120.406000137
1410.0	0.0003893	120.453000069
1410.0	0.00039	120.5
1410.0	0.0003903	120.531000137
1410.0	0.0003903	120.578000069
1410.0	0.0003908	120.625
1410.0	0.0003915	120.656000137
1410.0	0.0003915	120.703000069
1410.0	0.0003915	120.733999968
1410.0	0.0003915	120.781000137
1410.0	0.0003918	120.828000069
1410.0	0.0003915	120.858999968
1410.0	0.0003913	120.906000137
1410.0	0.0003905	120.953000069
1410.0	0.0003905	120.983999968
1410.0	0.0003905	121.031000137
1410.0	0.0003905	121.062000036
1410.0	0.0003905	121.108999968
1410.0	0.0003903	121.156000137
1410.0	0.00039	121.187000036
1420.0	0.00039	121.453000069
1420.0	0.00039	121.5
1420.0	0.0003903	121.546999931
1420.0	0.0003905	121.578000069
1420.0	0.0003918	121.625
1420.0	0.0003925	121.671999931
1420.0	0.0003925	121.703000069
1420.0	0.000392	121.75
1420.0	0.000392	121.781000137
1420.0	0.000392	121.828000069
1420.0	0.000392	121.875
1420.0	0.0003918	121.906000137
1420.0	0.0003913	121.953000069
1420.0	0.0003913	122.0
1420.0	0.0003915	122.031000137
1420.0	0.0003915	122.078000069
1420.0	0.0003913	122.108999968
1420.0	0.0003915	122.156000137
1420.0	0.0003913	122.203000069
1420.0	0.0003905	122.233999968
1420.0	0.0003905	122.281000137
1420.0	0.0003903	122.328000069
1420.0	0.0003903	122.358999968
1420.0	0.0003905	122.406000137
1420.0	0.0003908	122.453000069
1420.0	0.0003913	122.483999968
1420.0	0.0003918	122.531000137
1420.0	0.000392	122.578000069
1420.0	0.0003918	122.608999968
1420.0	0.000392	122.656000137
1420.0	0.0003918	122.703000069
1420.0	0.000392	122.733999968
1420.0	0.0003925	122.781000137
1420.0	0.000392	122.812000036
1420.0	0.0003915	122.858999968
1420.0	0.0003908	122.906000137
1420.0	0.0003915	122.937000036
1430.0	0.0003953	123.203000069
1430.0	0.0003968	123.25
1430.0	0.000398	123.296999931
1430.0	0.000398	123.328000069
1430.0	0.000398	123.375
1430.0	0.0003983	123.421999931
1430.0	0.0003988	123.453000069
1430.0	0.0003983	123.5
1430.0	0.0003988	123.531000137
1430.0	0.0003988	123.578000069
1430.0	0.000398	123.625
1430.0	0.0003978	123.671999931
1430.0	0.0003978	123.703000069
1430.0	0.000398	123.75
1430.0	0.0003988	123.781000137
1430.0	0.0003988	123.828000069
1430.0	0.0003988	123.875
1430.0	0.0003988	123.921999931
1430.0	0.000398	123.953000069
1430.0	0.0003978	124.0
1430.0	0.0003988	124.031000137
1430.0	0.000399	124.078000069
1430.0	0.000399	124.125
1430.0	0.0003988	124.156000137
1430.0	0.0003988	124.203000069
1430.0	0.0003988	124.25
1430.0	0.0003983	124.281000137
1430.0	0.0003983	124.328000069
1430.0	0.000398	124.375
1430.0	0.000398	124.406000137
1430.0	0.0003983	124.453000069
1430.0	0.000398	124.483999968
1430.0	0.0003975	124.531000137
1430.0	0.0003978	124.578000069
1430.0	0.0003975	124.608999968
1430.0	0.000397	124.656000137
1430.0	0.0003978	124.703000069
1440.0	0.0004003	124.967999935
1440.0	0.0004015	125.0
1440.0	0.0004025	125.046999931
1440.0	0.000403	125.092999935
1440.0	0.000404	125.125
1440.0	0.000405	125.171999931
1440.0	0.0004058	125.203000069
1440.0	0.0004068	125.25
1440.0	0.000407	125.296999931
1440.0	0.000407	125.328000069
1440.0	0.0004068	125.375
1440.0	0.0004068	125.421999931
1440.0	0.000407	125.453000069
1440.0	0.000407	125.5
1440.0	0.000407	125.531000137
1440.0	0.0004065	125.578000069
1440.0	0.0004068	125.625
1440.0	0.0004068	125.671999931
1440.0	0.0004075	125.703000069
1440.0	0.0004078	125.75
1440.0	0.0004075	125.781000137
1440.0	0.0004068	125.828000069
1440.0	0.0004063	125.875
1440.0	0.0004063	125.906000137
1440.0	0.0004065	125.953000069
1440.0	0.0004065	126.0
1440.0	0.0004063	126.031000137
1440.0	0.0004063	126.078000069
1440.0	0.0004058	126.108999968
1440.0	0.000405	126.156000137
1440.0	0.0004053	126.203000069
1440.0	0.0004055	126.25
1440.0	0.0004058	126.281000137
1440.0	0.0004063	126.328000069
1440.0	0.0004063	126.375
1440.0	0.0004065	126.406000137
1440.0	0.0004068	126.453000069
1450.0	0.0004093	126.717999935
1450.0	0.00041	126.75
1450.0	0.0004103	126.796999931
1450.0	0.0004118	126.842999935
1450.0	0.000413	126.875
1450.0	0.000414	126.921999931
1450.0	0.0004153	126.953000069
1450.0	0.0004153	127.0
1450.0	0.0004155	127.046999931
1450.0	0.0004158	127.078000069
1450.0	0.0004163	127.125
1450.0	0.0004168	127.171999931
1450.0	0.0004168	127.203000069
1450.0	0.000417	127.25
1450.0	0.0004175	127.281000137
1450.0	0.0004188	127.328000069
1450.0	0.0004195	127.375
1450.0	0.0004195	127.406000137
1450.0	0.0004193	127.453000069
1450.0	0.0004193	127.5
1450.0	0.000419	127.531000137
1450.0	0.000419	127.578000069
1450.0	0.000419	127.608999968
1450.0	0.0004188	127.656000137
1450.0	0.0004183	127.703000069
1450.0	0.000418	127.733999968
1450.0	0.000418	127.781000137
1450.0	0.0004178	127.828000069
1450.0	0.0004178	127.858999968
1450.0	0.0004178	127.906000137
1450.0	0.0004175	127.937000036
1450.0	0.0004175	127.983999968
1450.0	0.0004178	128.031000137
1450.0	0.000418	128.062000036
1450.0	0.000418	128.108999968
1450.0	0.000418	128.156000137
1450.0	0.0004178	128.187000036
1460.0	0.0004205	128.453000069
1460.0	0.0004218	128.5
1460.0	0.0004228	128.546999931
1460.0	0.0004233	128.578000069
1460.0	0.0004243	128.625
1460.0	0.0004243	128.656000137
1460.0	0.000425	128.703000069
1460.0	0.0004253	128.75
1460.0	0.000425	128.781000137
1460.0	0.000425	128.828000069
1460.0	0.000425	128.875
1460.0	0.0004245	128.906000137
1460.0	0.0004245	128.953000069
1460.0	0.0004255	128.983999968
1460.0	0.0004258	129.031000137
1460.0	0.0004263	129.078000069
1460.0	0.0004263	129.108999968
1460.0	0.0004263	129.156000137
1460.0	0.0004263	129.203000069
1460.0	0.0004265	129.233999968
1460.0	0.0004265	129.281000137
1460.0	0.0004263	129.328000069
1460.0	0.0004258	129.358999968
1460.0	0.0004263	129.406000137
1460.0	0.0004263	129.437000036
1460.0	0.0004265	129.483999968
1460.0	0.000427	129.531000137
1460.0	0.000427	129.578000069
1460.0	0.0004268	129.608999968
1460.0	0.0004268	129.656000137
1460.0	0.0004268	129.687000036
1460.0	0.0004265	129.733999968
1460.0	0.0004263	129.781000137
1460.0	0.0004268	129.812000036
1460.0	0.0004268	129.858999968
1460.0	0.0004268	129.906000137
1460.0	0.0004268	129.937000036
1470.0	0.0004265	130.203000069
1470.0	0.0004278	130.25
1470.0	0.0004288	130.296999931
1470.0	0.0004293	130.328000069
1470.0	0.0004305	130.375
1470.0	0.0004313	130.406000137
1470.0	0.0004305	130.453000069
1470.0	0.0004308	130.5
1470.0	0.0004313	130.531000137
1470.0	0.0004313	130.578000069
1470.0	0.0004313	130.625
1470.0	0.0004315	130.656000137
1470.0	0.0004318	130.703000069
1470.0	0.000432	130.733999968
1470.0	0.000432	130.781000137
1470.0	0.0004325	130.828000069
1470.0	0.0004328	130.858999968
1470.0	0.000433	130.906000137
1470.0	0.0004333	130.953000069
1470.0	0.000433	130.983999968
1470.0	0.0004333	131.031000137
1470.0	0.000433	131.078000069
1470.0	0.000433	131.108999968
1470.0	0.000433	131.156000137
1470.0	0.0004325	131.187000036
1470.0	0.0004318	131.233999968
1470.0	0.0004313	131.281000137
1470.0	0.0004308	131.312000036
1470.0	0.0004313	131.358999968
1470.0	0.0004308	131.406000137
1470.0	0.0004308	131.437000036
1470.0	0.0004308	131.483999968
1470.0	0.0004305	131.515000105
1470.0	0.0004308	131.562000036
1470.0	0.0004308	131.608999968
1470.0	0.0004305	131.640000105
1470.0	0.00043	131.687000036
1480.0	0.0004318	131.953000069
1480.0	0.000432	132.0
1480.0	0.000433	132.046999931
1480.0	0.0004338	132.078000069
1480.0	0.0004343	132.125
1480.0	0.000435	132.156000137
1480.0	0.0004353	132.203000069
1480.0	0.0004355	132.25
1480.0	0.0004363	132.281000137
1480.0	0.0004363	132.328000069
1480.0	0.0004363	132.375
1480.0	0.0004368	132.406000137
1480.0	0.000437	132.453000069
1480.0	0.000437	132.483999968
1480.0	0.000437	132.531000137
1480.0	0.0004378	132.578000069
1480.0	0.0004375	132.608999968
1480.0	0.000437	132.656000137
1480.0	0.0004375	132.703000069
1480.0	0.0004375	132.733999968
1480.0	0.0004365	132.781000137
1480.0	0.0004365	132.812000036
1480.0	0.0004368	132.858999968
1480.0	0.0004375	132.906000137
1480.0	0.0004378	132.937000036
1480.0	0.0004375	132.983999968
1480.0	0.000437	133.031000137
1480.0	0.0004365	133.062000036
1480.0	0.0004363	133.108999968
1480.0	0.0004365	133.156000137
1480.0	0.0004365	133.187000036
1480.0	0.0004365	133.233999968
1480.0	0.0004363	133.265000105
1480.0	0.0004358	133.312000036
1480.0	0.0004363	133.358999968
1480.0	0.0004363	133.390000105
1480.0	0.0004363	133.437000036
1490.0	0.0004388	133.703000069
1490.0	0.0004388	133.75
1490.0	0.0004388	133.796999931
1490.0	0.0004388	133.828000069
1490.0	0.0004388	133.875
1490.0	0.000439	133.906000137
1490.0	0.000439	133.953000069
1490.0	0.0004388	134.0
1490.0	0.0004388	134.031000137
1490.0	0.000439	134.078000069
1490.0	0.000439	134.125
1490.0	0.0004388	134.156000137
1490.0	0.0004388	134.203000069
1490.0	0.0004393	134.233999968
1490.0	0.0004393	134.281000137
1490.0	0.0004393	134.328000069
1490.0	0.0004395	134.358999968
1490.0	0.0004395	134.406000137
1490.0	0.0004393	134.453000069
1490.0	0.0004393	134.483999968
1490.0	0.000439	134.531000137
1490.0	0.000439	134.562000036
1490.0	0.0004393	134.608999968
1490.0	0.0004393	134.656000137
1490.0	0.0004393	134.687000036
1490.0	0.0004403	134.733999968
1490.0	0.0004405	134.781000137
1490.0	0.0004408	134.812000036
1490.0	0.0004413	134.858999968
1490.0	0.0004418	134.906000137
1490.0	0.0004415	134.937000036
1490.0	0.0004413	134.983999968
1490.0	0.0004413	135.015000105
1490.0	0.0004408	135.062000036
1490.0	0.0004405	135.108999968
1490.0	0.0004408	135.140000105
1490.0	0.0004405	135.187000036
1500.0	0.000442	135.453000069
1500.0	0.000442	135.5
1500.0	0.0004418	135.531000137
1500.0	0.000442	135.578000069
1500.0	0.0004425	135.625
1500.0	0.000442	135.656000137
1500.0	0.000442	135.703000069
1500.0	0.0004425	135.75
1500.0	0.0004425	135.781000137
1500.0	0.0004425	135.828000069
1500.0	0.0004425	135.875
1500.0	0.000442	135.906000137
1500.0	0.000442	135.953000069
1500.0	0.0004425	135.983999968
1500.0	0.000443	136.031000137
1500.0	0.000443	136.078000069
1500.0	0.0004428	136.108999968
1500.0	0.0004428	136.156000137
1500.0	0.0004433	136.203000069
1500.0	0.0004433	136.233999968
1500.0	0.000443	136.281000137
1500.0	0.000442	136.312000036
1500.0	0.0004418	136.358999968
1500.0	0.0004425	136.406000137
1500.0	0.0004428	136.437000036
1500.0	0.0004428	136.483999968
1500.0	0.000443	136.531000137
1500.0	0.0004428	136.562000036
1500.0	0.0004425	136.608999968
1500.0	0.0004425	136.640000105
1500.0	0.0004428	136.687000036
1500.0	0.000443	136.733999968
1500.0	0.0004438	136.765000105
1500.0	0.0004443	136.812000036
1500.0	0.0004443	136.858999968
1500.0	0.000444	136.890000105
1500.0	0.0004443	136.937000036
1510.0	0.0004445	137.203000069
1510.0	0.000445	137.25
1510.0	0.0004445	137.296999931
1510.0	0.0004443	137.328000069
1510.0	0.0004443	137.375
1510.0	0.0004438	137.421999931
1510.0	0.000443	137.453000069
1510.0	0.0004428	137.5
1510.0	0.000442	137.546999931
1510.0	0.000442	137.578000069
1510.0	0.000443	137.625
1510.0	0.0004433	137.656000137
1510.0	0.000443	137.703000069
1510.0	0.000443	137.75
1510.0	0.000443	137.781000137
1510.0	0.0004438	137.828000069
1510.0	0.0004433	137.875
1510.0	0.0004433	137.906000137
1510.0	0.0004433	137.953000069
1510.0	0.0004443	137.983999968
1510.0	0.0004453	138.031000137
1510.0	0.0004455	138.078000069
1510.0	0.000445	138.108999968
1510.0	0.000445	138.156000137
1510.0	0.000445	138.203000069
1510.0	0.0004445	138.233999968
1510.0	0.000445	138.281000137
1510.0	0.0004453	138.312000036
1510.0	0.0004445	138.358999968
1510.0	0.0004445	138.406000137
1510.0	0.0004445	138.437000036
1510.0	0.0004445	138.483999968
1510.0	0.0004443	138.531000137
1510.0	0.0004443	138.562000036
1510.0	0.0004443	138.608999968
1510.0	0.000444	138.640000105
1510.0	0.000444	138.687000036
1520.0	0.0004453	138.967999935
1520.0	0.0004453	139.0
1520.0	0.000445	139.046999931
1520.0	0.000445	139.092999935
1520.0	0.000445	139.125
1520.0	0.0004443	139.171999931
1520.0	0.0004438	139.203000069
1520.0	0.0004433	139.25
1520.0	0.000444	139.296999931
1520.0	0.0004438	139.328000069
1520.0	0.0004438	139.375
1520.0	0.0004443	139.421999931
1520.0	0.0004445	139.453000069
1520.0	0.0004445	139.5
1520.0	0.0004445	139.546999931
1520.0	0.0004445	139.578000069
1520.0	0.0004443	139.625
1520.0	0.000445	139.656000137
1520.0	0.0004455	139.703000069
1520.0	0.0004458	139.75
1520.0	0.0004458	139.781000137
1520.0	0.0004455	139.828000069
1520.0	0.0004453	139.875
1520.0	0.0004455	139.906000137
1520.0	0.0004458	139.953000069
1520.0	0.0004453	139.983999968
1520.0	0.0004443	140.031000137
1520.0	0.0004438	140.078000069
1520.0	0.0004433	140.125
1520.0	0.0004433	140.156000137
1520.0	0.0004443	140.203000069
1520.0	0.0004443	140.25
1520.0	0.000445	140.281000137
1520.0	0.000445	140.328000069
1520.0	0.0004443	140.358999968
1520.0	0.0004438	140.406000137
1520.0	0.0004438	140.453000069
1530.0	0.0004428	140.717999935
1530.0	0.000442	140.765000105
1530.0	0.0004413	140.796999931
1530.0	0.0004413	140.842999935
1530.0	0.0004413	140.890000105
1530.0	0.0004408	140.921999931
1530.0	0.0004405	140.967999935
1530.0	0.0004405	141.015000105
1530.0	0.0004405	141.046999931
1530.0	0.0004403	141.092999935
1530.0	0.0004403	141.125
1530.0	0.00044	141.171999931
1530.0	0.0004393	141.217999935
1530.0	0.00044	141.265000105
1530.0	0.0004403	141.296999931
1530.0	0.00044	141.342999935
1530.0	0.0004405	141.390000105
1530.0	0.0004415	141.421999931
1530.0	0.000442	141.467999935
1530.0	0.0004428	141.515000105
1530.0	0.000442	141.546999931
1530.0	0.0004415	141.592999935
1530.0	0.0004418	141.640000105
1530.0	0.0004418	141.671999931
1530.0	0.0004418	141.717999935
1530.0	0.0004413	141.75
1530.0	0.0004408	141.796999931
1530.0	0.0004403	141.842999935
1530.0	0.0004395	141.875
1530.0	0.00044	141.921999931
1530.0	0.000439	141.967999935
1530.0	0.0004388	142.0
1530.0	0.0004393	142.046999931
1530.0	0.0004405	142.092999935
1530.0	0.0004408	142.125
1530.0	0.0004405	142.171999931
1540.0	0.0004383	142.437000036
1540.0	0.000438	142.483999968
1540.0	0.0004375	142.531000137
1540.0	0.0004368	142.562000036
1540.0	0.000437	142.608999968
1540.0	0.0004375	142.656000137
1540.0	0.0004368	142.687000036
1540.0	0.0004363	142.733999968
1540.0	0.0004355	142.781000137
1540.0	0.0004353	142.812000036
1540.0	0.000435	142.858999968
1540.0	0.0004343	142.906000137
1540.0	0.0004338	142.937000036
1540.0	0.0004338	142.983999968
1540.0	0.0004343	143.015000105
1540.0	0.000434	143.062000036
1540.0	0.0004345	143.108999968
1540.0	0.0004358	143.140000105
1540.0	0.0004363	143.187000036
1540.0	0.0004363	143.233999968
1540.0	0.0004358	143.265000105
1540.0	0.0004355	143.312000036
1540.0	0.0004355	143.358999968
1540.0	0.0004355	143.390000105
1540.0	0.0004365	143.437000036
1540.0	0.0004368	143.483999968
1540.0	0.0004375	143.515000105
1540.0	0.0004375	143.562000036
1540.0	0.000437	143.608999968
1540.0	0.0004368	143.640000105
1540.0	0.0004368	143.687000036
1540.0	0.0004363	143.717999935
1540.0	0.0004363	143.765000105
1540.0	0.0004365	143.812000036
1540.0	0.0004368	143.842999935
1540.0	0.0004375	143.890000105
1540.0	0.0004375	143.921999931
1550.0	0.0004333	144.203000069
1550.0	0.0004318	144.25
1550.0	0.0004303	144.281000137
1550.0	0.000429	144.328000069
1550.0	0.0004283	144.375
1550.0	0.0004275	144.406000137
1550.0	0.000427	144.453000069
1550.0	0.0004268	144.5
1550.0	0.0004265	144.531000137
1550.0	0.0004255	144.578000069
1550.0	0.0004255	144.608999968
1550.0	0.0004255	144.656000137
1550.0	0.000425	144.703000069
1550.0	0.000425	144.733999968
1550.0	0.0004243	144.781000137
1550.0	0.0004238	144.828000069
1550.0	0.000424	144.858999968
1550.0	0.0004243	144.906000137
1550.0	0.0004243	144.937000036
1550.0	0.000424	144.983999968
1550.0	0.0004243	145.031000137
1550.0	0.000425	145.062000036
1550.0	0.000425	145.108999968
1550.0	0.0004255	145.156000137
1550.0	0.0004263	145.187000036
1550.0	0.0004263	145.233999968
1550.0	0.0004265	145.265000105
1550.0	0.0004268	145.312000036
1550.0	0.0004263	145.358999968
1550.0	0.0004255	145.390000105
1550.0	0.0004255	145.437000036
1550.0	0.0004255	145.483999968
1550.0	0.0004255	145.515000105
1550.0	0.0004263	145.562000036
1550.0	0.000427	145.608999968
1550.0	0.0004275	145.640000105
1550.0	0.0004275	145.687000036
1560.0	0.00042	145.953000069
1560.0	0.0004183	146.0
1560.0	0.0004168	146.046999931
1560.0	0.0004163	146.078000069
1560.0	0.0004163	146.125
1560.0	0.0004163	146.171999931
1560.0	0.0004153	146.203000069
1560.0	0.000414	146.25
1560.0	0.0004133	146.281000137
1560.0	0.0004128	146.328000069
1560.0	0.0004125	146.375
1560.0	0.0004128	146.421999931
1560.0	0.0004128	146.453000069
1560.0	0.000413	146.5
1560.0	0.000413	146.531000137
1560.0	0.0004125	146.578000069
1560.0	0.0004118	146.625
1560.0	0.000412	146.656000137
1560.0	0.000412	146.703000069
1560.0	0.000412	146.75
1560.0	0.000413	146.781000137
1560.0	0.0004133	146.828000069
1560.0	0.0004133	146.858999968
1560.0	0.0004133	146.906000137
1560.0	0.0004133	146.953000069
1560.0	0.0004128	146.983999968
1560.0	0.0004125	147.031000137
1560.0	0.000412	147.078000069
1560.0	0.0004115	147.108999968
1560.0	0.0004108	147.156000137
1560.0	0.0004105	147.203000069
1560.0	0.0004105	147.233999968
1560.0	0.0004105	147.281000137
1560.0	0.0004113	147.312000036
1560.0	0.0004113	147.358999968
1560.0	0.0004115	147.406000137
1560.0	0.0004115	147.453000069
1570.0	0.0004065	147.717999935
1570.0	0.000404	147.765000105
1570.0	0.0004013	147.812000036
1570.0	0.0003995	147.842999935
1570.0	0.0003983	147.890000105
1570.0	0.0003978	147.937000036
1570.0	0.0003975	147.967999935
1570.0	0.000397	148.015000105
1570.0	0.0003965	148.046999931
1570.0	0.0003958	148.092999935
1570.0	0.000395	148.140000105
1570.0	0.0003943	148.171999931
1570.0	0.0003945	148.217999935
1570.0	0.0003945	148.265000105
1570.0	0.0003943	148.296999931
1570.0	0.0003943	148.342999935
1570.0	0.000395	148.375
1570.0	0.0003945	148.421999931
1570.0	0.0003943	148.467999935
1570.0	0.0003943	148.5
1570.0	0.0003938	148.546999931
1570.0	0.000393	148.592999935
1570.0	0.0003925	148.625
1570.0	0.000392	148.671999931
1570.0	0.000392	148.703000069
1570.0	0.0003925	148.75
1570.0	0.000393	148.796999931
1570.0	0.0003933	148.828000069
1570.0	0.0003938	148.875
1570.0	0.000395	148.921999931
1570.0	0.0003955	148.953000069
1570.0	0.0003953	149.0
1570.0	0.0003943	149.031000137
1570.0	0.000394	149.078000069
1570.0	0.0003938	149.125
1570.0	0.000394	149.156000137
1570.0	0.0003943	149.203000069
1580.0	0.0003855	149.483999968
1580.0	0.000383	149.515000105
1580.0	0.0003803	149.562000036
1580.0	0.0003783	149.608999968
1580.0	0.000377	149.640000105
1580.0	0.0003753	149.687000036
1580.0	0.000374	149.717999935
1580.0	0.0003738	149.765000105
1580.0	0.0003728	149.812000036
1580.0	0.0003725	149.842999935
1580.0	0.0003725	149.890000105
1580.0	0.0003725	149.937000036
1580.0	0.0003728	149.967999935
1580.0	0.0003733	150.015000105
1580.0	0.000373	150.046999931
1580.0	0.0003728	150.092999935
1580.0	0.0003728	150.140000105
1580.0	0.000373	150.171999931
1580.0	0.0003733	150.217999935
1580.0	0.0003738	150.265000105
1580.0	0.000374	150.296999931
1580.0	0.0003738	150.342999935
1580.0	0.0003738	150.390000105
1580.0	0.0003743	150.421999931
1580.0	0.0003743	150.467999935
1580.0	0.0003745	150.515000105
1580.0	0.000375	150.546999931
1580.0	0.0003743	150.592999935
1580.0	0.0003743	150.640000105
1580.0	0.000374	150.671999931
1580.0	0.000374	150.717999935
1580.0	0.0003738	150.75
1580.0	0.0003733	150.796999931
1580.0	0.000373	150.842999935
1580.0	0.0003728	150.875
1580.0	0.000372	150.921999931
1580.0	0.0003713	150.967999935
1590.0	0.0003628	151.233999968
1590.0	0.0003595	151.281000137
1590.0	0.0003575	151.312000036
1590.0	0.0003555	151.358999968
1590.0	0.0003538	151.406000137
1590.0	0.0003525	151.437000036
1590.0	0.0003515	151.483999968
1590.0	0.0003508	151.531000137
1590.0	0.0003505	151.562000036
1590.0	0.0003495	151.608999968
1590.0	0.000349	151.640000105
1590.0	0.0003478	151.687000036
1590.0	0.0003468	151.733999968
1590.0	0.0003468	151.765000105
1590.0	0.0003468	151.812000036
1590.0	0.000347	151.858999968
1590.0	0.000347	151.890000105
1590.0	0.0003475	151.937000036
1590.0	0.0003478	151.967999935
1590.0	0.0003475	152.015000105
1590.0	0.000347	152.062000036
1590.0	0.0003468	152.092999935
1590.0	0.0003465	152.140000105
1590.0	0.0003475	152.187000036
1590.0	0.0003478	152.217999935
1590.0	0.0003478	152.265000105
1590.0	0.0003478	152.312000036
1590.0	0.000348	152.342999935
1590.0	0.000348	152.390000105
1590.0	0.0003483	152.437000036
1590.0	0.0003488	152.467999935
1590.0	0.0003488	152.515000105
1590.0	0.000349	152.562000036
1590.0	0.000349	152.592999935
1590.0	0.0003488	152.640000105
1590.0	0.0003488	152.687000036
1600.0	0.0003378	152.953000069
1600.0	0.0003343	153.0
1600.0	0.0003313	153.046999931
1600.0	0.0003293	153.078000069
1600.0	0.0003278	153.125
1600.0	0.0003263	153.156000137
1600.0	0.0003245	153.203000069
1600.0	0.000324	153.25
1600.0	0.0003233	153.281000137
1600.0	0.0003228	153.328000069
1600.0	0.0003228	153.375
1600.0	0.0003225	153.406000137
1600.0	0.0003213	153.453000069
1600.0	0.0003203	153.483999968
1600.0	0.0003203	153.531000137
1600.0	0.0003205	153.578000069
1600.0	0.0003208	153.608999968
1600.0	0.0003213	153.656000137
1600.0	0.0003208	153.703000069
1600.0	0.0003205	153.733999968
1600.0	0.0003213	153.781000137
1600.0	0.0003218	153.828000069
1600.0	0.0003215	153.858999968
1600.0	0.0003215	153.906000137
1600.0	0.0003213	153.937000036
1600.0	0.0003215	154.0
1600.0	0.0003213	154.031000137
1600.0	0.0003205	154.078000069
1600.0	0.0003205	154.125
1600.0	0.0003205	154.156000137
1600.0	0.0003205	154.203000069
1600.0	0.0003215	154.25
1600.0	0.0003225	154.281000137
1600.0	0.0003228	154.328000069
1600.0	0.0003228	154.358999968
1600.0	0.0003238	154.406000137
1600.0	0.000324	154.453000069
1610.0	0.000312	154.733999968
1610.0	0.0003075	154.765000105
1610.0	0.0003038	154.812000036
1610.0	0.0003008	154.858999968
1610.0	0.0002988	154.890000105
1610.0	0.0002978	154.937000036
1610.0	0.000297	154.967999935
1610.0	0.0002968	155.015000105
1610.0	0.0002958	155.062000036
1610.0	0.0002953	155.092999935
1610.0	0.0002953	155.140000105
1610.0	0.0002955	155.171999931
1610.0	0.0002955	155.217999935
1610.0	0.0002958	155.265000105
1610.0	0.0002963	155.312000036
1610.0	0.0002965	155.342999935
1610.0	0.0002963	155.390000105
1610.0	0.0002953	155.437000036
1610.0	0.000295	155.467999935
1610.0	0.0002945	155.515000105
1610.0	0.0002943	155.562000036
1610.0	0.0002945	155.592999935
1610.0	0.0002945	155.640000105
1610.0	0.0002945	155.687000036
1610.0	0.0002943	155.717999935
1610.0	0.0002943	155.765000105
1610.0	0.000294	155.796999931
1610.0	0.0002938	155.842999935
1610.0	0.0002938	155.890000105
1610.0	0.0002933	155.937000036
1610.0	0.000294	155.967999935
1610.0	0.0002945	156.015000105
1610.0	0.000295	156.046999931
1610.0	0.000295	156.092999935
1610.0	0.0002945	156.140000105
1610.0	0.0002945	156.171999931
1610.0	0.0002943	156.217999935
1620.0	0.0002838	156.5
1620.0	0.0002803	156.546999931
1620.0	0.000277	156.578000069
1620.0	0.0002745	156.625
1620.0	0.000273	156.671999931
1620.0	0.0002713	156.703000069
1620.0	0.0002695	156.75
1620.0	0.000269	156.796999931
1620.0	0.0002688	156.828000069
1620.0	0.0002683	156.875
1620.0	0.000268	156.906000137
1620.0	0.0002683	156.953000069
1620.0	0.0002683	157.0
1620.0	0.0002683	157.031000137
1620.0	0.000268	157.078000069
1620.0	0.0002683	157.125
1620.0	0.0002688	157.156000137
1620.0	0.0002683	157.203000069
1620.0	0.0002678	157.233999968
1620.0	0.0002675	157.281000137
1620.0	0.0002675	157.328000069
1620.0	0.0002668	157.375
1620.0	0.0002658	157.406000137
1620.0	0.0002655	157.453000069
1620.0	0.000265	157.5
1620.0	0.000264	157.531000137
1620.0	0.0002643	157.578000069
1620.0	0.0002645	157.608999968
1620.0	0.0002643	157.656000137
1620.0	0.0002645	157.703000069
1620.0	0.0002645	157.75
1620.0	0.0002643	157.781000137
1620.0	0.0002643	157.828000069
1620.0	0.000265	157.858999968
1620.0	0.0002653	157.906000137
1620.0	0.0002653	157.953000069
1630.0	0.0002545	158.233999968
1630.0	0.0002513	158.265000105
1630.0	0.0002488	158.312000036
1630.0	0.0002463	158.358999968
1630.0	0.000244	158.390000105
1630.0	0.0002418	158.437000036
1630.0	0.0002403	158.483999968
1630.0	0.0002393	158.515000105
1630.0	0.0002388	158.562000036
1630.0	0.0002383	158.592999935
1630.0	0.000238	158.640000105
1630.0	0.0002383	158.687000036
1630.0	0.0002388	158.717999935
1630.0	0.000239	158.765000105
1630.0	0.0002388	158.812000036
1630.0	0.0002388	158.842999935
1630.0	0.0002395	158.890000105
1630.0	0.0002405	158.921999931
1630.0	0.0002405	158.967999935
1630.0	0.0002403	159.015000105
1630.0	0.00024	159.046999931
1630.0	0.000239	159.092999935
1630.0	0.000238	159.140000105
1630.0	0.0002388	159.187000036
1630.0	0.0002388	159.217999935
1630.0	0.0002388	159.265000105
1630.0	0.0002383	159.296999931
1630.0	0.000238	159.342999935
1630.0	0.0002378	159.390000105
1630.0	0.000238	159.421999931
1630.0	0.0002383	159.467999935
1630.0	0.0002378	159.515000105
1630.0	0.0002388	159.546999931
1630.0	0.0002395	159.592999935
1630.0	0.000239	159.625
1630.0	0.0002393	159.671999931
1630.0	0.0002393	159.717999935
1640.0	0.00023	160.0
1640.0	0.0002265	160.046999931
1640.0	0.000223	160.078000069
1640.0	0.00022	160.125
1640.0	0.0002175	160.171999931
1640.0	0.0002158	160.203000069
1640.0	0.0002143	160.25
1640.0	0.0002133	160.296999931
1640.0	0.0002133	160.328000069
1640.0	0.0002133	160.375
1640.0	0.0002138	160.406000137
1640.0	0.0002138	160.453000069
1640.0	0.000214	160.5
1640.0	0.000214	160.531000137
1640.0	0.0002138	160.578000069
1640.0	0.000214	160.625
1640.0	0.0002138	160.656000137
1640.0	0.0002133	160.703000069
1640.0	0.0002138	160.733999968
1640.0	0.0002143	160.781000137
1640.0	0.0002143	160.828000069
1640.0	0.0002138	160.858999968
1640.0	0.0002138	160.906000137
1640.0	0.0002133	160.953000069
1640.0	0.0002138	160.983999968
1640.0	0.0002138	161.031000137
1640.0	0.0002138	161.062000036
1640.0	0.0002138	161.108999968
1640.0	0.0002138	161.156000137
1640.0	0.0002138	161.187000036
1640.0	0.0002133	161.233999968
1640.0	0.0002133	161.281000137
1640.0	0.0002133	161.312000036
1640.0	0.0002128	161.358999968
1640.0	0.000212	161.390000105
1640.0	0.0002118	161.437000036
1640.0	0.0002113	161.483999968
1650.0	0.0002045	161.765000105
1650.0	0.0002025	161.796999931
1650.0	0.0002005	161.842999935
1650.0	0.0001983	161.890000105
1650.0	0.0001965	161.921999931
1650.0	0.0001958	161.967999935
1650.0	0.0001943	162.015000105
1650.0	0.000193	162.046999931
1650.0	0.0001925	162.092999935
1650.0	0.0001915	162.140000105
1650.0	0.0001905	162.171999931
1650.0	0.0001908	162.217999935
1650.0	0.0001913	162.25
1650.0	0.0001905	162.296999931
1650.0	0.0001903	162.342999935
1650.0	0.00019	162.375
1650.0	0.0001903	162.421999931
1650.0	0.0001905	162.467999935
1650.0	0.0001908	162.5
1650.0	0.0001913	162.546999931
1650.0	0.0001913	162.578000069
1650.0	0.0001908	162.625
1650.0	0.0001903	162.671999931
1650.0	0.00019	162.703000069
1650.0	0.0001903	162.75
1650.0	0.0001908	162.796999931
1650.0	0.0001913	162.828000069
1650.0	0.0001918	162.875
1650.0	0.000192	162.906000137
1650.0	0.0001918	162.953000069
1650.0	0.0001915	163.0
1650.0	0.0001915	163.031000137
1650.0	0.0001915	163.078000069
1650.0	0.0001913	163.125
1650.0	0.0001913	163.156000137
1650.0	0.0001908	163.203000069
1650.0	0.0001905	163.25
1660.0	0.000182	163.531000137
1660.0	0.0001795	163.562000036
1660.0	0.000177	163.608999968
1660.0	0.0001745	163.656000137
1660.0	0.0001733	163.687000036
1660.0	0.0001718	163.733999968
1660.0	0.0001705	163.765000105
1660.0	0.0001703	163.812000036
1660.0	0.0001703	163.858999968
1660.0	0.00017	163.890000105
1660.0	0.0001695	163.937000036
1660.0	0.00017	163.983999968
1660.0	0.0001693	164.015000105
1660.0	0.0001693	164.062000036
1660.0	0.000169	164.092999935
1660.0	0.0001688	164.140000105
1660.0	0.000168	164.187000036
1660.0	0.0001683	164.217999935
1660.0	0.000168	164.265000105
1660.0	0.0001683	164.312000036
1660.0	0.0001693	164.358999968
1660.0	0.0001688	164.390000105
1660.0	0.0001688	164.437000036
1660.0	0.0001683	164.467999935
1660.0	0.0001675	164.515000105
1660.0	0.0001675	164.562000036
1660.0	0.000168	164.608999968
1660.0	0.0001683	164.640000105
1660.0	0.0001688	164.687000036
1660.0	0.000169	164.717999935
1660.0	0.00017	164.765000105
1660.0	0.00017	164.812000036
1660.0	0.0001703	164.842999935
1660.0	0.0001703	164.890000105
1660.0	0.0001708	164.937000036
1660.0	0.0001713	164.967999935
1660.0	0.0001713	165.015000105
1670.0	0.0001633	165.296999931
1670.0	0.0001608	165.342999935
1670.0	0.0001588	165.375
1670.0	0.0001568	165.421999931
1670.0	0.0001553	165.467999935
1670.0	0.000154	165.5
1670.0	0.000153	165.546999931
1670.0	0.0001525	165.592999935
1670.0	0.0001528	165.625
1670.0	0.0001525	165.671999931
1670.0	0.0001525	165.703000069
1670.0	0.0001525	165.75
1670.0	0.0001525	165.796999931
1670.0	0.0001528	165.828000069
1670.0	0.000153	165.875
1670.0	0.0001538	165.921999931
1670.0	0.0001543	165.953000069
1670.0	0.000154	166.0
1670.0	0.0001538	166.031000137
1670.0	0.000154	166.078000069
1670.0	0.0001538	166.125
1670.0	0.0001538	166.156000137
1670.0	0.000154	166.203000069
1670.0	0.0001543	166.25
1670.0	0.0001533	166.281000137
1670.0	0.0001528	166.328000069
1670.0	0.000152	166.375
1670.0	0.0001518	166.406000137
1670.0	0.0001515	166.453000069
1670.0	0.0001518	166.483999968
1670.0	0.0001518	166.531000137
1670.0	0.000152	166.578000069
1670.0	0.000152	166.608999968
1670.0	0.0001518	166.656000137
1670.0	0.0001525	166.703000069
1670.0	0.0001525	166.733999968
1670.0	0.000152	166.781000137
1680.0	0.0001458	167.062000036
1680.0	0.000143	167.108999968
1680.0	0.0001413	167.156000137
1680.0	0.00014	167.187000036
1680.0	0.0001383	167.233999968
1680.0	0.0001375	167.265000105
1680.0	0.0001368	167.312000036
1680.0	0.0001365	167.358999968
1680.0	0.0001365	167.390000105
1680.0	0.0001365	167.437000036
1680.0	0.0001365	167.483999968
1680.0	0.000137	167.515000105
1680.0	0.0001368	167.562000036
1680.0	0.0001365	167.592999935
1680.0	0.0001375	167.640000105
1680.0	0.000138	167.687000036
1680.0	0.000138	167.717999935
1680.0	0.000138	167.765000105
1680.0	0.000138	167.812000036
1680.0	0.000138	167.842999935
1680.0	0.000137	167.890000105
1680.0	0.0001368	167.921999931
1680.0	0.0001368	167.967999935
1680.0	0.000137	168.015000105
1680.0	0.0001368	168.046999931
1680.0	0.0001363	168.092999935
1680.0	0.0001365	168.140000105
1680.0	0.0001368	168.171999931
1680.0	0.0001363	168.217999935
1680.0	0.0001355	168.25
1680.0	0.0001363	168.296999931
1680.0	0.0001365	168.342999935
1680.0	0.0001358	168.375
1680.0	0.0001353	168.421999931
1680.0	0.0001345	168.467999935
1680.0	0.0001343	168.5
1680.0	0.000134	168.546999931
1690.0	0.0001315	168.828000069
1690.0	0.0001293	168.875
1690.0	0.0001278	168.921999931
1690.0	0.0001268	168.953000069
1690.0	0.0001258	169.0
1690.0	0.0001245	169.031000137
1690.0	0.0001243	169.078000069
1690.0	0.0001238	169.125
1690.0	0.000123	169.156000137
1690.0	0.0001225	169.203000069
1690.0	0.0001228	169.25
1690.0	0.000123	169.281000137
1690.0	0.000122	169.328000069
1690.0	0.0001215	169.358999968
1690.0	0.0001218	169.406000137
1690.0	0.0001215	169.453000069
1690.0	0.0001208	169.483999968
1690.0	0.0001208	169.531000137
1690.0	0.0001208	169.578000069
1690.0	0.0001208	169.608999968
1690.0	0.0001213	169.656000137
1690.0	0.0001213	169.687000036
1690.0	0.0001213	169.733999968
1690.0	0.0001215	169.781000137
1690.0	0.000122	169.812000036
1690.0	0.0001228	169.858999968
1690.0	0.000123	169.906000137
1690.0	0.000123	169.937000036
1690.0	0.0001228	169.983999968
1690.0	0.000122	170.015000105
1690.0	0.000122	170.062000036
1690.0	0.0001218	170.108999968
1690.0	0.0001218	170.140000105
1690.0	0.0001218	170.187000036
1690.0	0.0001225	170.233999968
1690.0	0.0001225	170.265000105
1690.0	0.000123	170.312000036
1700.0	0.0001163	170.592999935
1700.0	0.0001153	170.640000105
1700.0	0.0001138	170.687000036
1700.0	0.0001125	170.717999935
1700.0	0.0001115	170.765000105
1700.0	0.0001105	170.796999931
1700.0	0.0001108	170.842999935
1700.0	0.0001105	170.890000105
1700.0	0.0001103	170.921999931
1700.0	0.0001105	170.967999935
1700.0	0.0001105	171.015000105
1700.0	0.00011	171.046999931
1700.0	0.0001095	171.092999935
1700.0	0.0001093	171.140000105
1700.0	0.000109	171.171999931
1700.0	0.0001093	171.217999935
1700.0	0.0001093	171.265000105
1700.0	0.0001093	171.296999931
1700.0	0.0001103	171.342999935
1700.0	0.0001103	171.375
1700.0	0.00011	171.421999931
1700.0	0.0001095	171.467999935
1700.0	0.0001093	171.5
1700.0	0.0001093	171.546999931
1700.0	0.0001093	171.592999935
1700.0	0.0001095	171.625
1700.0	0.000109	171.671999931
1700.0	0.0001088	171.717999935
1700.0	0.0001083	171.75
1700.0	0.000109	171.796999931
1700.0	0.0001095	171.828000069
1700.0	0.0001095	171.875
1700.0	0.0001095	171.921999931
1700.0	0.0001095	171.953000069
1700.0	0.00011	172.0
1700.0	0.0001095	172.046999931
1700.0	0.0001088	172.078000069
1710.0	0.0001065	172.375
1710.0	0.000105	172.406000137
1710.0	0.0001043	172.453000069
1710.0	0.000103	172.5
1710.0	0.0001018	172.531000137
1710.0	0.0001013	172.578000069
1710.0	0.0001013	172.625
1710.0	0.0001013	172.656000137
1710.0	0.0001013	172.703000069
1710.0	0.0001008	172.75
1710.0	0.0001013	172.781000137
1710.0	0.0001005	172.828000069
1710.0	9.95e-05	172.858999968
1710.0	9.9e-05	172.906000137
1710.0	9.88e-05	172.953000069
1710.0	9.88e-05	172.983999968
1710.0	9.88e-05	173.031000137
1710.0	9.93e-05	173.078000069
1710.0	9.95e-05	173.108999968
1710.0	9.93e-05	173.156000137
1710.0	9.88e-05	173.187000036
1710.0	9.83e-05	173.233999968
1710.0	9.8e-05	173.281000137
1710.0	9.78e-05	173.312000036
1710.0	9.78e-05	173.358999968
1710.0	9.8e-05	173.406000137
1710.0	9.9e-05	173.437000036
1710.0	9.93e-05	173.483999968
1710.0	9.93e-05	173.515000105
1710.0	9.88e-05	173.562000036
1710.0	9.83e-05	173.608999968
1710.0	9.83e-05	173.640000105
1710.0	9.83e-05	173.687000036
1710.0	9.88e-05	173.733999968
1710.0	9.88e-05	173.765000105
1710.0	9.88e-05	173.812000036
1710.0	9.9e-05	173.858999968
1720.0	9.43e-05	174.140000105
1720.0	9.33e-05	174.187000036
1720.0	9.3e-05	174.217999935
1720.0	9.33e-05	174.265000105
1720.0	9.3e-05	174.312000036
1720.0	9.28e-05	174.342999935
1720.0	9.25e-05	174.390000105
1720.0	9.2e-05	174.437000036
1720.0	9.18e-05	174.467999935
1720.0	9.18e-05	174.515000105
1720.0	9.13e-05	174.546999931
1720.0	9.05e-05	174.592999935
1720.0	9.08e-05	174.640000105
1720.0	9.13e-05	174.671999931
1720.0	9.08e-05	174.717999935
1720.0	9.03e-05	174.765000105
1720.0	9.08e-05	174.796999931
1720.0	9.08e-05	174.842999935
1720.0	9.13e-05	174.890000105
1720.0	9.2e-05	174.921999931
1720.0	9.28e-05	174.967999935
1720.0	9.3e-05	175.015000105
1720.0	9.33e-05	175.046999931
1720.0	9.25e-05	175.092999935
1720.0	9.15e-05	175.125
1720.0	9.13e-05	175.171999931
1720.0	9.03e-05	175.217999935
1720.0	8.9e-05	175.25
1720.0	8.88e-05	175.296999931
1720.0	8.9e-05	175.342999935
1720.0	8.88e-05	175.375
1720.0	8.88e-05	175.421999931
1720.0	8.83e-05	175.467999935
1720.0	8.88e-05	175.5
1720.0	8.9e-05	175.546999931
1720.0	8.93e-05	175.578000069
1720.0	8.93e-05	175.625
1730.0	8.58e-05	175.906000137
1730.0	8.45e-05	175.953000069
1730.0	8.4e-05	176.0
1730.0	8.3e-05	176.031000137
1730.0	8.28e-05	176.078000069
1730.0	8.28e-05	176.125
1730.0	8.33e-05	176.156000137
1730.0	8.33e-05	176.203000069
1730.0	8.3e-05	176.233999968
1730.0	8.28e-05	176.281000137
1730.0	8.25e-05	176.328000069
1730.0	8.28e-05	176.358999968
1730.0	8.28e-05	176.406000137
1730.0	8.28e-05	176.453000069
1730.0	8.33e-05	176.483999968
1730.0	8.33e-05	176.531000137
1730.0	8.3e-05	176.578000069
1730.0	8.3e-05	176.608999968
1730.0	8.3e-05	176.656000137
1730.0	8.33e-05	176.687000036
1730.0	8.33e-05	176.733999968
1730.0	8.33e-05	176.781000137
1730.0	8.25e-05	176.812000036
1730.0	8.18e-05	176.858999968
1730.0	8.08e-05	176.906000137
1730.0	8.05e-05	176.937000036
1730.0	8e-05	176.983999968
1730.0	7.9e-05	177.015000105
1730.0	7.95e-05	177.062000036
1730.0	7.93e-05	177.108999968
1730.0	7.93e-05	177.140000105
1730.0	7.93e-05	177.187000036
1730.0	7.93e-05	177.233999968
1730.0	7.93e-05	177.265000105
1730.0	7.93e-05	177.312000036
1730.0	8.05e-05	177.342999935
1730.0	8.15e-05	177.390000105
1740.0	7.9e-05	177.671999931
1740.0	7.88e-05	177.717999935
1740.0	7.83e-05	177.765000105
1740.0	7.78e-05	177.796999931
1740.0	7.75e-05	177.842999935
1740.0	7.7e-05	177.890000105
1740.0	7.68e-05	177.921999931
1740.0	7.68e-05	177.967999935
1740.0	7.7e-05	178.0
1740.0	7.7e-05	178.046999931
1740.0	7.7e-05	178.092999935
1740.0	7.7e-05	178.125
1740.0	7.7e-05	178.171999931
1740.0	7.75e-05	178.217999935
1740.0	7.78e-05	178.25
1740.0	7.75e-05	178.296999931
1740.0	7.75e-05	178.342999935
1740.0	7.75e-05	178.375
1740.0	7.68e-05	178.421999931
1740.0	7.63e-05	178.453000069
1740.0	7.58e-05	178.5
1740.0	7.58e-05	178.546999931
1740.0	7.55e-05	178.578000069
1740.0	7.53e-05	178.625
1740.0	7.55e-05	178.671999931
1740.0	7.53e-05	178.703000069
1740.0	7.55e-05	178.75
1740.0	7.58e-05	178.796999931
1740.0	7.55e-05	178.828000069
1740.0	7.58e-05	178.875
1740.0	7.58e-05	178.921999931
1740.0	7.5e-05	178.953000069
1740.0	7.5e-05	179.0
1740.0	7.5e-05	179.031000137
1740.0	7.43e-05	179.078000069
1740.0	7.38e-05	179.125
1740.0	7.33e-05	179.156000137
1750.0	7.08e-05	179.453000069
1750.0	7e-05	179.483999968
1750.0	6.95e-05	179.531000137
1750.0	6.88e-05	179.578000069
1750.0	6.8e-05	179.608999968
1750.0	6.78e-05	179.656000137
1750.0	6.78e-05	179.703000069
1750.0	6.75e-05	179.733999968
1750.0	6.7e-05	179.781000137
1750.0	6.7e-05	179.812000036
1750.0	6.75e-05	179.858999968
1750.0	6.75e-05	179.906000137
1750.0	6.7e-05	179.953000069
1750.0	6.68e-05	179.983999968
1750.0	6.7e-05	180.031000137
1750.0	6.78e-05	180.062000036
1750.0	6.78e-05	180.108999968
1750.0	6.75e-05	180.156000137
1750.0	6.75e-05	180.187000036
1750.0	6.75e-05	180.233999968
1750.0	6.75e-05	180.281000137
1750.0	6.78e-05	180.312000036
1750.0	6.83e-05	180.358999968
1750.0	6.8e-05	180.406000137
1750.0	6.83e-05	180.437000036
1750.0	6.8e-05	180.483999968
1750.0	6.8e-05	180.531000137
1750.0	6.88e-05	180.562000036
1750.0	6.9e-05	180.608999968
1750.0	6.9e-05	180.656000137
1750.0	6.9e-05	180.687000036
1750.0	6.9e-05	180.733999968
1750.0	6.88e-05	180.765000105
1750.0	6.88e-05	180.812000036
1750.0	6.93e-05	180.858999968
1750.0	6.95e-05	180.906000137
1760.0	6.58e-05	181.187000036
1760.0	6.5e-05	181.233999968
1760.0	6.45e-05	181.265000105
1760.0	6.4e-05	181.312000036
1760.0	6.38e-05	181.358999968
1760.0	6.38e-05	181.390000105
1760.0	6.33e-05	181.437000036
1760.0	6.28e-05	181.483999968
1760.0	6.28e-05	181.515000105
1760.0	6.25e-05	181.562000036
1760.0	6.2e-05	181.608999968
1760.0	6.18e-05	181.640000105
1760.0	6.15e-05	181.687000036
1760.0	6.08e-05	181.733999968
1760.0	6.03e-05	181.765000105
1760.0	6.03e-05	181.812000036
1760.0	6.13e-05	181.858999968
1760.0	6.25e-05	181.890000105
1760.0	6.28e-05	181.937000036
1760.0	6.3e-05	181.967999935
1760.0	6.33e-05	182.015000105
1760.0	6.33e-05	182.062000036
1760.0	6.33e-05	182.092999935
1760.0	6.38e-05	182.140000105
1760.0	6.4e-05	182.187000036
1760.0	6.38e-05	182.217999935
1760.0	6.4e-05	182.265000105
1760.0	6.33e-05	182.296999931
1760.0	6.3e-05	182.342999935
1760.0	6.3e-05	182.390000105
1760.0	6.3e-05	182.421999931
1760.0	6.28e-05	182.467999935
1760.0	6.28e-05	182.515000105
1760.0	6.3e-05	182.546999931
1760.0	6.28e-05	182.592999935
1760.0	6.25e-05	182.625
1770.0	5.83e-05	182.921999931
1770.0	5.8e-05	182.953000069
1770.0	5.8e-05	183.0
1770.0	5.78e-05	183.046999931
1770.0	5.7e-05	183.078000069
1770.0	5.68e-05	183.125
1770.0	5.7e-05	183.171999931
1770.0	5.7e-05	183.203000069
1770.0	5.65e-05	183.25
1770.0	5.58e-05	183.296999931
1770.0	5.58e-05	183.328000069
1770.0	5.63e-05	183.375
1770.0	5.58e-05	183.406000137
1770.0	5.58e-05	183.453000069
1770.0	5.65e-05	183.5
1770.0	5.63e-05	183.531000137
1770.0	5.65e-05	183.578000069
1770.0	5.7e-05	183.625
1770.0	5.68e-05	183.656000137
1770.0	5.68e-05	183.703000069
1770.0	5.65e-05	183.75
1770.0	5.63e-05	183.781000137
1770.0	5.63e-05	183.828000069
1770.0	5.65e-05	183.875
1770.0	5.68e-05	183.906000137
1770.0	5.7e-05	183.953000069
1770.0	5.75e-05	184.0
1770.0	5.7e-05	184.031000137
1770.0	5.7e-05	184.078000069
1770.0	5.75e-05	184.125
1770.0	5.78e-05	184.156000137
1770.0	5.75e-05	184.203000069
1770.0	5.68e-05	184.25
1770.0	5.68e-05	184.281000137
1770.0	5.68e-05	184.328000069
1770.0	5.68e-05	184.358999968
1770.0	5.68e-05	184.406000137
1780.0	5.5e-05	184.687000036
1780.0	5.45e-05	184.733999968
1780.0	5.45e-05	184.781000137
1780.0	5.43e-05	184.812000036
1780.0	5.33e-05	184.858999968
1780.0	5.3e-05	184.906000137
1780.0	5.3e-05	184.937000036
1780.0	5.33e-05	184.983999968
1780.0	5.28e-05	185.015000105
1780.0	5.18e-05	185.062000036
1780.0	5.18e-05	185.108999968
1780.0	5.13e-05	185.156000137
1780.0	5.13e-05	185.187000036
1780.0	5.13e-05	185.233999968
1780.0	5.13e-05	185.281000137
1780.0	5.18e-05	185.312000036
1780.0	5.28e-05	185.358999968
1780.0	5.33e-05	185.390000105
1780.0	5.38e-05	185.437000036
1780.0	5.33e-05	185.483999968
1780.0	5.28e-05	185.515000105
1780.0	5.2e-05	185.562000036
1780.0	5.13e-05	185.608999968
1780.0	5.13e-05	185.640000105
1780.0	5.08e-05	185.687000036
1780.0	5.08e-05	185.717999935
1780.0	5.13e-05	185.765000105
1780.0	5.15e-05	185.812000036
1780.0	5.18e-05	185.842999935
1780.0	5.13e-05	185.890000105
1780.0	5.13e-05	185.937000036
1780.0	5.13e-05	185.983999968
1780.0	5.05e-05	186.015000105
1780.0	5.05e-05	186.062000036
1780.0	5.08e-05	186.092999935
1780.0	5.05e-05	186.140000105
1780.0	5.05e-05	186.187000036
1790.0	4.8e-05	186.467999935
1790.0	4.7e-05	186.515000105
1790.0	4.65e-05	186.546999931
1790.0	4.68e-05	186.592999935
1790.0	4.65e-05	186.640000105
1790.0	4.58e-05	186.671999931
1790.0	4.58e-05	186.717999935
1790.0	4.58e-05	186.75
1790.0	4.58e-05	186.796999931
1790.0	4.65e-05	186.842999935
1790.0	4.7e-05	186.875
1790.0	4.7e-05	186.921999931
1790.0	4.65e-05	186.967999935
1790.0	4.63e-05	187.0
1790.0	4.55e-05	187.046999931
1790.0	4.53e-05	187.078000069
1790.0	4.5e-05	187.125
1790.0	4.45e-05	187.171999931
1790.0	4.5e-05	187.203000069
1790.0	4.55e-05	187.25
1790.0	4.58e-05	187.296999931
1790.0	4.63e-05	187.328000069
1790.0	4.63e-05	187.375
1790.0	4.68e-05	187.406000137
1790.0	4.7e-05	187.453000069
1790.0	4.7e-05	187.5
1790.0	4.75e-05	187.531000137
1790.0	4.7e-05	187.578000069
1790.0	4.68e-05	187.625
1790.0	4.63e-05	187.656000137
1790.0	4.58e-05	187.703000069
1790.0	4.55e-05	187.733999968
1790.0	4.55e-05	187.781000137
1790.0	4.58e-05	187.828000069
1790.0	4.58e-05	187.858999968
1790.0	4.58e-05	187.906000137
1790.0	4.58e-05	187.953000069
1800.0	4.4e-05	188.233999968
1800.0	4.3e-05	188.281000137
1800.0	4.28e-05	188.328000069
1800.0	4.18e-05	188.358999968
1800.0	4.13e-05	188.406000137
1800.0	4.08e-05	188.437000036
1800.0	4.05e-05	188.483999968
1800.0	4.03e-05	188.531000137
1800.0	3.95e-05	188.562000036
1800.0	3.95e-05	188.608999968
1800.0	3.95e-05	188.656000137
1800.0	4.05e-05	188.687000036
1800.0	4.08e-05	188.733999968
1800.0	4.08e-05	188.765000105
1800.0	4.08e-05	188.812000036
1800.0	4.08e-05	188.858999968
1800.0	4e-05	188.890000105
1800.0	3.93e-05	188.937000036
1800.0	3.9e-05	188.983999968
1800.0	3.9e-05	189.015000105
1800.0	3.9e-05	189.062000036
1800.0	3.95e-05	189.108999968
1800.0	4e-05	189.140000105
1800.0	4.03e-05	189.187000036
1800.0	4e-05	189.217999935
1800.0	4.03e-05	189.265000105
1800.0	4.08e-05	189.312000036
1800.0	4.15e-05	189.342999935
1800.0	4.18e-05	189.390000105
1800.0	4.18e-05	189.437000036
1800.0	4.13e-05	189.467999935
1800.0	4.15e-05	189.515000105
1800.0	4.15e-05	189.546999931
1800.0	4.08e-05	189.592999935
1800.0	4.13e-05	189.640000105
1800.0	4.18e-05	189.671999931
1800.0	4.18e-05	189.717999935
