Your edit line - do NOT delete this line
Wavelength [nm], Voltage [V], Elapsed time [s]
1000.0	0.000918	6.6400001049
1000.0	0.0009138	6.68700003624
1000.0	0.000909	6.71799993515
1000.0	0.0009055	6.7650001049
1000.0	0.0009025	6.79699993134
1000.0	0.000899	6.84299993515
1000.0	0.0008978	6.8900001049
1000.0	0.000896	6.92199993134
1000.0	0.0008955	6.96799993515
1000.0	0.000894	7.0
1000.0	0.000894	7.04699993134
1000.0	0.0008955	7.09299993515
1000.0	0.0008973	7.125
1000.0	0.0008985	7.17199993134
1000.0	0.0008985	7.21799993515
1000.0	0.0008985	7.25
1000.0	0.0008968	7.29699993134
1000.0	0.0008948	7.34299993515
1000.0	0.0008935	7.375
1000.0	0.0008928	7.42199993134
1000.0	0.0008925	7.45300006866
1000.0	0.0008925	7.5
1000.0	0.0008928	7.54699993134
1000.0	0.0008928	7.57800006866
1000.0	0.0008935	7.625
1000.0	0.0008928	7.67199993134
1000.0	0.0008925	7.70300006866
1000.0	0.0008925	7.75
1000.0	0.0008918	7.78100013733
1000.0	0.000891	7.82800006866
1000.0	0.0008923	7.875
1000.0	0.0008925	7.90600013733
1000.0	0.0008925	7.95300006866
1000.0	0.0008923	8.0
1000.0	0.0008928	8.03100013733
1000.0	0.0008915	8.07800006866
1000.0	0.000891	8.10899996758
1010.0	0.0009015	8.3900001049
1010.0	0.0009035	8.43700003624
1010.0	0.0009055	8.48399996758
1010.0	0.0009078	8.5150001049
1010.0	0.0009105	8.56200003624
1010.0	0.0009135	8.60899996758
1010.0	0.0009153	8.6400001049
1010.0	0.000916	8.68700003624
1010.0	0.0009155	8.71799993515
1010.0	0.000915	8.7650001049
1010.0	0.0009155	8.81200003624
1010.0	0.000916	8.84299993515
1010.0	0.0009153	8.8900001049
1010.0	0.0009153	8.93700003624
1010.0	0.000916	8.96799993515
1010.0	0.000916	9.0150001049
1010.0	0.0009153	9.04699993134
1010.0	0.0009153	9.09299993515
1010.0	0.000915	9.1400001049
1010.0	0.0009143	9.17199993134
1010.0	0.000913	9.21799993515
1010.0	0.0009128	9.2650001049
1010.0	0.000913	9.29699993134
1010.0	0.0009125	9.34299993515
1010.0	0.0009135	9.375
1010.0	0.000914	9.42199993134
1010.0	0.0009153	9.46799993515
1010.0	0.0009153	9.5150001049
1010.0	0.0009143	9.54699993134
1010.0	0.0009128	9.59299993515
1010.0	0.0009118	9.625
1010.0	0.0009125	9.67199993134
1010.0	0.0009125	9.71799993515
1010.0	0.0009125	9.75
1010.0	0.000913	9.79699993134
1010.0	0.0009143	9.84299993515
1010.0	0.0009148	9.875
1020.0	0.0009278	10.1560001373
1020.0	0.00093	10.2030000687
1020.0	0.0009323	10.2339999676
1020.0	0.0009335	10.2810001373
1020.0	0.000934	10.3280000687
1020.0	0.0009338	10.3589999676
1020.0	0.0009335	10.4060001373
1020.0	0.000934	10.4530000687
1020.0	0.0009348	10.4839999676
1020.0	0.0009353	10.5310001373
1020.0	0.0009373	10.5620000362
1020.0	0.000939	10.6089999676
1020.0	0.000939	10.6560001373
1020.0	0.000938	10.6870000362
1020.0	0.0009385	10.7339999676
1020.0	0.00094	10.7810001373
1020.0	0.0009413	10.8120000362
1020.0	0.0009418	10.8589999676
1020.0	0.0009413	10.8900001049
1020.0	0.0009403	10.9370000362
1020.0	0.0009398	10.9839999676
1020.0	0.0009398	11.0150001049
1020.0	0.000939	11.0620000362
1020.0	0.0009393	11.1089999676
1020.0	0.0009398	11.1400001049
1020.0	0.0009398	11.1870000362
1020.0	0.0009405	11.2339999676
1020.0	0.0009415	11.2650001049
1020.0	0.0009415	11.3120000362
1020.0	0.0009418	11.3429999352
1020.0	0.0009423	11.3900001049
1020.0	0.0009405	11.4370000362
1020.0	0.00094	11.4679999352
1020.0	0.0009403	11.5150001049
1020.0	0.0009403	11.5620000362
1020.0	0.00094	11.5929999352
1020.0	0.00094	11.6400001049
1030.0	0.0009498	11.9219999313
1030.0	0.0009538	11.9679999352
1030.0	0.0009565	12.0
1030.0	0.0009578	12.0469999313
1030.0	0.000958	12.0780000687
1030.0	0.000958	12.125
1030.0	0.0009578	12.1719999313
1030.0	0.000958	12.2030000687
1030.0	0.0009575	12.25
1030.0	0.0009575	12.2969999313
1030.0	0.0009575	12.3280000687
1030.0	0.0009573	12.375
1030.0	0.0009568	12.4219999313
1030.0	0.0009578	12.4530000687
1030.0	0.000959	12.5
1030.0	0.0009593	12.5469999313
1030.0	0.00096	12.5780000687
1030.0	0.0009615	12.625
1030.0	0.0009615	12.6719999313
1030.0	0.0009613	12.7030000687
1030.0	0.0009613	12.75
1030.0	0.0009605	12.7810001373
1030.0	0.000961	12.8280000687
1030.0	0.0009613	12.875
1030.0	0.0009623	12.9060001373
1030.0	0.0009623	12.9530000687
1030.0	0.0009623	13.0
1030.0	0.0009613	13.0310001373
1030.0	0.0009593	13.0780000687
1030.0	0.0009575	13.1089999676
1030.0	0.0009555	13.1560001373
1030.0	0.000955	13.2030000687
1030.0	0.0009563	13.2339999676
1030.0	0.0009578	13.2810001373
1030.0	0.0009585	13.3280000687
1030.0	0.0009588	13.3589999676
1030.0	0.0009603	13.4060001373
1040.0	0.0009685	13.6870000362
1040.0	0.0009715	13.7339999676
1040.0	0.000974	13.7650001049
1040.0	0.0009773	13.8120000362
1040.0	0.0009788	13.8429999352
1040.0	0.00098	13.8900001049
1040.0	0.0009813	13.9370000362
1040.0	0.0009823	13.9679999352
1040.0	0.0009823	14.0150001049
1040.0	0.0009828	14.0620000362
1040.0	0.0009835	14.0929999352
1040.0	0.0009838	14.1400001049
1040.0	0.000984	14.1719999313
1040.0	0.0009838	14.2179999352
1040.0	0.000984	14.2650001049
1040.0	0.0009843	14.2969999313
1040.0	0.000984	14.3429999352
1040.0	0.0009835	14.3900001049
1040.0	0.0009835	14.4219999313
1040.0	0.0009835	14.4679999352
1040.0	0.000983	14.5
1040.0	0.0009825	14.5469999313
1040.0	0.0009823	14.5929999352
1040.0	0.0009825	14.625
1040.0	0.0009823	14.6719999313
1040.0	0.0009835	14.7179999352
1040.0	0.000984	14.75
1040.0	0.0009835	14.7969999313
1040.0	0.000984	14.8429999352
1040.0	0.0009848	14.875
1040.0	0.000985	14.9219999313
1040.0	0.0009843	14.9530000687
1040.0	0.0009848	15.0
1040.0	0.000985	15.0469999313
1040.0	0.000986	15.0929999352
1040.0	0.0009865	15.125
1040.0	0.000986	15.1719999313
1050.0	0.0009903	15.4530000687
1050.0	0.0009935	15.4839999676
1050.0	0.0009975	15.5310001373
1050.0	0.0009988	15.5780000687
1050.0	0.0009998	15.6089999676
1050.0	0.0010015	15.6560001373
1050.0	0.0010035	15.6870000362
1050.0	0.0010048	15.7339999676
1050.0	0.001006	15.7810001373
1050.0	0.0010065	15.8120000362
1050.0	0.0010055	15.8589999676
1050.0	0.001005	15.9060001373
1050.0	0.001005	15.9370000362
1050.0	0.0010043	15.9839999676
1050.0	0.0010048	16.0310001373
1050.0	0.0010048	16.0620000362
1050.0	0.0010043	16.1089999676
1050.0	0.0010035	16.1560001373
1050.0	0.0010035	16.1870000362
1050.0	0.001003	16.2339999676
1050.0	0.0010028	16.2810001373
1050.0	0.0010035	16.3120000362
1050.0	0.001004	16.3589999676
1050.0	0.0010038	16.4060001373
1050.0	0.0010028	16.4370000362
1050.0	0.0010025	16.4839999676
1050.0	0.0010035	16.5310001373
1050.0	0.0010038	16.5620000362
1050.0	0.0010048	16.6089999676
1050.0	0.0010048	16.6400001049
1050.0	0.001005	16.6870000362
1050.0	0.0010043	16.7339999676
1050.0	0.0010035	16.7650001049
1050.0	0.0010025	16.8120000362
1050.0	0.0010015	16.8589999676
1050.0	0.001001	16.8900001049
1050.0	0.0010003	16.9370000362
1060.0	0.0010115	17.2179999352
1060.0	0.0010135	17.25
1060.0	0.0010143	17.2969999313
1060.0	0.001016	17.3429999352
1060.0	0.0010175	17.375
1060.0	0.0010198	17.4219999313
1060.0	0.0010205	17.4679999352
1060.0	0.0010223	17.5
1060.0	0.0010235	17.5469999313
1060.0	0.001024	17.5780000687
1060.0	0.001025	17.625
1060.0	0.0010263	17.6719999313
1060.0	0.0010255	17.7030000687
1060.0	0.0010248	17.75
1060.0	0.0010243	17.7969999313
1060.0	0.0010243	17.8280000687
1060.0	0.001024	17.875
1060.0	0.0010253	17.9060001373
1060.0	0.0010253	17.9530000687
1060.0	0.0010253	18.0
1060.0	0.0010243	18.0310001373
1060.0	0.0010238	18.0780000687
1060.0	0.0010248	18.125
1060.0	0.0010253	18.1560001373
1060.0	0.0010248	18.2030000687
1060.0	0.001024	18.25
1060.0	0.0010228	18.2810001373
1060.0	0.001021	18.3280000687
1060.0	0.0010193	18.375
1060.0	0.0010193	18.4060001373
1060.0	0.0010203	18.4530000687
1060.0	0.0010213	18.5
1060.0	0.001021	18.5310001373
1060.0	0.0010213	18.5780000687
1060.0	0.0010223	18.625
1060.0	0.0010215	18.6560001373
1060.0	0.0010218	18.7030000687
1070.0	0.0010248	18.9839999676
1070.0	0.0010273	19.0150001049
1070.0	0.00103	19.0620000362
1070.0	0.001031	19.1089999676
1070.0	0.0010318	19.1400001049
1070.0	0.0010323	19.1870000362
1070.0	0.0010335	19.2339999676
1070.0	0.001035	19.2650001049
1070.0	0.001036	19.3120000362
1070.0	0.0010368	19.3429999352
1070.0	0.0010365	19.3900001049
1070.0	0.0010353	19.4370000362
1070.0	0.0010343	19.4679999352
1070.0	0.0010335	19.5150001049
1070.0	0.001034	19.5620000362
1070.0	0.0010343	19.5929999352
1070.0	0.0010353	19.6400001049
1070.0	0.0010373	19.6719999313
1070.0	0.0010375	19.7179999352
1070.0	0.0010373	19.7650001049
1070.0	0.0010363	19.7969999313
1070.0	0.001035	19.8429999352
1070.0	0.0010343	19.8900001049
1070.0	0.0010348	19.9219999313
1070.0	0.0010343	19.9679999352
1070.0	0.0010328	20.0
1070.0	0.0010328	20.0469999313
1070.0	0.001034	20.0929999352
1070.0	0.0010348	20.125
1070.0	0.001035	20.1719999313
1070.0	0.0010353	20.2179999352
1070.0	0.0010348	20.25
1070.0	0.0010338	20.2969999313
1070.0	0.0010335	20.3429999352
1070.0	0.0010335	20.375
1070.0	0.0010328	20.4219999313
1070.0	0.0010323	20.4679999352
1080.0	0.0010393	20.75
1080.0	0.001041	20.7810001373
1080.0	0.0010425	20.8280000687
1080.0	0.0010435	20.8589999676
1080.0	0.0010435	20.9060001373
1080.0	0.0010438	20.9530000687
1080.0	0.0010443	20.9839999676
1080.0	0.001045	21.0310001373
1080.0	0.0010453	21.0780000687
1080.0	0.0010453	21.1089999676
1080.0	0.0010465	21.1560001373
1080.0	0.0010465	21.1870000362
1080.0	0.001046	21.2339999676
1080.0	0.0010463	21.2810001373
1080.0	0.0010453	21.3120000362
1080.0	0.0010448	21.3589999676
1080.0	0.0010435	21.4060001373
1080.0	0.0010423	21.4370000362
1080.0	0.0010415	21.4839999676
1080.0	0.001041	21.5310001373
1080.0	0.001041	21.5620000362
1080.0	0.0010415	21.6089999676
1080.0	0.001043	21.6400001049
1080.0	0.001043	21.6870000362
1080.0	0.0010415	21.7339999676
1080.0	0.0010415	21.7650001049
1080.0	0.0010423	21.8120000362
1080.0	0.0010415	21.8589999676
1080.0	0.0010413	21.8900001049
1080.0	0.0010398	21.9370000362
1080.0	0.0010385	21.9679999352
1080.0	0.0010375	22.0150001049
1080.0	0.0010378	22.0620000362
1080.0	0.001039	22.0929999352
1080.0	0.001039	22.1400001049
1080.0	0.0010385	22.1870000362
1080.0	0.0010378	22.2179999352
1090.0	0.001045	22.5
1090.0	0.0010443	22.5310001373
1090.0	0.0010443	22.5780000687
1090.0	0.001044	22.625
1090.0	0.0010443	22.6560001373
1090.0	0.0010448	22.7030000687
1090.0	0.0010443	22.75
1090.0	0.0010448	22.7810001373
1090.0	0.0010448	22.8280000687
1090.0	0.0010443	22.875
1090.0	0.0010448	22.9060001373
1090.0	0.001046	22.9530000687
1090.0	0.0010465	23.0
1090.0	0.0010463	23.0310001373
1090.0	0.001045	23.0780000687
1090.0	0.001043	23.1089999676
1090.0	0.0010428	23.1560001373
1090.0	0.0010425	23.2030000687
1090.0	0.001044	23.2339999676
1090.0	0.0010453	23.2810001373
1090.0	0.0010463	23.3280000687
1090.0	0.0010475	23.3589999676
1090.0	0.0010488	23.4060001373
1090.0	0.0010478	23.4530000687
1090.0	0.0010475	23.4839999676
1090.0	0.0010465	23.5310001373
1090.0	0.0010465	23.5620000362
1090.0	0.0010465	23.6089999676
1090.0	0.0010468	23.6560001373
1090.0	0.0010468	23.6870000362
1090.0	0.0010455	23.7339999676
1090.0	0.0010463	23.7810001373
1090.0	0.0010475	23.8120000362
1090.0	0.0010465	23.8589999676
1090.0	0.0010465	23.9060001373
1090.0	0.0010465	23.9530000687
1100.0	0.0010423	24.2179999352
1100.0	0.001041	24.2650001049
1100.0	0.0010398	24.2969999313
1100.0	0.0010398	24.3429999352
1100.0	0.0010403	24.375
1100.0	0.0010398	24.4219999313
1100.0	0.0010385	24.4679999352
1100.0	0.001038	24.5
1100.0	0.0010375	24.5469999313
1100.0	0.001038	24.5929999352
1100.0	0.0010403	24.625
1100.0	0.0010415	24.6719999313
1100.0	0.0010418	24.7179999352
1100.0	0.0010425	24.75
1100.0	0.0010428	24.7969999313
1100.0	0.0010413	24.8429999352
1100.0	0.0010413	24.875
1100.0	0.0010413	24.9219999313
1100.0	0.0010403	24.9679999352
1100.0	0.0010398	25.0
1100.0	0.0010398	25.0469999313
1100.0	0.0010393	25.0929999352
1100.0	0.001039	25.125
1100.0	0.001039	25.1719999313
1100.0	0.0010398	25.2179999352
1100.0	0.0010405	25.25
1100.0	0.0010403	25.2969999313
1100.0	0.001039	25.3429999352
1100.0	0.001039	25.375
1100.0	0.001039	25.4219999313
1100.0	0.001039	25.4679999352
1100.0	0.0010403	25.5
1100.0	0.0010418	25.5469999313
1100.0	0.0010425	25.5780000687
1100.0	0.001043	25.625
1100.0	0.001043	25.6719999313
1110.0	0.001036	25.9370000362
1110.0	0.0010353	25.9839999676
1110.0	0.001034	26.0150001049
1110.0	0.0010318	26.0620000362
1110.0	0.001031	26.1089999676
1110.0	0.001031	26.1400001049
1110.0	0.0010303	26.1870000362
1110.0	0.0010288	26.2179999352
1110.0	0.0010278	26.2650001049
1110.0	0.0010288	26.3120000362
1110.0	0.001029	26.3429999352
1110.0	0.0010303	26.3900001049
1110.0	0.0010298	26.4370000362
1110.0	0.001029	26.4679999352
1110.0	0.0010305	26.5150001049
1110.0	0.001031	26.5620000362
1110.0	0.001031	26.5929999352
1110.0	0.0010323	26.6400001049
1110.0	0.0010318	26.6719999313
1110.0	0.0010318	26.7179999352
1110.0	0.0010315	26.7650001049
1110.0	0.001031	26.7969999313
1110.0	0.0010305	26.8429999352
1110.0	0.0010305	26.8900001049
1110.0	0.001031	26.9219999313
1110.0	0.0010305	26.9679999352
1110.0	0.0010305	27.0150001049
1110.0	0.0010298	27.0469999313
1110.0	0.0010298	27.0929999352
1110.0	0.0010298	27.1400001049
1110.0	0.0010298	27.1719999313
1110.0	0.001029	27.2179999352
1110.0	0.0010298	27.2650001049
1110.0	0.0010288	27.3120000362
1110.0	0.0010285	27.3429999352
1110.0	0.0010268	27.3900001049
1120.0	0.0010228	27.6560001373
1120.0	0.0010223	27.7030000687
1120.0	0.0010223	27.7339999676
1120.0	0.0010203	27.7810001373
1120.0	0.0010178	27.8120000362
1120.0	0.001016	27.8589999676
1120.0	0.0010148	27.9060001373
1120.0	0.001013	27.9370000362
1120.0	0.0010118	27.9839999676
1120.0	0.0010118	28.0310001373
1120.0	0.0010115	28.0620000362
1120.0	0.0010118	28.1089999676
1120.0	0.0010118	28.1400001049
1120.0	0.0010115	28.1870000362
1120.0	0.0010123	28.2339999676
1120.0	0.0010138	28.2650001049
1120.0	0.001014	28.3120000362
1120.0	0.0010135	28.3589999676
1120.0	0.0010138	28.3900001049
1120.0	0.0010148	28.4370000362
1120.0	0.0010163	28.4839999676
1120.0	0.0010178	28.5150001049
1120.0	0.0010173	28.5620000362
1120.0	0.0010163	28.5929999352
1120.0	0.0010165	28.6400001049
1120.0	0.0010155	28.6870000362
1120.0	0.001014	28.7179999352
1120.0	0.0010138	28.7650001049
1120.0	0.0010128	28.7969999313
1120.0	0.00101	28.8429999352
1120.0	0.001008	28.8900001049
1120.0	0.0010075	28.9219999313
1120.0	0.0010075	28.9679999352
1120.0	0.0010078	29.0150001049
1120.0	0.0010078	29.0469999313
1120.0	0.0010098	29.0929999352
1120.0	0.0010103	29.1400001049
1130.0	0.001004	29.4060001373
1130.0	0.0010025	29.4370000362
1130.0	0.0010023	29.4839999676
1130.0	0.0010013	29.5310001373
1130.0	0.001	29.5620000362
1130.0	0.0009985	29.6089999676
1130.0	0.000995	29.6400001049
1130.0	0.0009938	29.6870000362
1130.0	0.000994	29.7339999676
1130.0	0.0009955	29.7650001049
1130.0	0.000996	29.8120000362
1130.0	0.0009938	29.8589999676
1130.0	0.0009915	29.8900001049
1130.0	0.0009915	29.9370000362
1130.0	0.0009923	29.9839999676
1130.0	0.0009918	30.0150001049
1130.0	0.0009925	30.0620000362
1130.0	0.0009925	30.0929999352
1130.0	0.0009925	30.1400001049
1130.0	0.0009935	30.1870000362
1130.0	0.0009935	30.2179999352
1130.0	0.0009923	30.2650001049
1130.0	0.0009915	30.2969999313
1130.0	0.0009925	30.3429999352
1130.0	0.0009928	30.3900001049
1130.0	0.000994	30.4219999313
1130.0	0.0009953	30.4679999352
1130.0	0.0009965	30.5150001049
1130.0	0.0009968	30.5469999313
1130.0	0.0009975	30.5929999352
1130.0	0.0009965	30.6400001049
1130.0	0.0009965	30.6719999313
1130.0	0.0009965	30.7179999352
1130.0	0.0009948	30.7650001049
1130.0	0.0009953	30.8120000362
1130.0	0.000996	30.8429999352
1130.0	0.0009938	30.8900001049
1140.0	0.0009838	31.1560001373
1140.0	0.000981	31.2030000687
1140.0	0.0009803	31.2339999676
1140.0	0.0009813	31.2810001373
1140.0	0.0009818	31.3120000362
1140.0	0.0009803	31.3589999676
1140.0	0.000979	31.4060001373
1140.0	0.0009785	31.4530000687
1140.0	0.0009773	31.4839999676
1140.0	0.0009773	31.5310001373
1140.0	0.0009778	31.5620000362
1140.0	0.0009775	31.6089999676
1140.0	0.0009785	31.6560001373
1140.0	0.0009773	31.6870000362
1140.0	0.0009765	31.7339999676
1140.0	0.0009755	31.7810001373
1140.0	0.000973	31.8120000362
1140.0	0.000971	31.8589999676
1140.0	0.0009703	31.9060001373
1140.0	0.00097	31.9370000362
1140.0	0.00097	31.9839999676
1140.0	0.00097	32.0150001049
1140.0	0.0009705	32.0620000362
1140.0	0.0009713	32.1089999676
1140.0	0.0009715	32.1400001049
1140.0	0.0009725	32.1870000362
1140.0	0.0009723	32.2339999676
1140.0	0.0009703	32.2650001049
1140.0	0.0009705	32.3120000362
1140.0	0.0009715	32.3429999352
1140.0	0.0009725	32.3900001049
1140.0	0.0009715	32.4370000362
1140.0	0.0009728	32.4679999352
1140.0	0.0009735	32.5150001049
1140.0	0.0009755	32.5620000362
1140.0	0.0009755	32.5929999352
1140.0	0.000975	32.6400001049
1150.0	0.0009653	32.9060001373
1150.0	0.0009623	32.9530000687
1150.0	0.000958	32.9839999676
1150.0	0.0009553	33.0310001373
1150.0	0.0009535	33.0780000687
1150.0	0.0009525	33.1089999676
1150.0	0.0009525	33.1560001373
1150.0	0.0009518	33.2030000687
1150.0	0.0009498	33.2339999676
1150.0	0.000949	33.2810001373
1150.0	0.0009488	33.3280000687
1150.0	0.0009493	33.3589999676
1150.0	0.00095	33.4060001373
1150.0	0.0009513	33.4530000687
1150.0	0.0009515	33.4839999676
1150.0	0.0009503	33.5310001373
1150.0	0.000949	33.5780000687
1150.0	0.0009475	33.6089999676
1150.0	0.0009463	33.6560001373
1150.0	0.0009463	33.7030000687
1150.0	0.0009465	33.7339999676
1150.0	0.0009473	33.7810001373
1150.0	0.0009465	33.8120000362
1150.0	0.0009465	33.8589999676
1150.0	0.0009465	33.9060001373
1150.0	0.0009473	33.9370000362
1150.0	0.0009485	33.9839999676
1150.0	0.0009488	34.0310001373
1150.0	0.00095	34.0620000362
1150.0	0.0009515	34.1089999676
1150.0	0.000953	34.1560001373
1150.0	0.0009528	34.1870000362
1150.0	0.0009515	34.2339999676
1150.0	0.0009515	34.2650001049
1150.0	0.0009515	34.3120000362
1150.0	0.000951	34.3589999676
1160.0	0.0009413	34.625
1160.0	0.000938	34.6560001373
1160.0	0.000935	34.7030000687
1160.0	0.0009328	34.75
1160.0	0.000931	34.7810001373
1160.0	0.00093	34.8280000687
1160.0	0.0009298	34.875
1160.0	0.0009293	34.9060001373
1160.0	0.0009303	34.9530000687
1160.0	0.0009303	34.9839999676
1160.0	0.0009303	35.0310001373
1160.0	0.000929	35.0780000687
1160.0	0.0009273	35.1089999676
1160.0	0.0009265	35.1560001373
1160.0	0.0009263	35.2030000687
1160.0	0.0009268	35.2339999676
1160.0	0.0009275	35.2810001373
1160.0	0.0009268	35.3120000362
1160.0	0.0009268	35.3589999676
1160.0	0.0009265	35.4060001373
1160.0	0.0009265	35.4370000362
1160.0	0.0009268	35.4839999676
1160.0	0.0009273	35.5310001373
1160.0	0.0009268	35.5620000362
1160.0	0.0009255	35.6089999676
1160.0	0.0009253	35.6400001049
1160.0	0.0009268	35.6870000362
1160.0	0.0009285	35.7339999676
1160.0	0.000929	35.7650001049
1160.0	0.000928	35.8120000362
1160.0	0.000926	35.8589999676
1160.0	0.0009243	35.8900001049
1160.0	0.000924	35.9370000362
1160.0	0.000924	35.9839999676
1160.0	0.0009248	36.0150001049
1160.0	0.0009248	36.0620000362
1160.0	0.000925	36.0929999352
1170.0	0.0009185	36.375
1170.0	0.0009163	36.4060001373
1170.0	0.0009153	36.4530000687
1170.0	0.0009153	36.5
1170.0	0.0009143	36.5310001373
1170.0	0.0009135	36.5780000687
1170.0	0.0009128	36.6089999676
1170.0	0.0009118	36.6560001373
1170.0	0.0009123	36.7030000687
1170.0	0.0009125	36.7339999676
1170.0	0.0009125	36.7810001373
1170.0	0.0009125	36.8280000687
1170.0	0.0009118	36.875
1170.0	0.000911	36.9060001373
1170.0	0.00091	36.9530000687
1170.0	0.0009103	36.9839999676
1170.0	0.000909	37.0310001373
1170.0	0.000909	37.0780000687
1170.0	0.0009085	37.125
1170.0	0.0009075	37.1560001373
1170.0	0.0009068	37.2030000687
1170.0	0.0009053	37.2339999676
1170.0	0.0009048	37.2810001373
1170.0	0.0009053	37.3280000687
1170.0	0.0009055	37.3589999676
1170.0	0.000906	37.4060001373
1170.0	0.0009063	37.4530000687
1170.0	0.0009065	37.4839999676
1170.0	0.0009063	37.5310001373
1170.0	0.000906	37.5780000687
1170.0	0.000906	37.6089999676
1170.0	0.0009063	37.6560001373
1170.0	0.0009063	37.7030000687
1170.0	0.0009065	37.7339999676
1170.0	0.0009075	37.7810001373
1170.0	0.0009078	37.8280000687
1180.0	0.0009005	38.0929999352
1180.0	0.0008993	38.1400001049
1180.0	0.0008968	38.1719999313
1180.0	0.0008955	38.2179999352
1180.0	0.0008953	38.2650001049
1180.0	0.0008955	38.2969999313
1180.0	0.0008963	38.3429999352
1180.0	0.0008963	38.3900001049
1180.0	0.0008953	38.4219999313
1180.0	0.000894	38.4679999352
1180.0	0.000894	38.5
1180.0	0.0008948	38.5469999313
1180.0	0.000895	38.5929999352
1180.0	0.000896	38.625
1180.0	0.0008963	38.6719999313
1180.0	0.000896	38.7179999352
1180.0	0.0008955	38.75
1180.0	0.0008948	38.7969999313
1180.0	0.000894	38.8280000687
1180.0	0.000894	38.875
1180.0	0.0008948	38.9219999313
1180.0	0.000894	38.9530000687
1180.0	0.000894	39.0
1180.0	0.000893	39.0469999313
1180.0	0.0008925	39.0780000687
1180.0	0.000893	39.125
1180.0	0.0008938	39.1560001373
1180.0	0.0008955	39.2030000687
1180.0	0.0008955	39.25
1180.0	0.0008948	39.2810001373
1180.0	0.0008935	39.3280000687
1180.0	0.0008935	39.375
1180.0	0.0008938	39.4060001373
1180.0	0.0008923	39.4530000687
1180.0	0.0008905	39.5
1180.0	0.0008905	39.5310001373
1180.0	0.0008913	39.5780000687
1190.0	0.0008885	39.8429999352
1190.0	0.0008873	39.8900001049
1190.0	0.000886	39.9219999313
1190.0	0.000886	39.9679999352
1190.0	0.0008848	40.0150001049
1190.0	0.0008838	40.0469999313
1190.0	0.0008835	40.0929999352
1190.0	0.0008835	40.125
1190.0	0.0008828	40.1719999313
1190.0	0.0008818	40.2179999352
1190.0	0.0008823	40.25
1190.0	0.0008813	40.2969999313
1190.0	0.0008813	40.3429999352
1190.0	0.0008828	40.375
1190.0	0.0008843	40.4219999313
1190.0	0.0008848	40.4679999352
1190.0	0.0008863	40.5
1190.0	0.000886	40.5469999313
1190.0	0.0008853	40.5780000687
1190.0	0.0008848	40.625
1190.0	0.000884	40.6719999313
1190.0	0.0008835	40.7179999352
1190.0	0.000883	40.75
1190.0	0.0008828	40.7969999313
1190.0	0.0008815	40.8280000687
1190.0	0.000881	40.875
1190.0	0.0008805	40.9219999313
1190.0	0.00088	40.9530000687
1190.0	0.000881	41.0
1190.0	0.0008825	41.0469999313
1190.0	0.0008825	41.0780000687
1190.0	0.0008818	41.125
1190.0	0.0008823	41.1560001373
1190.0	0.000884	41.2030000687
1190.0	0.000885	41.25
1190.0	0.000886	41.2810001373
1190.0	0.000885	41.3280000687
1200.0	0.0008815	41.5929999352
1200.0	0.0008823	41.6400001049
1200.0	0.0008815	41.6870000362
1200.0	0.0008813	41.7179999352
1200.0	0.0008803	41.7650001049
1200.0	0.00088	41.7969999313
1200.0	0.00088	41.8429999352
1200.0	0.0008803	41.8900001049
1200.0	0.0008785	41.9219999313
1200.0	0.0008778	41.9679999352
1200.0	0.000878	42.0150001049
1200.0	0.0008798	42.0469999313
1200.0	0.0008805	42.0929999352
1200.0	0.0008813	42.1400001049
1200.0	0.000881	42.1719999313
1200.0	0.0008798	42.2179999352
1200.0	0.0008785	42.25
1200.0	0.0008788	42.2969999313
1200.0	0.0008785	42.3429999352
1200.0	0.0008778	42.375
1200.0	0.0008788	42.4219999313
1200.0	0.000881	42.4679999352
1200.0	0.0008818	42.5
1200.0	0.0008823	42.5469999313
1200.0	0.000883	42.5780000687
1200.0	0.0008823	42.625
1200.0	0.000881	42.6719999313
1200.0	0.0008798	42.7030000687
1200.0	0.0008775	42.75
1200.0	0.0008768	42.7969999313
1200.0	0.000876	42.8280000687
1200.0	0.000876	42.875
1200.0	0.0008773	42.9060001373
1200.0	0.0008778	42.9530000687
1200.0	0.0008785	43.0
1200.0	0.0008773	43.0310001373
1200.0	0.0008773	43.0780000687
1210.0	0.000879	43.3429999352
1210.0	0.0008798	43.3900001049
1210.0	0.000881	43.4370000362
1210.0	0.0008828	43.4679999352
1210.0	0.0008848	43.5150001049
1210.0	0.0008853	43.5469999313
1210.0	0.0008855	43.5929999352
1210.0	0.000886	43.6400001049
1210.0	0.0008853	43.6719999313
1210.0	0.0008838	43.7179999352
1210.0	0.000883	43.7650001049
1210.0	0.0008838	43.7969999313
1210.0	0.0008828	43.8429999352
1210.0	0.0008818	43.875
1210.0	0.0008823	43.9219999313
1210.0	0.0008828	43.9679999352
1210.0	0.0008823	44.0
1210.0	0.0008828	44.0469999313
1210.0	0.0008823	44.0929999352
1210.0	0.0008818	44.125
1210.0	0.0008823	44.1719999313
1210.0	0.0008823	44.2179999352
1210.0	0.0008813	44.25
1210.0	0.0008798	44.2969999313
1210.0	0.0008798	44.3280000687
1210.0	0.0008798	44.375
1210.0	0.0008793	44.4219999313
1210.0	0.0008803	44.4679999352
1210.0	0.000881	44.5
1210.0	0.0008815	44.5469999313
1210.0	0.0008818	44.5780000687
1210.0	0.0008818	44.625
1210.0	0.0008805	44.6719999313
1210.0	0.0008813	44.7179999352
1210.0	0.0008828	44.75
1210.0	0.0008843	44.7969999313
1210.0	0.0008855	44.8280000687
1220.0	0.0008828	45.1089999676
1220.0	0.000884	45.1400001049
1220.0	0.0008835	45.1870000362
1220.0	0.0008838	45.2179999352
1220.0	0.0008848	45.2650001049
1220.0	0.0008865	45.3120000362
1220.0	0.0008873	45.3429999352
1220.0	0.0008878	45.3900001049
1220.0	0.0008885	45.4370000362
1220.0	0.000889	45.4679999352
1220.0	0.0008888	45.5150001049
1220.0	0.0008888	45.5469999313
1220.0	0.0008885	45.5929999352
1220.0	0.000888	45.6400001049
1220.0	0.0008878	45.6719999313
1220.0	0.0008875	45.7179999352
1220.0	0.0008878	45.7650001049
1220.0	0.0008865	45.8120000362
1220.0	0.0008853	45.8429999352
1220.0	0.0008855	45.8900001049
1220.0	0.000886	45.9219999313
1220.0	0.0008843	45.9679999352
1220.0	0.000883	46.0150001049
1220.0	0.0008823	46.0469999313
1220.0	0.0008828	46.0929999352
1220.0	0.0008825	46.1400001049
1220.0	0.0008823	46.1719999313
1220.0	0.0008823	46.2179999352
1220.0	0.000881	46.25
1220.0	0.0008778	46.2969999313
1220.0	0.0008765	46.3429999352
1220.0	0.000876	46.375
1220.0	0.0008773	46.4219999313
1220.0	0.0008803	46.4679999352
1220.0	0.0008838	46.5
1220.0	0.0008863	46.5469999313
1220.0	0.0008878	46.5929999352
1230.0	0.0008843	46.8589999676
1230.0	0.0008835	46.8900001049
1230.0	0.0008843	46.9370000362
1230.0	0.0008853	46.9839999676
1230.0	0.0008863	47.0150001049
1230.0	0.0008865	47.0620000362
1230.0	0.0008865	47.1089999676
1230.0	0.0008875	47.1400001049
1230.0	0.0008875	47.1870000362
1230.0	0.0008878	47.2339999676
1230.0	0.000889	47.2650001049
1230.0	0.0008893	47.3120000362
1230.0	0.000889	47.3429999352
1230.0	0.000888	47.3900001049
1230.0	0.0008888	47.4370000362
1230.0	0.0008878	47.4679999352
1230.0	0.0008865	47.5150001049
1230.0	0.000885	47.5469999313
1230.0	0.0008843	47.5929999352
1230.0	0.0008848	47.6400001049
1230.0	0.000884	47.6719999313
1230.0	0.0008855	47.7179999352
1230.0	0.0008875	47.7650001049
1230.0	0.00089	47.7969999313
1230.0	0.0008915	47.8429999352
1230.0	0.0008915	47.8900001049
1230.0	0.0008915	47.9219999313
1230.0	0.000893	47.9679999352
1230.0	0.0008938	48.0150001049
1230.0	0.0008953	48.0469999313
1230.0	0.0008963	48.0929999352
1230.0	0.0008955	48.1400001049
1230.0	0.0008948	48.1719999313
1230.0	0.000893	48.2179999352
1230.0	0.000893	48.2650001049
1230.0	0.0008918	48.2969999313
1230.0	0.000891	48.3429999352
1240.0	0.0008905	48.6089999676
1240.0	0.0008923	48.6560001373
1240.0	0.0008935	48.7030000687
1240.0	0.0008935	48.7339999676
1240.0	0.0008943	48.7810001373
1240.0	0.000896	48.8120000362
1240.0	0.0008965	48.8589999676
1240.0	0.0008973	48.9060001373
1240.0	0.0008985	48.9370000362
1240.0	0.000899	48.9839999676
1240.0	0.0009	49.0310001373
1240.0	0.0009018	49.0780000687
1240.0	0.0009028	49.1089999676
1240.0	0.0009023	49.1560001373
1240.0	0.000901	49.1870000362
1240.0	0.0009	49.2339999676
1240.0	0.0008988	49.2810001373
1240.0	0.000898	49.3120000362
1240.0	0.0008985	49.3589999676
1240.0	0.0008978	49.4060001373
1240.0	0.000895	49.4370000362
1240.0	0.0008935	49.4839999676
1240.0	0.0008925	49.5150001049
1240.0	0.0008928	49.5620000362
1240.0	0.000893	49.6089999676
1240.0	0.0008935	49.6400001049
1240.0	0.000893	49.6870000362
1240.0	0.0008928	49.7339999676
1240.0	0.000893	49.7650001049
1240.0	0.0008935	49.8120000362
1240.0	0.0008938	49.8429999352
1240.0	0.0008935	49.8900001049
1240.0	0.0008938	49.9370000362
1240.0	0.000894	49.9679999352
1240.0	0.0008943	50.0150001049
1240.0	0.000895	50.0620000362
1250.0	0.0008953	50.3280000687
1250.0	0.0008963	50.3589999676
1250.0	0.0008965	50.4060001373
1250.0	0.0008955	50.4530000687
1250.0	0.0008955	50.4839999676
1250.0	0.000895	50.5310001373
1250.0	0.0008948	50.5620000362
1250.0	0.0008955	50.6089999676
1250.0	0.0008963	50.6560001373
1250.0	0.0008973	50.6870000362
1250.0	0.0008973	50.7339999676
1250.0	0.0008973	50.7810001373
1250.0	0.0008973	50.8120000362
1250.0	0.0008968	50.8589999676
1250.0	0.0008975	50.9060001373
1250.0	0.0008973	50.9370000362
1250.0	0.0008968	50.9839999676
1250.0	0.0008965	51.0150001049
1250.0	0.0008965	51.0620000362
1250.0	0.0008955	51.1089999676
1250.0	0.000896	51.1560001373
1250.0	0.000895	51.1870000362
1250.0	0.0008943	51.2339999676
1250.0	0.0008948	51.2650001049
1250.0	0.0008943	51.3120000362
1250.0	0.0008953	51.3589999676
1250.0	0.0008953	51.3900001049
1250.0	0.0008955	51.4370000362
1250.0	0.0008968	51.4839999676
1250.0	0.0008973	51.5150001049
1250.0	0.0008965	51.5620000362
1250.0	0.0008965	51.5929999352
1250.0	0.0008973	51.6400001049
1250.0	0.0008975	51.6870000362
1250.0	0.0008968	51.7179999352
1250.0	0.0008965	51.7650001049
1250.0	0.0008968	51.8120000362
1260.0	0.0008998	52.0780000687
1260.0	0.0009	52.125
1260.0	0.0008993	52.1560001373
1260.0	0.000898	52.2030000687
1260.0	0.0008985	52.2339999676
1260.0	0.0008985	52.2810001373
1260.0	0.0008988	52.3280000687
1260.0	0.0009	52.3589999676
1260.0	0.0009013	52.4060001373
1260.0	0.000901	52.4530000687
1260.0	0.0009013	52.4839999676
1260.0	0.0009003	52.5310001373
1260.0	0.0008998	52.5620000362
1260.0	0.0008998	52.6089999676
1260.0	0.0008993	52.6560001373
1260.0	0.000899	52.6870000362
1260.0	0.000899	52.7339999676
1260.0	0.000899	52.7810001373
1260.0	0.000899	52.8120000362
1260.0	0.000899	52.8589999676
1260.0	0.000899	52.9060001373
1260.0	0.0008985	52.9370000362
1260.0	0.0008993	52.9839999676
1260.0	0.0009005	53.0310001373
1260.0	0.0008993	53.0620000362
1260.0	0.000898	53.1089999676
1260.0	0.0008975	53.1560001373
1260.0	0.0008985	53.1870000362
1260.0	0.0009003	53.2339999676
1260.0	0.0009018	53.2650001049
1260.0	0.0009038	53.3120000362
1260.0	0.0009048	53.3589999676
1260.0	0.0009053	53.4060001373
1260.0	0.000906	53.4370000362
1260.0	0.000905	53.4839999676
1260.0	0.0009048	53.5150001049
1260.0	0.0009035	53.5620000362
1270.0	0.0009005	53.8280000687
1270.0	0.000901	53.875
1270.0	0.0009013	53.9219999313
1270.0	0.0009	53.9530000687
1270.0	0.000899	54.0
1270.0	0.0008985	54.0469999313
1270.0	0.000898	54.0780000687
1270.0	0.0008975	54.125
1270.0	0.0008978	54.1560001373
1270.0	0.0008975	54.2030000687
1270.0	0.0008988	54.25
1270.0	0.0009003	54.2810001373
1270.0	0.0009013	54.3280000687
1270.0	0.0009028	54.375
1270.0	0.000903	54.4219999313
1270.0	0.000903	54.4530000687
1270.0	0.000903	54.5
1270.0	0.0009028	54.5310001373
1270.0	0.0009035	54.5780000687
1270.0	0.0009038	54.625
1270.0	0.000904	54.6560001373
1270.0	0.000904	54.7030000687
1270.0	0.000903	54.75
1270.0	0.0009025	54.7810001373
1270.0	0.0009035	54.8280000687
1270.0	0.000904	54.8589999676
1270.0	0.0009048	54.9060001373
1270.0	0.000904	54.9530000687
1270.0	0.0009025	54.9839999676
1270.0	0.000901	55.0310001373
1270.0	0.0009003	55.0780000687
1270.0	0.0008988	55.1089999676
1270.0	0.0008975	55.1560001373
1270.0	0.0008975	55.1870000362
1270.0	0.0008975	55.2339999676
1270.0	0.000898	55.2810001373
1280.0	0.0009005	55.5469999313
1280.0	0.0008998	55.5780000687
1280.0	0.0008998	55.625
1280.0	0.0008993	55.6719999313
1280.0	0.000899	55.7030000687
1280.0	0.000898	55.75
1280.0	0.0008978	55.7969999313
1280.0	0.0008968	55.8280000687
1280.0	0.0008973	55.875
1280.0	0.000898	55.9060001373
1280.0	0.0008985	55.9530000687
1280.0	0.0008993	56.0
1280.0	0.000899	56.0310001373
1280.0	0.0008975	56.0780000687
1280.0	0.0008965	56.125
1280.0	0.0008955	56.1560001373
1280.0	0.0008943	56.2030000687
1280.0	0.0008938	56.2339999676
1280.0	0.000894	56.2810001373
1280.0	0.0008938	56.3280000687
1280.0	0.0008935	56.3589999676
1280.0	0.0008935	56.4060001373
1280.0	0.0008943	56.4530000687
1280.0	0.0008943	56.4839999676
1280.0	0.0008955	56.5310001373
1280.0	0.0008973	56.5780000687
1280.0	0.0008978	56.6089999676
1280.0	0.0008978	56.6560001373
1280.0	0.0008975	56.6870000362
1280.0	0.0008965	56.7339999676
1280.0	0.0008943	56.7810001373
1280.0	0.000894	56.8120000362
1280.0	0.0008935	56.8589999676
1280.0	0.0008935	56.9060001373
1280.0	0.000893	56.9370000362
1280.0	0.0008935	56.9839999676
1280.0	0.0008935	57.0310001373
1290.0	0.00089	57.2969999313
1290.0	0.000889	57.3280000687
1290.0	0.0008888	57.375
1290.0	0.0008878	57.4219999313
1290.0	0.0008868	57.4679999352
1290.0	0.0008863	57.5
1290.0	0.0008865	57.5469999313
1290.0	0.000886	57.5929999352
1290.0	0.0008848	57.625
1290.0	0.0008843	57.6719999313
1290.0	0.0008848	57.7179999352
1290.0	0.0008843	57.75
1290.0	0.0008853	57.7969999313
1290.0	0.000886	57.8280000687
1290.0	0.0008865	57.875
1290.0	0.0008868	57.9219999313
1290.0	0.0008868	57.9530000687
1290.0	0.0008873	58.0
1290.0	0.000888	58.0469999313
1290.0	0.0008888	58.0780000687
1290.0	0.000889	58.125
1290.0	0.0008893	58.1560001373
1290.0	0.0008878	58.2030000687
1290.0	0.000886	58.25
1290.0	0.0008848	58.2810001373
1290.0	0.0008838	58.3280000687
1290.0	0.0008835	58.375
1290.0	0.0008843	58.4060001373
1290.0	0.0008865	58.4530000687
1290.0	0.0008878	58.5
1290.0	0.0008878	58.5310001373
1290.0	0.0008878	58.5780000687
1290.0	0.0008865	58.6089999676
1290.0	0.0008863	58.6560001373
1290.0	0.0008868	58.7030000687
1290.0	0.0008868	58.7339999676
1290.0	0.0008863	58.7810001373
1300.0	0.0008823	59.0469999313
1300.0	0.000881	59.0929999352
1300.0	0.0008798	59.125
1300.0	0.0008785	59.1719999313
1300.0	0.0008765	59.2030000687
1300.0	0.0008755	59.25
1300.0	0.0008755	59.2969999313
1300.0	0.000876	59.3280000687
1300.0	0.0008753	59.375
1300.0	0.0008755	59.4219999313
1300.0	0.000876	59.4530000687
1300.0	0.0008773	59.5
1300.0	0.0008775	59.5469999313
1300.0	0.0008765	59.5780000687
1300.0	0.000876	59.625
1300.0	0.0008755	59.6560001373
1300.0	0.0008753	59.7030000687
1300.0	0.0008738	59.75
1300.0	0.0008728	59.7810001373
1300.0	0.0008723	59.8280000687
1300.0	0.0008725	59.875
1300.0	0.0008723	59.9060001373
1300.0	0.0008718	59.9530000687
1300.0	0.0008715	59.9839999676
1300.0	0.0008718	60.0310001373
1300.0	0.0008713	60.0780000687
1300.0	0.0008718	60.1089999676
1300.0	0.000871	60.1560001373
1300.0	0.0008698	60.2030000687
1300.0	0.0008703	60.25
1300.0	0.000871	60.2810001373
1300.0	0.0008705	60.3280000687
1300.0	0.0008705	60.3589999676
1300.0	0.0008698	60.4060001373
1300.0	0.0008698	60.4530000687
1300.0	0.0008703	60.4839999676
1300.0	0.0008703	60.5310001373
1310.0	0.000859	60.7969999313
1310.0	0.000854	60.8429999352
1310.0	0.0008505	60.875
1310.0	0.0008488	60.9219999313
1310.0	0.0008468	60.9679999352
1310.0	0.0008455	61.0
1310.0	0.0008455	61.0469999313
1310.0	0.0008465	61.0929999352
1310.0	0.0008463	61.125
1310.0	0.0008465	61.1719999313
1310.0	0.0008465	61.2179999352
1310.0	0.0008473	61.25
1310.0	0.0008473	61.2969999313
1310.0	0.0008473	61.3280000687
1310.0	0.0008475	61.375
1310.0	0.000848	61.4219999313
1310.0	0.000848	61.4530000687
1310.0	0.000848	61.5
1310.0	0.000848	61.5469999313
1310.0	0.0008488	61.5780000687
1310.0	0.000848	61.625
1310.0	0.0008468	61.6719999313
1310.0	0.0008463	61.7030000687
1310.0	0.0008465	61.75
1310.0	0.0008455	61.7969999313
1310.0	0.0008453	61.8280000687
1310.0	0.000845	61.875
1310.0	0.0008453	61.9060001373
1310.0	0.0008468	61.9530000687
1310.0	0.000848	62.0
1310.0	0.0008488	62.0310001373
1310.0	0.0008488	62.0780000687
1310.0	0.0008475	62.125
1310.0	0.0008473	62.1560001373
1310.0	0.0008468	62.2030000687
1310.0	0.0008465	62.2339999676
1310.0	0.0008465	62.2810001373
1320.0	0.0008335	62.5469999313
1320.0	0.0008298	62.5929999352
1320.0	0.0008255	62.6400001049
1320.0	0.0008223	62.6719999313
1320.0	0.000818	62.7179999352
1320.0	0.000816	62.7650001049
1320.0	0.0008148	62.7969999313
1320.0	0.0008128	62.8429999352
1320.0	0.0008123	62.875
1320.0	0.0008115	62.9219999313
1320.0	0.0008118	62.9679999352
1320.0	0.0008118	63.0
1320.0	0.0008115	63.0469999313
1320.0	0.0008118	63.0929999352
1320.0	0.000811	63.125
1320.0	0.00081	63.1719999313
1320.0	0.0008103	63.2179999352
1320.0	0.0008113	63.25
1320.0	0.0008113	63.2969999313
1320.0	0.0008115	63.3280000687
1320.0	0.0008115	63.375
1320.0	0.00081	63.4219999313
1320.0	0.0008098	63.4530000687
1320.0	0.0008098	63.5
1320.0	0.00081	63.5469999313
1320.0	0.0008105	63.5780000687
1320.0	0.000811	63.625
1320.0	0.0008115	63.6560001373
1320.0	0.0008118	63.7030000687
1320.0	0.0008125	63.75
1320.0	0.0008128	63.7810001373
1320.0	0.000813	63.8280000687
1320.0	0.0008138	63.875
1320.0	0.0008143	63.9060001373
1320.0	0.0008128	63.9530000687
1320.0	0.0008123	63.9839999676
1320.0	0.0008118	64.0310001373
1330.0	0.000795	64.2969999313
1330.0	0.0007898	64.3429999352
1330.0	0.000786	64.3900001049
1330.0	0.0007818	64.4219999313
1330.0	0.0007798	64.4679999352
1330.0	0.0007773	64.5150001049
1330.0	0.0007743	64.5469999313
1330.0	0.0007728	64.5929999352
1330.0	0.0007725	64.625
1330.0	0.0007715	64.6719999313
1330.0	0.0007705	64.7179999352
1330.0	0.000771	64.75
1330.0	0.000771	64.7969999313
1330.0	0.0007715	64.8429999352
1330.0	0.0007713	64.875
1330.0	0.0007713	64.9219999313
1330.0	0.000771	64.9679999352
1330.0	0.0007698	65.0
1330.0	0.000768	65.0469999313
1330.0	0.0007678	65.0780000687
1330.0	0.0007675	65.125
1330.0	0.0007678	65.1719999313
1330.0	0.0007685	65.2179999352
1330.0	0.000769	65.25
1330.0	0.000769	65.2969999313
1330.0	0.000768	65.3280000687
1330.0	0.0007675	65.375
1330.0	0.0007675	65.4219999313
1330.0	0.0007678	65.4530000687
1330.0	0.0007675	65.5
1330.0	0.0007668	65.5469999313
1330.0	0.0007685	65.5780000687
1330.0	0.0007678	65.625
1330.0	0.0007673	65.6560001373
1330.0	0.0007678	65.7030000687
1330.0	0.0007673	65.75
1330.0	0.0007673	65.7810001373
1340.0	0.0007485	66.0620000362
1340.0	0.0007428	66.0929999352
1340.0	0.0007365	66.1400001049
1340.0	0.0007313	66.1870000362
1340.0	0.0007278	66.2179999352
1340.0	0.000725	66.2650001049
1340.0	0.0007228	66.2969999313
1340.0	0.000721	66.3429999352
1340.0	0.000721	66.3900001049
1340.0	0.000721	66.4219999313
1340.0	0.0007205	66.4679999352
1340.0	0.000721	66.5150001049
1340.0	0.0007213	66.5469999313
1340.0	0.0007213	66.5929999352
1340.0	0.0007203	66.6400001049
1340.0	0.000719	66.6719999313
1340.0	0.0007178	66.7179999352
1340.0	0.0007188	66.7650001049
1340.0	0.0007203	66.7969999313
1340.0	0.0007205	66.8429999352
1340.0	0.0007223	66.8900001049
1340.0	0.0007223	66.9219999313
1340.0	0.00072	66.9679999352
1340.0	0.0007175	67.0
1340.0	0.0007173	67.0469999313
1340.0	0.0007175	67.0929999352
1340.0	0.0007173	67.1400001049
1340.0	0.0007163	67.1719999313
1340.0	0.000716	67.2179999352
1340.0	0.0007153	67.25
1340.0	0.0007155	67.2969999313
1340.0	0.0007155	67.3429999352
1340.0	0.000715	67.375
1340.0	0.000714	67.4219999313
1340.0	0.000714	67.4679999352
1340.0	0.0007128	67.5
1340.0	0.0007123	67.5469999313
1350.0	0.0006935	67.8120000362
1350.0	0.0006873	67.8589999676
1350.0	0.0006818	67.8900001049
1350.0	0.0006768	67.9370000362
1350.0	0.0006735	67.9679999352
1350.0	0.00067	68.0150001049
1350.0	0.0006678	68.0620000362
1350.0	0.0006655	68.0929999352
1350.0	0.0006635	68.1400001049
1350.0	0.0006615	68.1870000362
1350.0	0.0006605	68.2179999352
1350.0	0.0006623	68.2650001049
1350.0	0.0006628	68.2969999313
1350.0	0.0006623	68.3429999352
1350.0	0.0006625	68.3900001049
1350.0	0.0006628	68.4219999313
1350.0	0.0006615	68.4679999352
1350.0	0.0006603	68.5150001049
1350.0	0.00066	68.5469999313
1350.0	0.000659	68.5929999352
1350.0	0.000659	68.6400001049
1350.0	0.0006603	68.6719999313
1350.0	0.0006613	68.7179999352
1350.0	0.0006618	68.75
1350.0	0.0006625	68.7969999313
1350.0	0.0006618	68.8429999352
1350.0	0.0006603	68.875
1350.0	0.0006588	68.9219999313
1350.0	0.0006578	68.9679999352
1350.0	0.0006565	69.0
1350.0	0.0006548	69.0469999313
1350.0	0.0006543	69.0780000687
1350.0	0.000653	69.125
1350.0	0.0006523	69.1719999313
1350.0	0.0006515	69.2030000687
1350.0	0.0006503	69.25
1350.0	0.0006505	69.2969999313
1360.0	0.0006383	69.5620000362
1360.0	0.000632	69.5929999352
1360.0	0.0006265	69.6400001049
1360.0	0.0006225	69.6870000362
1360.0	0.000618	69.7179999352
1360.0	0.000615	69.7650001049
1360.0	0.0006125	69.8120000362
1360.0	0.0006108	69.8429999352
1360.0	0.000609	69.8900001049
1360.0	0.000608	69.9370000362
1360.0	0.0006078	69.9679999352
1360.0	0.0006065	70.0150001049
1360.0	0.0006068	70.0469999313
1360.0	0.0006065	70.0929999352
1360.0	0.0006055	70.1400001049
1360.0	0.0006065	70.1719999313
1360.0	0.0006068	70.2179999352
1360.0	0.0006058	70.2650001049
1360.0	0.0006045	70.2969999313
1360.0	0.0006038	70.3429999352
1360.0	0.0006028	70.375
1360.0	0.0006015	70.4219999313
1360.0	0.0006018	70.4679999352
1360.0	0.0006025	70.5150001049
1360.0	0.000603	70.5469999313
1360.0	0.000604	70.5929999352
1360.0	0.0006033	70.6400001049
1360.0	0.0006033	70.6719999313
1360.0	0.000603	70.7179999352
1360.0	0.0006038	70.75
1360.0	0.0006043	70.7969999313
1360.0	0.0006055	70.8429999352
1360.0	0.0006055	70.875
1360.0	0.0006055	70.9219999313
1360.0	0.0006053	70.9679999352
1360.0	0.0006055	71.0
1360.0	0.000605	71.0469999313
1370.0	0.0005918	71.3120000362
1370.0	0.000587	71.3589999676
1370.0	0.0005818	71.3900001049
1370.0	0.0005768	71.4370000362
1370.0	0.000572	71.4679999352
1370.0	0.0005693	71.5150001049
1370.0	0.0005658	71.5620000362
1370.0	0.000563	71.6089999676
1370.0	0.0005615	71.6400001049
1370.0	0.0005608	71.6870000362
1370.0	0.0005615	71.7179999352
1370.0	0.0005613	71.7650001049
1370.0	0.0005615	71.8120000362
1370.0	0.000562	71.8429999352
1370.0	0.0005615	71.8900001049
1370.0	0.0005608	71.9370000362
1370.0	0.0005605	71.9679999352
1370.0	0.0005608	72.0150001049
1370.0	0.0005613	72.0469999313
1370.0	0.000562	72.0929999352
1370.0	0.000563	72.1400001049
1370.0	0.0005638	72.1719999313
1370.0	0.000564	72.2179999352
1370.0	0.0005633	72.2650001049
1370.0	0.000563	72.2969999313
1370.0	0.000563	72.3429999352
1370.0	0.0005638	72.375
1370.0	0.0005643	72.4219999313
1370.0	0.0005633	72.4679999352
1370.0	0.0005618	72.5
1370.0	0.0005603	72.5469999313
1370.0	0.0005583	72.5929999352
1370.0	0.0005583	72.625
1370.0	0.0005583	72.6719999313
1370.0	0.00056	72.7179999352
1370.0	0.0005613	72.75
1370.0	0.0005613	72.7969999313
1380.0	0.0005493	73.0620000362
1380.0	0.0005468	73.1089999676
1380.0	0.0005428	73.1400001049
1380.0	0.00054	73.1870000362
1380.0	0.0005378	73.2179999352
1380.0	0.0005358	73.2650001049
1380.0	0.000533	73.3120000362
1380.0	0.0005315	73.3429999352
1380.0	0.00053	73.3900001049
1380.0	0.0005295	73.4370000362
1380.0	0.000529	73.4679999352
1380.0	0.000528	73.5150001049
1380.0	0.0005265	73.5469999313
1380.0	0.0005255	73.5929999352
1380.0	0.0005255	73.6400001049
1380.0	0.0005253	73.6719999313
1380.0	0.0005253	73.7179999352
1380.0	0.0005258	73.7650001049
1380.0	0.0005263	73.7969999313
1380.0	0.0005245	73.8429999352
1380.0	0.0005233	73.8900001049
1380.0	0.0005225	73.9219999313
1380.0	0.0005215	73.9679999352
1380.0	0.0005213	74.0150001049
1380.0	0.0005205	74.0469999313
1380.0	0.0005215	74.0929999352
1380.0	0.000522	74.125
1380.0	0.0005228	74.1719999313
1380.0	0.000523	74.2179999352
1380.0	0.0005243	74.25
1380.0	0.0005255	74.2969999313
1380.0	0.0005243	74.3429999352
1380.0	0.0005233	74.375
1380.0	0.0005233	74.4219999313
1380.0	0.000524	74.4530000687
1380.0	0.0005253	74.5
1380.0	0.0005263	74.5469999313
1390.0	0.000514	74.8120000362
1390.0	0.0005105	74.8589999676
1390.0	0.000508	74.8900001049
1390.0	0.0005055	74.9370000362
1390.0	0.0005043	74.9839999676
1390.0	0.000504	75.0150001049
1390.0	0.0005028	75.0620000362
1390.0	0.0005015	75.1089999676
1390.0	0.0005	75.1400001049
1390.0	0.0004983	75.1870000362
1390.0	0.0004975	75.2179999352
1390.0	0.000497	75.2650001049
1390.0	0.0004978	75.3120000362
1390.0	0.0004975	75.3429999352
1390.0	0.0004975	75.3900001049
1390.0	0.000497	75.4370000362
1390.0	0.000498	75.4679999352
1390.0	0.0004993	75.5150001049
1390.0	0.0005003	75.5469999313
1390.0	0.0005008	75.5929999352
1390.0	0.0005008	75.6400001049
1390.0	0.0005003	75.6719999313
1390.0	0.0004988	75.7179999352
1390.0	0.0004975	75.7650001049
1390.0	0.0004978	75.7969999313
1390.0	0.000499	75.8429999352
1390.0	0.0005003	75.875
1390.0	0.0005008	75.9219999313
1390.0	0.000502	75.9679999352
1390.0	0.0005013	76.0
1390.0	0.000502	76.0469999313
1390.0	0.0005028	76.0929999352
1390.0	0.0005033	76.125
1390.0	0.0005038	76.1719999313
1390.0	0.0005043	76.2179999352
1390.0	0.000504	76.25
1390.0	0.0005033	76.2969999313
1400.0	0.0004918	76.5620000362
1400.0	0.00049	76.5929999352
1400.0	0.0004893	76.6400001049
1400.0	0.0004883	76.6870000362
1400.0	0.0004863	76.7179999352
1400.0	0.0004843	76.7650001049
1400.0	0.000483	76.8120000362
1400.0	0.000484	76.8429999352
1400.0	0.0004845	76.8900001049
1400.0	0.0004845	76.9219999313
1400.0	0.0004853	76.9679999352
1400.0	0.0004853	77.0150001049
1400.0	0.000484	77.0469999313
1400.0	0.0004825	77.0929999352
1400.0	0.000482	77.1400001049
1400.0	0.0004828	77.1719999313
1400.0	0.0004825	77.2179999352
1400.0	0.000482	77.2650001049
1400.0	0.000483	77.2969999313
1400.0	0.0004838	77.3429999352
1400.0	0.0004843	77.3900001049
1400.0	0.0004855	77.4219999313
1400.0	0.0004863	77.4679999352
1400.0	0.000485	77.5150001049
1400.0	0.000485	77.5469999313
1400.0	0.0004858	77.5929999352
1400.0	0.0004858	77.6400001049
1400.0	0.0004863	77.6719999313
1400.0	0.0004858	77.7179999352
1400.0	0.0004855	77.7650001049
1400.0	0.0004853	77.7969999313
1400.0	0.0004858	77.8429999352
1400.0	0.0004855	77.875
1400.0	0.0004853	77.9219999313
1400.0	0.0004855	77.9679999352
1400.0	0.0004845	78.0
1400.0	0.0004838	78.0469999313
1410.0	0.0004808	78.3120000362
1410.0	0.0004805	78.3589999676
1410.0	0.0004788	78.3900001049
1410.0	0.000477	78.4370000362
1410.0	0.0004755	78.4839999676
1410.0	0.0004743	78.5150001049
1410.0	0.0004738	78.5620000362
1410.0	0.0004743	78.5929999352
1410.0	0.0004745	78.6400001049
1410.0	0.0004745	78.6870000362
1410.0	0.0004743	78.7179999352
1410.0	0.000474	78.7650001049
1410.0	0.0004743	78.8120000362
1410.0	0.0004745	78.8429999352
1410.0	0.0004745	78.8900001049
1410.0	0.0004743	78.9219999313
1410.0	0.0004743	78.9679999352
1410.0	0.0004753	79.0150001049
1410.0	0.0004753	79.0469999313
1410.0	0.0004745	79.0929999352
1410.0	0.0004738	79.1400001049
1410.0	0.0004733	79.1719999313
1410.0	0.000474	79.2179999352
1410.0	0.0004743	79.2650001049
1410.0	0.0004738	79.2969999313
1410.0	0.0004743	79.3429999352
1410.0	0.0004755	79.3900001049
1410.0	0.0004768	79.4219999313
1410.0	0.0004775	79.4679999352
1410.0	0.0004778	79.5150001049
1410.0	0.0004775	79.5469999313
1410.0	0.000477	79.5929999352
1410.0	0.000478	79.625
1410.0	0.0004778	79.6719999313
1410.0	0.000477	79.7179999352
1410.0	0.000478	79.75
1410.0	0.0004783	79.7969999313
1420.0	0.0004788	80.0620000362
1420.0	0.0004783	80.1089999676
1420.0	0.0004775	80.1400001049
1420.0	0.0004763	80.1870000362
1420.0	0.0004765	80.2339999676
1420.0	0.0004763	80.2650001049
1420.0	0.0004755	80.3120000362
1420.0	0.0004765	80.3429999352
1420.0	0.0004765	80.3900001049
1420.0	0.0004753	80.4370000362
1420.0	0.000475	80.4679999352
1420.0	0.0004753	80.5150001049
1420.0	0.0004755	80.5620000362
1420.0	0.0004753	80.5929999352
1420.0	0.0004745	80.6400001049
1420.0	0.0004743	80.6870000362
1420.0	0.0004755	80.7179999352
1420.0	0.0004763	80.7650001049
1420.0	0.0004763	80.7969999313
1420.0	0.0004763	80.8429999352
1420.0	0.0004755	80.8900001049
1420.0	0.0004745	80.9219999313
1420.0	0.0004745	80.9679999352
1420.0	0.0004753	81.0150001049
1420.0	0.0004763	81.0469999313
1420.0	0.0004768	81.0929999352
1420.0	0.0004765	81.125
1420.0	0.0004763	81.1719999313
1420.0	0.0004755	81.2179999352
1420.0	0.0004765	81.25
1420.0	0.0004778	81.2969999313
1420.0	0.0004775	81.3429999352
1420.0	0.000478	81.375
1420.0	0.0004788	81.4219999313
1420.0	0.000479	81.4530000687
1420.0	0.0004788	81.5
1420.0	0.0004778	81.5469999313
1430.0	0.0004793	81.8120000362
1430.0	0.00048	81.8589999676
1430.0	0.0004805	81.8900001049
1430.0	0.0004818	81.9370000362
1430.0	0.000483	81.9839999676
1430.0	0.000484	82.0150001049
1430.0	0.0004845	82.0620000362
1430.0	0.0004858	82.0929999352
1430.0	0.0004868	82.1400001049
1430.0	0.0004863	82.1870000362
1430.0	0.0004853	82.2179999352
1430.0	0.0004845	82.2650001049
1430.0	0.0004838	82.3120000362
1430.0	0.0004838	82.3429999352
1430.0	0.0004845	82.3900001049
1430.0	0.0004845	82.4219999313
1430.0	0.0004855	82.4679999352
1430.0	0.0004858	82.5150001049
1430.0	0.0004868	82.5469999313
1430.0	0.0004883	82.5929999352
1430.0	0.0004895	82.6400001049
1430.0	0.0004893	82.6719999313
1430.0	0.000489	82.7179999352
1430.0	0.000489	82.7650001049
1430.0	0.0004878	82.7969999313
1430.0	0.0004863	82.8429999352
1430.0	0.0004845	82.875
1430.0	0.000485	82.9219999313
1430.0	0.0004838	82.9679999352
1430.0	0.0004825	83.0
1430.0	0.000483	83.0469999313
1430.0	0.000483	83.0929999352
1430.0	0.0004838	83.125
1430.0	0.0004843	83.1719999313
1430.0	0.0004853	83.2179999352
1430.0	0.0004865	83.25
1430.0	0.000488	83.2969999313
1440.0	0.000488	83.5620000362
1440.0	0.0004878	83.6089999676
1440.0	0.0004875	83.6400001049
1440.0	0.0004888	83.6870000362
1440.0	0.0004903	83.7339999676
1440.0	0.0004913	83.7650001049
1440.0	0.0004925	83.8120000362
1440.0	0.0004925	83.8429999352
1440.0	0.000494	83.8900001049
1440.0	0.0004945	83.9370000362
1440.0	0.000495	83.9679999352
1440.0	0.000495	84.0150001049
1440.0	0.0004945	84.0620000362
1440.0	0.000495	84.0929999352
1440.0	0.0004945	84.1400001049
1440.0	0.000495	84.1719999313
1440.0	0.0004953	84.2179999352
1440.0	0.0004953	84.2650001049
1440.0	0.0004958	84.2969999313
1440.0	0.0004955	84.3429999352
1440.0	0.0004945	84.3900001049
1440.0	0.0004938	84.4219999313
1440.0	0.000493	84.4679999352
1440.0	0.0004933	84.5
1440.0	0.000495	84.5469999313
1440.0	0.0004953	84.5929999352
1440.0	0.0004945	84.625
1440.0	0.000494	84.6719999313
1440.0	0.0004938	84.7179999352
1440.0	0.0004938	84.75
1440.0	0.000495	84.7969999313
1440.0	0.0004945	84.8429999352
1440.0	0.0004943	84.875
1440.0	0.000493	84.9219999313
1440.0	0.000493	84.9530000687
1440.0	0.0004925	85.0
1440.0	0.0004938	85.0469999313
1450.0	0.0005003	85.3120000362
1450.0	0.000502	85.3429999352
1450.0	0.0005038	85.3900001049
1450.0	0.0005043	85.4370000362
1450.0	0.000505	85.4679999352
1450.0	0.0005053	85.5150001049
1450.0	0.0005065	85.5469999313
1450.0	0.0005075	85.5929999352
1450.0	0.000508	85.6400001049
1450.0	0.0005088	85.6719999313
1450.0	0.0005093	85.7179999352
1450.0	0.0005093	85.7650001049
1450.0	0.0005088	85.7969999313
1450.0	0.000508	85.8429999352
1450.0	0.0005068	85.8900001049
1450.0	0.0005055	85.9219999313
1450.0	0.0005045	85.9679999352
1450.0	0.0005038	86.0
1450.0	0.0005025	86.0469999313
1450.0	0.0005025	86.0929999352
1450.0	0.0005013	86.125
1450.0	0.0005003	86.1719999313
1450.0	0.0005018	86.2179999352
1450.0	0.000504	86.25
1450.0	0.0005053	86.2969999313
1450.0	0.0005058	86.3280000687
1450.0	0.0005063	86.375
1450.0	0.0005065	86.4219999313
1450.0	0.000507	86.4530000687
1450.0	0.0005078	86.5
1450.0	0.0005078	86.5469999313
1450.0	0.0005075	86.5780000687
1450.0	0.000507	86.625
1450.0	0.0005058	86.6560001373
1450.0	0.000505	86.7030000687
1450.0	0.000505	86.75
1450.0	0.0005045	86.7810001373
1460.0	0.0005043	87.0469999313
1460.0	0.0005063	87.0929999352
1460.0	0.000507	87.1400001049
1460.0	0.0005088	87.1870000362
1460.0	0.00051	87.2179999352
1460.0	0.0005103	87.2650001049
1460.0	0.0005105	87.2969999313
1460.0	0.0005118	87.3429999352
1460.0	0.0005115	87.3900001049
1460.0	0.0005113	87.4219999313
1460.0	0.0005118	87.4679999352
1460.0	0.0005125	87.5150001049
1460.0	0.0005138	87.5469999313
1460.0	0.0005145	87.5929999352
1460.0	0.000515	87.625
1460.0	0.0005143	87.6719999313
1460.0	0.0005138	87.7179999352
1460.0	0.0005155	87.75
1460.0	0.0005163	87.7969999313
1460.0	0.0005163	87.8429999352
1460.0	0.0005163	87.875
1460.0	0.0005153	87.9219999313
1460.0	0.0005143	87.9679999352
1460.0	0.0005133	88.0
1460.0	0.0005125	88.0469999313
1460.0	0.0005125	88.0780000687
1460.0	0.0005138	88.125
1460.0	0.0005133	88.1719999313
1460.0	0.000513	88.2030000687
1460.0	0.0005143	88.25
1460.0	0.0005143	88.2969999313
1460.0	0.0005155	88.3280000687
1460.0	0.0005165	88.375
1460.0	0.0005168	88.4060001373
1460.0	0.0005178	88.4530000687
1460.0	0.000518	88.5
1460.0	0.0005178	88.5310001373
1470.0	0.0005175	88.7969999313
1470.0	0.0005175	88.8429999352
1470.0	0.0005178	88.8900001049
1470.0	0.000518	88.9219999313
1470.0	0.0005193	88.9679999352
1470.0	0.0005193	89.0150001049
1470.0	0.0005188	89.0469999313
1470.0	0.0005193	89.0929999352
1470.0	0.0005193	89.1400001049
1470.0	0.0005203	89.1719999313
1470.0	0.0005195	89.2179999352
1470.0	0.0005193	89.2650001049
1470.0	0.0005193	89.2969999313
1470.0	0.0005193	89.3429999352
1470.0	0.0005188	89.375
1470.0	0.000518	89.4219999313
1470.0	0.0005178	89.4679999352
1470.0	0.0005178	89.5
1470.0	0.0005178	89.5469999313
1470.0	0.0005165	89.5929999352
1470.0	0.0005155	89.625
1470.0	0.0005163	89.6719999313
1470.0	0.000517	89.7179999352
1470.0	0.0005178	89.75
1470.0	0.0005188	89.7969999313
1470.0	0.0005205	89.8280000687
1470.0	0.0005218	89.875
1470.0	0.0005225	89.9219999313
1470.0	0.000523	89.9530000687
1470.0	0.000523	90.0
1470.0	0.0005233	90.0469999313
1470.0	0.000523	90.0780000687
1470.0	0.000522	90.125
1470.0	0.000522	90.1560001373
1470.0	0.0005228	90.2030000687
1470.0	0.0005228	90.25
1470.0	0.0005228	90.2969999313
1480.0	0.0005203	90.5620000362
1480.0	0.0005213	90.5929999352
1480.0	0.0005225	90.6400001049
1480.0	0.0005228	90.6870000362
1480.0	0.000522	90.7179999352
1480.0	0.000522	90.7650001049
1480.0	0.0005218	90.7969999313
1480.0	0.000522	90.8429999352
1480.0	0.0005228	90.8900001049
1480.0	0.000523	90.9219999313
1480.0	0.000522	90.9679999352
1480.0	0.0005218	91.0150001049
1480.0	0.0005225	91.0469999313
1480.0	0.000522	91.0929999352
1480.0	0.0005225	91.1400001049
1480.0	0.0005228	91.1719999313
1480.0	0.0005218	91.2179999352
1480.0	0.0005205	91.2650001049
1480.0	0.00052	91.2969999313
1480.0	0.000519	91.3429999352
1480.0	0.000518	91.3900001049
1480.0	0.000517	91.4219999313
1480.0	0.0005168	91.4679999352
1480.0	0.0005188	91.5150001049
1480.0	0.0005205	91.5469999313
1480.0	0.0005215	91.5929999352
1480.0	0.0005213	91.6400001049
1480.0	0.0005215	91.6719999313
1480.0	0.0005218	91.7179999352
1480.0	0.0005225	91.75
1480.0	0.0005238	91.7969999313
1480.0	0.000523	91.8429999352
1480.0	0.000522	91.875
1480.0	0.0005215	91.9219999313
1480.0	0.0005208	91.9679999352
1480.0	0.0005213	92.0
1480.0	0.0005218	92.0469999313
1490.0	0.000522	92.3120000362
1490.0	0.0005205	92.3589999676
1490.0	0.0005205	92.3900001049
1490.0	0.0005218	92.4370000362
1490.0	0.0005228	92.4839999676
1490.0	0.000523	92.5150001049
1490.0	0.000523	92.5620000362
1490.0	0.0005243	92.6089999676
1490.0	0.0005245	92.6400001049
1490.0	0.0005243	92.7650001049
1490.0	0.0005238	92.8120000362
1490.0	0.000523	92.8589999676
1490.0	0.0005228	92.9060001373
1490.0	0.0005238	92.9370000362
1490.0	0.0005238	92.9839999676
1490.0	0.0005233	93.0150001049
1490.0	0.0005225	93.0620000362
1490.0	0.0005225	93.1089999676
1490.0	0.000523	93.1400001049
1490.0	0.0005225	93.1870000362
1490.0	0.000523	93.2339999676
1490.0	0.0005225	93.2650001049
1490.0	0.0005228	93.3120000362
1490.0	0.000523	93.3429999352
1490.0	0.000523	93.3900001049
1490.0	0.0005233	93.4370000362
1490.0	0.0005233	93.4679999352
1490.0	0.0005238	93.5150001049
1490.0	0.000523	93.5620000362
1490.0	0.0005215	93.5929999352
1490.0	0.0005203	93.6400001049
1490.0	0.0005208	93.6719999313
1490.0	0.0005215	93.7179999352
1490.0	0.0005218	93.7650001049
1500.0	0.0005225	94.0310001373
1500.0	0.0005218	94.0780000687
1500.0	0.0005225	94.1089999676
1500.0	0.0005225	94.1560001373
1500.0	0.0005218	94.2030000687
1500.0	0.0005208	94.2339999676
1500.0	0.0005203	94.2810001373
1500.0	0.00052	94.3120000362
1500.0	0.0005203	94.3589999676
1500.0	0.0005203	94.4060001373
1500.0	0.0005195	94.4370000362
1500.0	0.00052	94.4839999676
1500.0	0.0005205	94.5310001373
1500.0	0.0005215	94.5620000362
1500.0	0.000522	94.6089999676
1500.0	0.000523	94.6560001373
1500.0	0.0005245	94.6870000362
1500.0	0.0005258	94.7339999676
1500.0	0.0005255	94.7650001049
1500.0	0.0005263	94.8120000362
1500.0	0.0005255	94.8589999676
1500.0	0.0005243	94.8900001049
1500.0	0.0005228	94.9370000362
1500.0	0.0005225	94.9679999352
1500.0	0.0005228	95.0150001049
1500.0	0.0005233	95.0620000362
1500.0	0.0005228	95.0929999352
1500.0	0.0005218	95.1400001049
1500.0	0.000522	95.1870000362
1500.0	0.000523	95.2179999352
1500.0	0.0005233	95.2650001049
1500.0	0.0005238	95.3120000362
1500.0	0.000523	95.3429999352
1500.0	0.0005218	95.3900001049
1500.0	0.0005205	95.4219999313
1500.0	0.0005208	95.4679999352
1500.0	0.0005225	95.5150001049
1510.0	0.0005195	95.7810001373
1510.0	0.000519	95.8280000687
1510.0	0.0005183	95.875
1510.0	0.000518	95.9060001373
1510.0	0.0005168	95.9530000687
1510.0	0.000517	95.9839999676
1510.0	0.0005175	96.0310001373
1510.0	0.0005175	96.0780000687
1510.0	0.0005165	96.1089999676
1510.0	0.0005168	96.1560001373
1510.0	0.000517	96.2030000687
1510.0	0.0005165	96.2339999676
1510.0	0.0005163	96.2810001373
1510.0	0.0005158	96.3280000687
1510.0	0.0005158	96.3589999676
1510.0	0.000517	96.4060001373
1510.0	0.0005175	96.4530000687
1510.0	0.000518	96.4839999676
1510.0	0.000519	96.5310001373
1510.0	0.0005188	96.5780000687
1510.0	0.0005188	96.6089999676
1510.0	0.0005193	96.6560001373
1510.0	0.0005203	96.6870000362
1510.0	0.0005213	96.7339999676
1510.0	0.0005213	96.7810001373
1510.0	0.0005195	96.8120000362
1510.0	0.00052	96.8589999676
1510.0	0.0005193	96.9060001373
1510.0	0.0005188	96.9370000362
1510.0	0.0005193	96.9839999676
1510.0	0.0005205	97.0150001049
1510.0	0.0005218	97.0620000362
1510.0	0.0005215	97.1089999676
1510.0	0.0005213	97.1560001373
1510.0	0.0005203	97.1870000362
1510.0	0.0005193	97.2339999676
1510.0	0.000518	97.2650001049
1520.0	0.0005163	97.5469999313
1520.0	0.0005155	97.5929999352
1520.0	0.0005153	97.625
1520.0	0.000515	97.6719999313
1520.0	0.000514	97.7179999352
1520.0	0.0005133	97.75
1520.0	0.000514	97.7969999313
1520.0	0.0005143	97.8280000687
1520.0	0.0005153	97.875
1520.0	0.0005153	97.9219999313
1520.0	0.0005143	97.9530000687
1520.0	0.0005143	98.0
1520.0	0.000515	98.0469999313
1520.0	0.000515	98.0780000687
1520.0	0.000515	98.125
1520.0	0.000514	98.1719999313
1520.0	0.000513	98.2030000687
1520.0	0.0005118	98.25
1520.0	0.0005115	98.2810001373
1520.0	0.000512	98.3280000687
1520.0	0.0005125	98.375
1520.0	0.000513	98.4060001373
1520.0	0.0005128	98.4530000687
1520.0	0.0005133	98.5
1520.0	0.0005138	98.5310001373
1520.0	0.0005145	98.5780000687
1520.0	0.0005155	98.6089999676
1520.0	0.0005145	98.6560001373
1520.0	0.0005143	98.7030000687
1520.0	0.0005145	98.7339999676
1520.0	0.0005155	98.7810001373
1520.0	0.0005178	98.8280000687
1520.0	0.000518	98.8589999676
1520.0	0.0005163	98.9060001373
1520.0	0.000515	98.9370000362
1520.0	0.0005128	98.9839999676
1520.0	0.0005115	99.0310001373
1530.0	0.0005168	99.2969999313
1530.0	0.000517	99.3429999352
1530.0	0.0005165	99.3900001049
1530.0	0.0005158	99.4219999313
1530.0	0.0005145	99.4679999352
1530.0	0.0005143	99.5
1530.0	0.0005138	99.5469999313
1530.0	0.0005125	99.5929999352
1530.0	0.0005125	99.6400001049
1530.0	0.0005138	99.6719999313
1530.0	0.0005138	99.7179999352
1530.0	0.0005133	99.75
1530.0	0.000513	99.7969999313
1530.0	0.0005125	99.8429999352
1530.0	0.0005125	99.875
1530.0	0.0005143	99.9219999313
1530.0	0.0005143	99.9679999352
1530.0	0.0005133	100.0
1530.0	0.0005125	100.046999931
1530.0	0.000513	100.092999935
1530.0	0.0005128	100.125
1530.0	0.0005128	100.171999931
1530.0	0.0005133	100.203000069
1530.0	0.000513	100.25
1530.0	0.0005133	100.296999931
1530.0	0.000514	100.328000069
1530.0	0.000513	100.375
1530.0	0.0005108	100.421999931
1530.0	0.0005103	100.453000069
1530.0	0.000509	100.5
1530.0	0.0005088	100.546999931
1530.0	0.0005093	100.578000069
1530.0	0.0005093	100.625
1530.0	0.0005093	100.671999931
1530.0	0.00051	100.703000069
1530.0	0.00051	100.75
1530.0	0.0005103	100.796999931
1540.0	0.000513	101.062000036
1540.0	0.0005125	101.108999968
1540.0	0.0005118	101.140000105
1540.0	0.0005105	101.187000036
1540.0	0.0005083	101.233999968
1540.0	0.000508	101.265000105
1540.0	0.000509	101.312000036
1540.0	0.0005078	101.342999935
1540.0	0.0005068	101.390000105
1540.0	0.0005058	101.437000036
1540.0	0.0005053	101.467999935
1540.0	0.000505	101.515000105
1540.0	0.0005055	101.562000036
1540.0	0.0005053	101.592999935
1540.0	0.0005043	101.640000105
1540.0	0.000505	101.671999931
1540.0	0.0005053	101.717999935
1540.0	0.0005065	101.765000105
1540.0	0.0005065	101.796999931
1540.0	0.0005075	101.842999935
1540.0	0.000508	101.890000105
1540.0	0.000508	101.921999931
1540.0	0.0005075	101.967999935
1540.0	0.000507	102.015000105
1540.0	0.000508	102.046999931
1540.0	0.00051	102.092999935
1540.0	0.0005108	102.125
1540.0	0.00051	102.171999931
1540.0	0.0005075	102.217999935
1540.0	0.000505	102.25
1540.0	0.0005043	102.296999931
1540.0	0.000504	102.342999935
1540.0	0.000504	102.375
1540.0	0.0005033	102.421999931
1540.0	0.000504	102.467999935
1540.0	0.0005053	102.5
1540.0	0.0005045	102.546999931
1550.0	0.000504	102.828000069
1550.0	0.000502	102.858999968
1550.0	0.0005005	102.906000137
1550.0	0.0004988	102.937000036
1550.0	0.000498	102.983999968
1550.0	0.0004988	103.031000137
1550.0	0.0004993	103.062000036
1550.0	0.0004993	103.108999968
1550.0	0.000499	103.156000137
1550.0	0.000498	103.187000036
1550.0	0.000498	103.233999968
1550.0	0.0004993	103.281000137
1550.0	0.000502	103.312000036
1550.0	0.000503	103.358999968
1550.0	0.000503	103.390000105
1550.0	0.0005038	103.437000036
1550.0	0.0005043	103.483999968
1550.0	0.000504	103.515000105
1550.0	0.0005038	103.562000036
1550.0	0.000503	103.592999935
1550.0	0.000502	103.640000105
1550.0	0.0005	103.687000036
1550.0	0.0004988	103.717999935
1550.0	0.0004978	103.765000105
1550.0	0.000498	103.812000036
1550.0	0.0004978	103.858999968
1550.0	0.0004983	103.890000105
1550.0	0.0005	103.937000036
1550.0	0.000499	103.967999935
1550.0	0.000499	104.015000105
1550.0	0.0004988	104.062000036
1550.0	0.0004978	104.092999935
1550.0	0.0004978	104.140000105
1550.0	0.0004978	104.187000036
1550.0	0.0004988	104.217999935
1550.0	0.0005	104.265000105
1550.0	0.0005008	104.296999931
1560.0	0.0004978	104.578000069
1560.0	0.0004963	104.625
1560.0	0.0004945	104.656000137
1560.0	0.000493	104.703000069
1560.0	0.0004918	104.75
1560.0	0.0004903	104.781000137
1560.0	0.0004888	104.828000069
1560.0	0.000488	104.858999968
1560.0	0.0004888	104.906000137
1560.0	0.00049	104.953000069
1560.0	0.00049	104.983999968
1560.0	0.0004903	105.031000137
1560.0	0.0004893	105.078000069
1560.0	0.0004893	105.108999968
1560.0	0.000489	105.156000137
1560.0	0.0004888	105.203000069
1560.0	0.0004888	105.233999968
1560.0	0.0004878	105.281000137
1560.0	0.0004868	105.312000036
1560.0	0.000488	105.358999968
1560.0	0.00049	105.406000137
1560.0	0.0004908	105.437000036
1560.0	0.0004915	105.483999968
1560.0	0.0004915	105.531000137
1560.0	0.0004915	105.562000036
1560.0	0.0004918	105.608999968
1560.0	0.0004918	105.640000105
1560.0	0.0004913	105.687000036
1560.0	0.0004913	105.733999968
1560.0	0.0004913	105.781000137
1560.0	0.0004915	105.812000036
1560.0	0.0004913	105.858999968
1560.0	0.0004903	105.906000137
1560.0	0.0004905	105.937000036
1560.0	0.0004918	105.983999968
1560.0	0.0004928	106.015000105
1560.0	0.000493	106.062000036
1570.0	0.0004895	106.328000069
1570.0	0.0004878	106.375
1570.0	0.0004865	106.421999931
1570.0	0.000485	106.453000069
1570.0	0.000483	106.5
1570.0	0.0004825	106.531000137
1570.0	0.000483	106.578000069
1570.0	0.000484	106.625
1570.0	0.0004843	106.656000137
1570.0	0.000485	106.703000069
1570.0	0.0004853	106.75
1570.0	0.0004858	106.781000137
1570.0	0.0004863	106.828000069
1570.0	0.0004865	106.875
1570.0	0.000487	106.906000137
1570.0	0.0004878	106.953000069
1570.0	0.000488	106.983999968
1570.0	0.0004883	107.031000137
1570.0	0.0004888	107.078000069
1570.0	0.000489	107.108999968
1570.0	0.000488	107.156000137
1570.0	0.0004868	107.203000069
1570.0	0.0004858	107.233999968
1570.0	0.0004855	107.281000137
1570.0	0.0004853	107.312000036
1570.0	0.000485	107.358999968
1570.0	0.0004845	107.406000137
1570.0	0.0004838	107.453000069
1570.0	0.000484	107.483999968
1570.0	0.0004833	107.531000137
1570.0	0.000482	107.578000069
1570.0	0.0004805	107.608999968
1570.0	0.0004795	107.656000137
1570.0	0.0004793	107.703000069
1570.0	0.00048	107.733999968
1570.0	0.0004803	107.781000137
1570.0	0.0004808	107.812000036
1580.0	0.0004788	108.092999935
1580.0	0.0004765	108.125
1580.0	0.0004753	108.171999931
1580.0	0.0004745	108.217999935
1580.0	0.0004738	108.25
1580.0	0.0004738	108.296999931
1580.0	0.000474	108.342999935
1580.0	0.000474	108.375
1580.0	0.0004738	108.421999931
1580.0	0.000473	108.453000069
1580.0	0.0004718	108.5
1580.0	0.0004728	108.546999931
1580.0	0.0004733	108.578000069
1580.0	0.0004718	108.625
1580.0	0.0004708	108.671999931
1580.0	0.0004705	108.703000069
1580.0	0.0004708	108.75
1580.0	0.0004715	108.796999931
1580.0	0.000473	108.828000069
1580.0	0.000475	108.875
1580.0	0.0004758	108.906000137
1580.0	0.0004765	108.953000069
1580.0	0.0004765	109.0
1580.0	0.0004763	109.031000137
1580.0	0.0004763	109.078000069
1580.0	0.0004768	109.125
1580.0	0.000477	109.156000137
1580.0	0.0004763	109.203000069
1580.0	0.0004743	109.25
1580.0	0.0004733	109.281000137
1580.0	0.0004738	109.328000069
1580.0	0.0004745	109.375
1580.0	0.0004743	109.406000137
1580.0	0.0004725	109.453000069
1580.0	0.0004708	109.5
1580.0	0.0004693	109.531000137
1580.0	0.0004683	109.578000069
1590.0	0.0004638	109.842999935
1590.0	0.000463	109.890000105
1590.0	0.0004643	109.937000036
1590.0	0.000465	109.967999935
1590.0	0.0004645	110.015000105
1590.0	0.0004638	110.046999931
1590.0	0.0004643	110.092999935
1590.0	0.0004645	110.140000105
1590.0	0.000465	110.171999931
1590.0	0.0004658	110.217999935
1590.0	0.0004653	110.265000105
1590.0	0.0004638	110.296999931
1590.0	0.000463	110.342999935
1590.0	0.0004628	110.390000105
1590.0	0.0004615	110.421999931
1590.0	0.0004603	110.467999935
1590.0	0.0004595	110.5
1590.0	0.0004595	110.546999931
1590.0	0.0004608	110.592999935
1590.0	0.0004613	110.625
1590.0	0.0004608	110.671999931
1590.0	0.0004608	110.717999935
1590.0	0.0004603	110.75
1590.0	0.0004603	110.796999931
1590.0	0.0004613	110.828000069
1590.0	0.0004628	110.875
1590.0	0.0004643	110.921999931
1590.0	0.0004653	110.953000069
1590.0	0.0004653	111.0
1590.0	0.0004658	111.046999931
1590.0	0.0004665	111.078000069
1590.0	0.0004663	111.125
1590.0	0.0004663	111.156000137
1590.0	0.0004668	111.203000069
1590.0	0.0004663	111.25
1590.0	0.0004655	111.281000137
1590.0	0.0004643	111.328000069
1600.0	0.0004625	111.608999968
1600.0	0.0004605	111.640000105
1600.0	0.0004593	111.687000036
1600.0	0.000458	111.717999935
1600.0	0.0004565	111.765000105
1600.0	0.0004555	111.812000036
1600.0	0.0004543	111.842999935
1600.0	0.0004533	111.890000105
1600.0	0.000453	111.937000036
1600.0	0.0004538	111.967999935
1600.0	0.0004533	112.015000105
1600.0	0.0004543	112.046999931
1600.0	0.000455	112.092999935
1600.0	0.0004543	112.140000105
1600.0	0.0004528	112.171999931
1600.0	0.0004518	112.217999935
1600.0	0.0004505	112.265000105
1600.0	0.0004488	112.296999931
1600.0	0.0004483	112.342999935
1600.0	0.0004483	112.390000105
1600.0	0.000449	112.421999931
1600.0	0.0004488	112.467999935
1600.0	0.0004488	112.5
1600.0	0.0004483	112.546999931
1600.0	0.0004475	112.592999935
1600.0	0.0004463	112.625
1600.0	0.0004453	112.671999931
1600.0	0.0004453	112.717999935
1600.0	0.0004453	112.75
1600.0	0.0004455	112.796999931
1600.0	0.0004465	112.828000069
1600.0	0.0004483	112.875
1600.0	0.0004488	112.921999931
1600.0	0.0004503	112.953000069
1600.0	0.0004513	113.0
1600.0	0.0004518	113.046999931
1600.0	0.000452	113.078000069
1610.0	0.0004493	113.358999968
1610.0	0.0004468	113.406000137
1610.0	0.0004438	113.437000036
1610.0	0.0004403	113.483999968
1610.0	0.000437	113.531000137
1610.0	0.0004353	113.562000036
1610.0	0.0004353	113.608999968
1610.0	0.0004353	113.656000137
1610.0	0.0004355	113.687000036
1610.0	0.0004358	113.733999968
1610.0	0.0004363	113.765000105
1610.0	0.000437	113.812000036
1610.0	0.0004378	113.858999968
1610.0	0.0004378	113.906000137
1610.0	0.0004378	113.937000036
1610.0	0.000438	113.983999968
1610.0	0.0004388	114.015000105
1610.0	0.00044	114.062000036
1610.0	0.0004408	114.108999968
1610.0	0.0004413	114.140000105
1610.0	0.0004405	114.187000036
1610.0	0.0004395	114.233999968
1610.0	0.0004388	114.265000105
1610.0	0.0004375	114.312000036
1610.0	0.000437	114.342999935
1610.0	0.0004368	114.390000105
1610.0	0.0004363	114.437000036
1610.0	0.0004358	114.467999935
1610.0	0.0004363	114.515000105
1610.0	0.0004368	114.562000036
1610.0	0.0004375	114.592999935
1610.0	0.0004378	114.640000105
1610.0	0.000438	114.671999931
1610.0	0.0004378	114.717999935
1610.0	0.0004363	114.765000105
1610.0	0.000437	114.796999931
1610.0	0.0004368	114.842999935
1620.0	0.0004315	115.125
1620.0	0.0004305	115.171999931
1620.0	0.0004305	115.203000069
1620.0	0.0004293	115.25
1620.0	0.0004275	115.281000137
1620.0	0.0004255	115.328000069
1620.0	0.0004233	115.375
1620.0	0.0004205	115.406000137
1620.0	0.000418	115.453000069
1620.0	0.000418	115.5
1620.0	0.000418	115.531000137
1620.0	0.0004183	115.578000069
1620.0	0.0004188	115.608999968
1620.0	0.0004193	115.656000137
1620.0	0.0004208	115.703000069
1620.0	0.000422	115.733999968
1620.0	0.000423	115.781000137
1620.0	0.0004238	115.828000069
1620.0	0.0004233	115.858999968
1620.0	0.0004225	115.906000137
1620.0	0.0004203	115.937000036
1620.0	0.0004193	115.983999968
1620.0	0.0004193	116.031000137
1620.0	0.0004193	116.062000036
1620.0	0.0004195	116.108999968
1620.0	0.0004203	116.156000137
1620.0	0.0004203	116.187000036
1620.0	0.0004205	116.233999968
1620.0	0.0004213	116.281000137
1620.0	0.0004225	116.312000036
1620.0	0.0004225	116.358999968
1620.0	0.0004218	116.390000105
1620.0	0.0004218	116.437000036
1620.0	0.0004213	116.483999968
1620.0	0.0004213	116.515000105
1620.0	0.0004213	116.562000036
1620.0	0.0004195	116.592999935
1630.0	0.0004105	116.890000105
1630.0	0.0004083	116.921999931
1630.0	0.0004058	116.967999935
1630.0	0.0004038	117.015000105
1630.0	0.0004033	117.046999931
1630.0	0.0004028	117.092999935
1630.0	0.0004018	117.125
1630.0	0.0004015	117.171999931
1630.0	0.0004025	117.217999935
1630.0	0.0004018	117.265000105
1630.0	0.0004018	117.296999931
1630.0	0.0004025	117.342999935
1630.0	0.0004033	117.375
1630.0	0.0004033	117.421999931
1630.0	0.000404	117.467999935
1630.0	0.0004043	117.5
1630.0	0.000404	117.546999931
1630.0	0.0004033	117.592999935
1630.0	0.000403	117.625
1630.0	0.0004038	117.671999931
1630.0	0.0004038	117.717999935
1630.0	0.000403	117.75
1630.0	0.0004028	117.796999931
1630.0	0.000402	117.842999935
1630.0	0.000402	117.875
1630.0	0.0004025	117.921999931
1630.0	0.000403	117.953000069
1630.0	0.0004038	118.0
1630.0	0.0004043	118.046999931
1630.0	0.000405	118.092999935
1630.0	0.0004043	118.125
1630.0	0.000403	118.171999931
1630.0	0.000402	118.217999935
1630.0	0.0004018	118.25
1630.0	0.0004015	118.296999931
1630.0	0.0004028	118.328000069
1630.0	0.0004038	118.375
1640.0	0.000395	118.656000137
1640.0	0.0003918	118.703000069
1640.0	0.0003895	118.733999968
1640.0	0.0003878	118.781000137
1640.0	0.0003868	118.828000069
1640.0	0.0003855	118.858999968
1640.0	0.0003853	118.906000137
1640.0	0.0003843	118.953000069
1640.0	0.0003838	118.983999968
1640.0	0.0003838	119.031000137
1640.0	0.000383	119.062000036
1640.0	0.000383	119.108999968
1640.0	0.000384	119.156000137
1640.0	0.0003855	119.187000036
1640.0	0.0003853	119.233999968
1640.0	0.0003843	119.281000137
1640.0	0.0003833	119.312000036
1640.0	0.0003825	119.358999968
1640.0	0.0003828	119.406000137
1640.0	0.0003828	119.437000036
1640.0	0.0003825	119.483999968
1640.0	0.0003825	119.531000137
1640.0	0.0003828	119.562000036
1640.0	0.0003813	119.608999968
1640.0	0.0003793	119.656000137
1640.0	0.000378	119.687000036
1640.0	0.0003775	119.733999968
1640.0	0.000377	119.765000105
1640.0	0.0003778	119.812000036
1640.0	0.0003775	119.858999968
1640.0	0.000377	119.890000105
1640.0	0.000378	119.937000036
1640.0	0.0003793	119.983999968
1640.0	0.0003793	120.015000105
1640.0	0.0003808	120.062000036
1640.0	0.0003815	120.092999935
1650.0	0.0003778	120.390000105
1650.0	0.0003753	120.421999931
1650.0	0.000373	120.467999935
1650.0	0.0003703	120.5
1650.0	0.0003678	120.546999931
1650.0	0.0003665	120.592999935
1650.0	0.0003658	120.625
1650.0	0.0003643	120.671999931
1650.0	0.000363	120.717999935
1650.0	0.0003628	120.75
1650.0	0.0003628	120.796999931
1650.0	0.0003638	120.828000069
1650.0	0.000365	120.875
1650.0	0.0003658	120.921999931
1650.0	0.0003655	120.953000069
1650.0	0.0003645	121.0
1650.0	0.000363	121.046999931
1650.0	0.0003618	121.078000069
1650.0	0.0003633	121.125
1650.0	0.0003638	121.171999931
1650.0	0.0003633	121.203000069
1650.0	0.0003633	121.25
1650.0	0.000364	121.281000137
1650.0	0.000363	121.328000069
1650.0	0.0003633	121.375
1650.0	0.000363	121.406000137
1650.0	0.0003628	121.453000069
1650.0	0.0003618	121.5
1650.0	0.0003618	121.531000137
1650.0	0.000363	121.578000069
1650.0	0.0003628	121.608999968
1650.0	0.0003625	121.656000137
1650.0	0.000364	121.703000069
1650.0	0.000365	121.733999968
1650.0	0.0003653	121.781000137
1650.0	0.0003653	121.828000069
1650.0	0.0003653	121.858999968
1660.0	0.0003525	122.140000105
1660.0	0.0003503	122.187000036
1660.0	0.000349	122.233999968
1660.0	0.000347	122.265000105
1660.0	0.0003458	122.312000036
1660.0	0.0003455	122.342999935
1660.0	0.0003463	122.390000105
1660.0	0.000345	122.437000036
1660.0	0.0003433	122.467999935
1660.0	0.000343	122.515000105
1660.0	0.0003433	122.562000036
1660.0	0.000344	122.592999935
1660.0	0.0003455	122.640000105
1660.0	0.0003463	122.687000036
1660.0	0.0003453	122.717999935
1660.0	0.0003445	122.765000105
1660.0	0.0003438	122.796999931
1660.0	0.000342	122.842999935
1660.0	0.0003418	122.890000105
1660.0	0.0003428	122.921999931
1660.0	0.0003418	122.967999935
1660.0	0.0003393	123.015000105
1660.0	0.000339	123.046999931
1660.0	0.0003388	123.092999935
1660.0	0.0003393	123.125
1660.0	0.0003395	123.171999931
1660.0	0.000339	123.217999935
1660.0	0.000338	123.25
1660.0	0.000337	123.296999931
1660.0	0.0003358	123.342999935
1660.0	0.0003363	123.375
1660.0	0.0003365	123.421999931
1660.0	0.0003375	123.453000069
1660.0	0.000339	123.5
1660.0	0.0003413	123.546999931
1660.0	0.0003425	123.578000069
1660.0	0.0003415	123.625
1670.0	0.0003305	123.906000137
1670.0	0.0003283	123.953000069
1670.0	0.0003275	123.983999968
1670.0	0.0003268	124.031000137
1670.0	0.0003253	124.078000069
1670.0	0.0003243	124.108999968
1670.0	0.0003243	124.156000137
1670.0	0.0003233	124.203000069
1670.0	0.0003228	124.233999968
1670.0	0.0003233	124.281000137
1670.0	0.0003243	124.312000036
1670.0	0.000324	124.358999968
1670.0	0.0003245	124.406000137
1670.0	0.000325	124.437000036
1670.0	0.0003243	124.483999968
1670.0	0.000324	124.531000137
1670.0	0.000323	124.562000036
1670.0	0.0003225	124.608999968
1670.0	0.0003233	124.640000105
1670.0	0.0003233	124.687000036
1670.0	0.000324	124.733999968
1670.0	0.0003255	124.765000105
1670.0	0.0003258	124.812000036
1670.0	0.000325	124.858999968
1670.0	0.000324	124.890000105
1670.0	0.0003213	124.937000036
1670.0	0.00032	124.967999935
1670.0	0.0003195	125.015000105
1670.0	0.0003195	125.062000036
1670.0	0.0003195	125.092999935
1670.0	0.0003215	125.140000105
1670.0	0.0003218	125.187000036
1670.0	0.0003215	125.217999935
1670.0	0.0003213	125.265000105
1670.0	0.0003218	125.296999931
1670.0	0.0003228	125.342999935
1670.0	0.0003238	125.390000105
1680.0	0.000317	125.671999931
1680.0	0.0003165	125.717999935
1680.0	0.0003155	125.75
1680.0	0.0003133	125.796999931
1680.0	0.0003118	125.842999935
1680.0	0.00031	125.875
1680.0	0.000309	125.921999931
1680.0	0.0003088	125.967999935
1680.0	0.0003103	126.0
1680.0	0.0003118	126.046999931
1680.0	0.000312	126.078000069
1680.0	0.0003118	126.125
1680.0	0.00031	126.171999931
1680.0	0.000308	126.203000069
1680.0	0.0003063	126.25
1680.0	0.0003065	126.296999931
1680.0	0.0003063	126.328000069
1680.0	0.0003068	126.375
1680.0	0.0003075	126.406000137
1680.0	0.0003078	126.453000069
1680.0	0.0003078	126.5
1680.0	0.000308	126.531000137
1680.0	0.0003083	126.578000069
1680.0	0.0003083	126.625
1680.0	0.0003083	126.656000137
1680.0	0.000308	126.703000069
1680.0	0.000308	126.75
1680.0	0.0003078	126.781000137
1680.0	0.000307	126.828000069
1680.0	0.0003065	126.858999968
1680.0	0.000307	126.906000137
1680.0	0.000307	126.953000069
1680.0	0.0003078	126.983999968
1680.0	0.0003075	127.031000137
1680.0	0.0003065	127.078000069
1680.0	0.0003063	127.108999968
1680.0	0.000307	127.156000137
1690.0	0.0002993	127.437000036
1690.0	0.0002963	127.483999968
1690.0	0.0002938	127.515000105
1690.0	0.0002928	127.562000036
1690.0	0.0002913	127.608999968
1690.0	0.0002905	127.640000105
1690.0	0.0002918	127.687000036
1690.0	0.0002938	127.733999968
1690.0	0.0002945	127.781000137
1690.0	0.0002945	127.812000036
1690.0	0.0002945	127.858999968
1690.0	0.0002943	127.890000105
1690.0	0.0002938	127.937000036
1690.0	0.0002933	127.983999968
1690.0	0.0002918	128.015000105
1690.0	0.0002913	128.062000036
1690.0	0.0002905	128.092999935
1690.0	0.0002895	128.140000105
1690.0	0.0002895	128.187000036
1690.0	0.0002905	128.217999935
1690.0	0.0002915	128.265000105
1690.0	0.0002938	128.312000036
1690.0	0.0002938	128.342999935
1690.0	0.0002928	128.390000105
1690.0	0.0002918	128.437000036
1690.0	0.000292	128.467999935
1690.0	0.0002913	128.515000105
1690.0	0.0002913	128.546999931
1690.0	0.000292	128.592999935
1690.0	0.0002925	128.640000105
1690.0	0.0002925	128.671999931
1690.0	0.000293	128.717999935
1690.0	0.0002933	128.765000105
1690.0	0.0002938	128.796999931
1690.0	0.0002945	128.842999935
1690.0	0.000294	128.875
1700.0	0.000285	129.171999931
1700.0	0.0002843	129.203000069
1700.0	0.000284	129.25
1700.0	0.0002833	129.296999931
1700.0	0.0002818	129.328000069
1700.0	0.0002793	129.375
1700.0	0.0002783	129.421999931
1700.0	0.0002783	129.453000069
1700.0	0.000279	129.5
1700.0	0.000278	129.546999931
1700.0	0.0002763	129.578000069
1700.0	0.0002743	129.625
1700.0	0.0002743	129.656000137
1700.0	0.000274	129.703000069
1700.0	0.0002738	129.75
1700.0	0.000275	129.781000137
1700.0	0.0002763	129.828000069
1700.0	0.0002765	129.875
1700.0	0.0002768	129.906000137
1700.0	0.0002775	129.953000069
1700.0	0.0002778	129.983999968
1700.0	0.000278	130.031000137
1700.0	0.0002783	130.078000069
1700.0	0.0002778	130.108999968
1700.0	0.0002763	130.156000137
1700.0	0.0002758	130.203000069
1700.0	0.0002763	130.233999968
1700.0	0.0002765	130.281000137
1700.0	0.0002763	130.312000036
1700.0	0.0002758	130.358999968
1700.0	0.0002753	130.406000137
1700.0	0.0002755	130.437000036
1700.0	0.0002755	130.483999968
1700.0	0.000275	130.531000137
1700.0	0.0002755	130.562000036
1700.0	0.0002768	130.608999968
1700.0	0.0002778	130.656000137
1710.0	0.000273	130.937000036
1710.0	0.0002718	130.967999935
1710.0	0.0002708	131.015000105
1710.0	0.0002705	131.062000036
1710.0	0.00027	131.092999935
1710.0	0.0002708	131.140000105
1710.0	0.0002725	131.187000036
1710.0	0.0002738	131.217999935
1710.0	0.0002745	131.265000105
1710.0	0.0002738	131.312000036
1710.0	0.0002718	131.342999935
1710.0	0.0002705	131.390000105
1710.0	0.00027	131.421999931
1710.0	0.0002688	131.467999935
1710.0	0.0002678	131.515000105
1710.0	0.0002675	131.546999931
1710.0	0.000267	131.592999935
1710.0	0.0002675	131.640000105
1710.0	0.000268	131.671999931
1710.0	0.0002683	131.717999935
1710.0	0.0002683	131.75
1710.0	0.0002688	131.796999931
1710.0	0.0002693	131.842999935
1710.0	0.0002695	131.875
1710.0	0.0002695	131.921999931
1710.0	0.000269	131.967999935
1710.0	0.0002678	132.0
1710.0	0.0002668	132.046999931
1710.0	0.000267	132.078000069
1710.0	0.0002678	132.125
1710.0	0.0002688	132.171999931
1710.0	0.0002683	132.203000069
1710.0	0.0002675	132.25
1710.0	0.0002668	132.296999931
1710.0	0.000267	132.328000069
1710.0	0.0002665	132.375
1710.0	0.0002665	132.421999931
1720.0	0.0002688	132.703000069
1720.0	0.0002665	132.75
1720.0	0.0002645	132.781000137
1720.0	0.000265	132.828000069
1720.0	0.0002653	132.875
1720.0	0.000263	132.906000137
1720.0	0.0002613	132.953000069
1720.0	0.0002605	133.0
1720.0	0.0002595	133.031000137
1720.0	0.0002605	133.078000069
1720.0	0.0002618	133.108999968
1720.0	0.0002625	133.156000137
1720.0	0.000263	133.203000069
1720.0	0.0002638	133.233999968
1720.0	0.0002638	133.281000137
1720.0	0.0002628	133.328000069
1720.0	0.0002628	133.375
1720.0	0.0002628	133.406000137
1720.0	0.0002608	133.453000069
1720.0	0.0002605	133.483999968
1720.0	0.0002593	133.531000137
1720.0	0.0002578	133.578000069
1720.0	0.000257	133.608999968
1720.0	0.0002565	133.656000137
1720.0	0.000258	133.703000069
1720.0	0.0002605	133.733999968
1720.0	0.000262	133.781000137
1720.0	0.0002628	133.812000036
1720.0	0.0002615	133.858999968
1720.0	0.0002603	133.906000137
1720.0	0.000259	133.937000036
1720.0	0.000258	133.983999968
1720.0	0.0002575	134.031000137
1720.0	0.0002565	134.062000036
1720.0	0.0002563	134.108999968
1720.0	0.0002565	134.140000105
1720.0	0.000257	134.187000036
1730.0	0.0002568	134.467999935
1730.0	0.0002563	134.515000105
1730.0	0.0002555	134.562000036
1730.0	0.0002555	134.592999935
1730.0	0.0002545	134.640000105
1730.0	0.0002545	134.687000036
1730.0	0.000254	134.717999935
1730.0	0.000254	134.765000105
1730.0	0.000255	134.796999931
1730.0	0.0002553	134.842999935
1730.0	0.000255	134.890000105
1730.0	0.0002545	134.921999931
1730.0	0.0002538	134.967999935
1730.0	0.0002528	135.015000105
1730.0	0.000253	135.046999931
1730.0	0.000253	135.092999935
1730.0	0.0002515	135.140000105
1730.0	0.0002503	135.171999931
1730.0	0.0002505	135.217999935
1730.0	0.0002505	135.25
1730.0	0.0002508	135.296999931
1730.0	0.0002503	135.342999935
1730.0	0.0002505	135.375
1730.0	0.0002525	135.421999931
1730.0	0.0002545	135.467999935
1730.0	0.0002565	135.5
1730.0	0.0002568	135.546999931
1730.0	0.0002565	135.578000069
1730.0	0.0002568	135.625
1730.0	0.0002568	135.671999931
1730.0	0.0002555	135.703000069
1730.0	0.0002553	135.75
1730.0	0.0002558	135.796999931
1730.0	0.0002563	135.828000069
1730.0	0.0002555	135.875
1730.0	0.0002543	135.921999931
1730.0	0.000254	135.953000069
1740.0	0.0002478	136.25
1740.0	0.000247	136.281000137
1740.0	0.0002463	136.328000069
1740.0	0.0002458	136.375
1740.0	0.0002468	136.406000137
1740.0	0.0002475	136.453000069
1740.0	0.0002463	136.5
1740.0	0.0002453	136.531000137
1740.0	0.0002455	136.578000069
1740.0	0.0002458	136.608999968
1740.0	0.000247	136.656000137
1740.0	0.0002488	136.703000069
1740.0	0.000249	136.733999968
1740.0	0.0002488	136.781000137
1740.0	0.0002478	136.828000069
1740.0	0.0002475	136.858999968
1740.0	0.0002465	136.906000137
1740.0	0.0002458	136.937000036
1740.0	0.0002458	136.983999968
1740.0	0.0002463	137.031000137
1740.0	0.000247	137.062000036
1740.0	0.000247	137.108999968
1740.0	0.0002483	137.156000137
1740.0	0.0002488	137.187000036
1740.0	0.000248	137.233999968
1740.0	0.000247	137.281000137
1740.0	0.0002463	137.312000036
1740.0	0.0002463	137.358999968
1740.0	0.0002475	137.406000137
1740.0	0.0002483	137.437000036
1740.0	0.0002483	137.483999968
1740.0	0.0002478	137.531000137
1740.0	0.000248	137.562000036
1740.0	0.0002483	137.608999968
1740.0	0.0002488	137.640000105
1740.0	0.0002503	137.687000036
1740.0	0.0002513	137.733999968
1750.0	0.0002493	138.015000105
1750.0	0.0002488	138.062000036
1750.0	0.000248	138.092999935
1750.0	0.000249	138.140000105
1750.0	0.00025	138.187000036
1750.0	0.0002513	138.217999935
1750.0	0.0002515	138.265000105
1750.0	0.00025	138.296999931
1750.0	0.000249	138.342999935
1750.0	0.000247	138.390000105
1750.0	0.0002463	138.421999931
1750.0	0.0002445	138.467999935
1750.0	0.0002438	138.515000105
1750.0	0.0002433	138.546999931
1750.0	0.0002443	138.592999935
1750.0	0.000244	138.640000105
1750.0	0.0002433	138.671999931
1750.0	0.0002428	138.717999935
1750.0	0.0002428	138.765000105
1750.0	0.0002425	138.796999931
1750.0	0.0002418	138.842999935
1750.0	0.0002413	138.875
1750.0	0.0002413	138.921999931
1750.0	0.0002415	138.967999935
1750.0	0.0002433	139.0
1750.0	0.0002438	139.046999931
1750.0	0.0002433	139.092999935
1750.0	0.000243	139.125
1750.0	0.0002438	139.171999931
1750.0	0.0002443	139.217999935
1750.0	0.000244	139.25
1750.0	0.0002443	139.296999931
1750.0	0.0002445	139.342999935
1750.0	0.0002445	139.390000105
1750.0	0.0002443	139.421999931
1750.0	0.000243	139.467999935
1760.0	0.0002413	139.75
1760.0	0.0002388	139.796999931
1760.0	0.0002383	139.828000069
1760.0	0.0002378	139.875
1760.0	0.0002378	139.921999931
1760.0	0.0002388	139.953000069
1760.0	0.000239	140.0
1760.0	0.00024	140.046999931
1760.0	0.0002405	140.078000069
1760.0	0.0002403	140.125
1760.0	0.0002408	140.171999931
1760.0	0.0002418	140.203000069
1760.0	0.0002418	140.25
1760.0	0.0002408	140.281000137
1760.0	0.0002405	140.328000069
1760.0	0.0002403	140.375
1760.0	0.0002393	140.421999931
1760.0	0.0002388	140.453000069
1760.0	0.000238	140.5
1760.0	0.0002375	140.531000137
1760.0	0.0002365	140.578000069
1760.0	0.0002368	140.625
1760.0	0.0002375	140.656000137
1760.0	0.0002383	140.703000069
1760.0	0.0002395	140.75
1760.0	0.0002403	140.781000137
1760.0	0.0002405	140.828000069
1760.0	0.0002405	140.858999968
1760.0	0.00024	140.906000137
1760.0	0.00024	140.953000069
1760.0	0.0002403	140.983999968
1760.0	0.0002415	141.031000137
1760.0	0.000242	141.078000069
1760.0	0.0002428	141.108999968
1760.0	0.000243	141.156000137
1760.0	0.000243	141.203000069
1770.0	0.0002388	141.483999968
1770.0	0.0002395	141.531000137
1770.0	0.000239	141.562000036
1770.0	0.0002388	141.608999968
1770.0	0.0002375	141.656000137
1770.0	0.000237	141.687000036
1770.0	0.0002368	141.733999968
1770.0	0.000235	141.781000137
1770.0	0.000233	141.812000036
1770.0	0.0002318	141.858999968
1770.0	0.0002325	141.890000105
1770.0	0.000232	141.937000036
1770.0	0.0002318	141.983999968
1770.0	0.0002325	142.015000105
1770.0	0.000232	142.062000036
1770.0	0.0002325	142.108999968
1770.0	0.0002333	142.140000105
1770.0	0.000235	142.187000036
1770.0	0.0002363	142.217999935
1770.0	0.0002365	142.265000105
1770.0	0.000237	142.312000036
1770.0	0.0002363	142.342999935
1770.0	0.0002363	142.390000105
1770.0	0.0002363	142.437000036
1770.0	0.0002363	142.467999935
1770.0	0.0002363	142.515000105
1770.0	0.0002355	142.546999931
1770.0	0.000235	142.592999935
1770.0	0.000234	142.640000105
1770.0	0.0002338	142.671999931
1770.0	0.0002333	142.717999935
1770.0	0.0002325	142.765000105
1770.0	0.0002325	142.796999931
1770.0	0.000232	142.842999935
1770.0	0.0002328	142.890000105
1770.0	0.0002328	142.921999931
1770.0	0.0002328	142.967999935
1780.0	0.0002313	143.25
1780.0	0.000229	143.296999931
1780.0	0.0002288	143.328000069
1780.0	0.000229	143.375
1780.0	0.0002293	143.421999931
1780.0	0.0002288	143.453000069
1780.0	0.0002288	143.5
1780.0	0.0002288	143.546999931
1780.0	0.000228	143.578000069
1780.0	0.0002278	143.625
1780.0	0.0002268	143.671999931
1780.0	0.0002263	143.703000069
1780.0	0.0002268	143.75
1780.0	0.0002275	143.781000137
1780.0	0.0002278	143.828000069
1780.0	0.0002278	143.875
1780.0	0.000229	143.906000137
1780.0	0.0002295	143.953000069
1780.0	0.00023	144.0
1780.0	0.0002305	144.031000137
1780.0	0.0002303	144.078000069
1780.0	0.000229	144.108999968
1780.0	0.000228	144.156000137
1780.0	0.000227	144.203000069
1780.0	0.0002275	144.233999968
1780.0	0.000229	144.281000137
1780.0	0.00023	144.328000069
1780.0	0.0002295	144.358999968
1780.0	0.0002295	144.406000137
1780.0	0.0002303	144.437000036
1780.0	0.0002305	144.483999968
1780.0	0.0002313	144.531000137
1780.0	0.0002318	144.562000036
1780.0	0.000232	144.608999968
1780.0	0.0002315	144.656000137
1780.0	0.0002308	144.687000036
1780.0	0.0002303	144.733999968
1790.0	0.0002283	145.015000105
1790.0	0.000229	145.062000036
1790.0	0.0002295	145.092999935
1790.0	0.0002293	145.140000105
1790.0	0.0002288	145.187000036
1790.0	0.0002275	145.217999935
1790.0	0.0002263	145.265000105
1790.0	0.0002265	145.312000036
1790.0	0.0002275	145.342999935
1790.0	0.000228	145.390000105
1790.0	0.0002278	145.437000036
1790.0	0.0002278	145.467999935
1790.0	0.0002268	145.515000105
1790.0	0.0002255	145.546999931
1790.0	0.0002255	145.592999935
1790.0	0.0002253	145.640000105
1790.0	0.0002238	145.671999931
1790.0	0.0002233	145.717999935
1790.0	0.0002233	145.765000105
1790.0	0.000223	145.796999931
1790.0	0.0002233	145.842999935
1790.0	0.0002238	145.875
1790.0	0.000224	145.921999931
1790.0	0.0002243	145.967999935
1790.0	0.0002263	146.0
1790.0	0.0002263	146.046999931
1790.0	0.000225	146.092999935
1790.0	0.0002243	146.125
1790.0	0.000225	146.171999931
1790.0	0.0002245	146.217999935
1790.0	0.0002243	146.25
1790.0	0.0002245	146.296999931
1790.0	0.0002245	146.342999935
1790.0	0.0002245	146.375
1790.0	0.000225	146.421999931
1790.0	0.0002245	146.453000069
1790.0	0.0002243	146.5
1800.0	0.000222	146.796999931
1800.0	0.0002213	146.828000069
1800.0	0.0002205	146.875
1800.0	0.0002205	146.921999931
1800.0	0.00022	146.953000069
1800.0	0.0002188	147.0
1800.0	0.000218	147.046999931
1800.0	0.0002188	147.078000069
1800.0	0.000219	147.125
1800.0	0.0002193	147.156000137
1800.0	0.00022	147.203000069
1800.0	0.0002203	147.25
1800.0	0.0002193	147.281000137
1800.0	0.0002183	147.328000069
1800.0	0.0002175	147.375
1800.0	0.0002165	147.406000137
1800.0	0.0002153	147.453000069
1800.0	0.0002138	147.483999968
1800.0	0.0002128	147.531000137
1800.0	0.000213	147.578000069
1800.0	0.0002145	147.608999968
1800.0	0.000215	147.656000137
1800.0	0.0002163	147.703000069
1800.0	0.000217	147.733999968
1800.0	0.0002168	147.781000137
1800.0	0.0002165	147.828000069
1800.0	0.0002155	147.858999968
1800.0	0.0002145	147.906000137
1800.0	0.0002143	147.937000036
1800.0	0.0002143	147.983999968
1800.0	0.0002143	148.031000137
1800.0	0.0002133	148.062000036
1800.0	0.0002125	148.108999968
1800.0	0.0002115	148.156000137
1800.0	0.000212	148.187000036
1800.0	0.0002138	148.233999968
1800.0	0.0002153	148.281000137
1810.0	0.0002108	148.562000036
1810.0	0.0002083	148.608999968
1810.0	0.000208	148.656000137
1810.0	0.0002075	148.687000036
1810.0	0.0002075	148.733999968
1810.0	0.0002078	148.781000137
1810.0	0.000209	148.812000036
1810.0	0.0002108	148.858999968
1810.0	0.0002115	148.890000105
1810.0	0.00021	148.937000036
1810.0	0.0002078	148.983999968
1810.0	0.0002068	149.015000105
1810.0	0.0002058	149.062000036
1810.0	0.0002043	149.108999968
1810.0	0.0002053	149.140000105
1810.0	0.0002053	149.187000036
1810.0	0.0002055	149.233999968
1810.0	0.0002065	149.265000105
1810.0	0.0002063	149.312000036
1810.0	0.0002068	149.358999968
1810.0	0.0002075	149.390000105
1810.0	0.0002068	149.437000036
1810.0	0.0002068	149.483999968
1810.0	0.000208	149.515000105
1810.0	0.000209	149.562000036
1810.0	0.0002105	149.608999968
1810.0	0.0002113	149.656000137
1810.0	0.000212	149.687000036
1810.0	0.0002115	149.733999968
1810.0	0.0002103	149.765000105
1810.0	0.0002095	149.812000036
1810.0	0.000209	149.858999968
1810.0	0.000208	149.890000105
1810.0	0.0002065	149.937000036
1810.0	0.0002055	149.983999968
1810.0	0.000205	150.015000105
1810.0	0.000204	150.062000036
1820.0	0.000202	150.358999968
1820.0	0.0002025	150.390000105
1820.0	0.0002028	150.437000036
1820.0	0.0002013	150.483999968
1820.0	0.0002008	150.515000105
1820.0	0.0002013	150.562000036
1820.0	0.0002003	150.608999968
1820.0	0.0002003	150.640000105
1820.0	0.0002003	150.687000036
1820.0	0.0002003	150.733999968
1820.0	0.0002003	150.765000105
1820.0	0.0002005	150.812000036
1820.0	0.0002	150.842999935
1820.0	0.0002	150.890000105
1820.0	0.0002013	150.937000036
1820.0	0.0002015	150.967999935
1820.0	0.0002018	151.015000105
1820.0	0.0002028	151.062000036
1820.0	0.0002028	151.092999935
1820.0	0.000202	151.140000105
1820.0	0.0002008	151.187000036
1820.0	0.0002008	151.217999935
1820.0	0.0002003	151.265000105
1820.0	0.0001993	151.296999931
1820.0	0.0001988	151.342999935
1820.0	0.000198	151.390000105
1820.0	0.0001978	151.421999931
1820.0	0.0001975	151.467999935
1820.0	0.000198	151.515000105
1820.0	0.0001988	151.546999931
1820.0	0.0001993	151.592999935
1820.0	0.000199	151.625
1820.0	0.0001988	151.671999931
1820.0	0.0001975	151.717999935
1820.0	0.0001975	151.75
1820.0	0.0001975	151.796999931
1820.0	0.0001978	151.842999935
1830.0	0.000195	152.140000105
1830.0	0.0001925	152.171999931
1830.0	0.0001915	152.217999935
1830.0	0.0001918	152.25
1830.0	0.0001928	152.296999931
1830.0	0.0001925	152.342999935
1830.0	0.000192	152.375
1830.0	0.000192	152.421999931
1830.0	0.000192	152.467999935
1830.0	0.0001918	152.5
1830.0	0.000192	152.546999931
1830.0	0.0001925	152.592999935
1830.0	0.0001925	152.625
1830.0	0.0001918	152.671999931
1830.0	0.0001925	152.717999935
1830.0	0.000193	152.75
1830.0	0.0001925	152.796999931
1830.0	0.0001918	152.828000069
1830.0	0.0001893	152.875
1830.0	0.0001883	152.921999931
1830.0	0.000188	152.953000069
1830.0	0.0001893	153.0
1830.0	0.0001903	153.046999931
1830.0	0.0001905	153.078000069
1830.0	0.0001915	153.125
1830.0	0.0001933	153.156000137
1830.0	0.0001945	153.203000069
1830.0	0.000195	153.25
1830.0	0.000195	153.281000137
1830.0	0.0001943	153.328000069
1830.0	0.0001933	153.375
1830.0	0.0001925	153.406000137
1830.0	0.0001905	153.453000069
1830.0	0.00019	153.5
1830.0	0.00019	153.531000137
1830.0	0.00019	153.578000069
1830.0	0.0001895	153.608999968
1840.0	0.000187	153.906000137
1840.0	0.0001863	153.953000069
1840.0	0.0001855	153.983999968
1840.0	0.0001845	154.031000137
1840.0	0.000183	154.078000069
1840.0	0.000183	154.108999968
1840.0	0.0001828	154.156000137
1840.0	0.000183	154.203000069
1840.0	0.0001833	154.233999968
1840.0	0.000183	154.281000137
1840.0	0.000183	154.312000036
1840.0	0.0001838	154.358999968
1840.0	0.0001843	154.406000137
1840.0	0.0001843	154.437000036
1840.0	0.0001843	154.483999968
1840.0	0.000184	154.531000137
1840.0	0.000184	154.562000036
1840.0	0.0001843	154.608999968
1840.0	0.0001843	154.640000105
1840.0	0.0001855	154.687000036
1840.0	0.0001863	154.733999968
1840.0	0.0001863	154.765000105
1840.0	0.0001855	154.812000036
1840.0	0.0001843	154.858999968
1840.0	0.0001838	154.890000105
1840.0	0.000183	154.937000036
1840.0	0.0001838	154.967999935
1840.0	0.0001843	155.015000105
1840.0	0.000184	155.062000036
1840.0	0.000184	155.092999935
1840.0	0.0001843	155.140000105
1840.0	0.0001853	155.187000036
1840.0	0.0001845	155.217999935
1840.0	0.0001833	155.265000105
1840.0	0.0001825	155.296999931
1840.0	0.0001828	155.342999935
1840.0	0.000184	155.390000105
1850.0	0.0001795	155.687000036
1850.0	0.000177	155.717999935
1850.0	0.0001765	155.765000105
1850.0	0.0001765	155.812000036
1850.0	0.0001755	155.842999935
1850.0	0.0001745	155.890000105
1850.0	0.0001743	155.921999931
1850.0	0.0001745	155.967999935
1850.0	0.000174	156.015000105
1850.0	0.0001745	156.046999931
1850.0	0.0001743	156.092999935
1850.0	0.0001745	156.140000105
1850.0	0.0001758	156.171999931
1850.0	0.000177	156.217999935
1850.0	0.0001765	156.25
1850.0	0.0001755	156.296999931
1850.0	0.0001743	156.342999935
1850.0	0.0001725	156.375
1850.0	0.0001715	156.421999931
1850.0	0.0001713	156.467999935
1850.0	0.0001718	156.5
1850.0	0.000172	156.546999931
1850.0	0.0001738	156.578000069
1850.0	0.0001743	156.625
1850.0	0.0001755	156.671999931
1850.0	0.0001763	156.703000069
1850.0	0.0001765	156.75
1850.0	0.000177	156.796999931
1850.0	0.0001775	156.828000069
1850.0	0.0001768	156.875
1850.0	0.0001755	156.906000137
1850.0	0.0001755	156.953000069
1850.0	0.0001765	157.0
1850.0	0.0001763	157.031000137
1850.0	0.0001763	157.078000069
1850.0	0.0001753	157.125
1850.0	0.0001743	157.156000137
1860.0	0.0001713	157.453000069
1860.0	0.0001693	157.5
1860.0	0.0001678	157.531000137
1860.0	0.0001675	157.578000069
1860.0	0.0001675	157.625
1860.0	0.0001678	157.656000137
1860.0	0.0001675	157.703000069
1860.0	0.0001678	157.75
1860.0	0.0001678	157.781000137
1860.0	0.0001665	157.828000069
1860.0	0.0001668	157.858999968
1860.0	0.000167	157.906000137
1860.0	0.000167	157.953000069
1860.0	0.0001668	157.983999968
1860.0	0.0001665	158.031000137
1860.0	0.0001655	158.078000069
1860.0	0.0001658	158.108999968
1860.0	0.0001668	158.156000137
1860.0	0.0001658	158.203000069
1860.0	0.0001653	158.233999968
1860.0	0.0001655	158.281000137
1860.0	0.0001663	158.312000036
1860.0	0.000167	158.358999968
1860.0	0.0001688	158.406000137
1860.0	0.0001683	158.453000069
1860.0	0.000168	158.483999968
1860.0	0.000168	158.531000137
1860.0	0.000168	158.562000036
1860.0	0.0001678	158.608999968
1860.0	0.000168	158.656000137
1860.0	0.0001683	158.687000036
1860.0	0.0001675	158.733999968
1860.0	0.0001675	158.781000137
1860.0	0.000167	158.812000036
1860.0	0.0001663	158.858999968
1860.0	0.0001653	158.906000137
1870.0	0.000164	159.203000069
1870.0	0.0001633	159.233999968
1870.0	0.0001633	159.281000137
1870.0	0.0001618	159.328000069
1870.0	0.0001605	159.358999968
1870.0	0.0001603	159.406000137
1870.0	0.0001605	159.437000036
1870.0	0.0001613	159.483999968
1870.0	0.0001633	159.531000137
1870.0	0.000164	159.562000036
1870.0	0.0001643	159.608999968
1870.0	0.0001645	159.656000137
1870.0	0.0001653	159.687000036
1870.0	0.0001653	159.733999968
1870.0	0.0001663	159.765000105
1870.0	0.0001665	159.812000036
1870.0	0.0001663	159.858999968
1870.0	0.0001655	159.890000105
1870.0	0.0001643	159.937000036
1870.0	0.000164	159.983999968
1870.0	0.0001645	160.015000105
1870.0	0.000165	160.062000036
1870.0	0.0001643	160.108999968
1870.0	0.0001625	160.140000105
1870.0	0.0001608	160.187000036
1870.0	0.0001608	160.233999968
1870.0	0.0001615	160.265000105
1870.0	0.0001628	160.312000036
1870.0	0.0001638	160.342999935
1870.0	0.0001633	160.390000105
1870.0	0.0001618	160.437000036
1870.0	0.0001613	160.467999935
1870.0	0.0001603	160.515000105
1870.0	0.0001593	160.562000036
1870.0	0.0001583	160.592999935
1870.0	0.000159	160.640000105
1870.0	0.0001583	160.687000036
1880.0	0.0001538	160.967999935
1880.0	0.0001528	161.015000105
1880.0	0.0001528	161.062000036
1880.0	0.0001538	161.092999935
1880.0	0.0001543	161.140000105
1880.0	0.000155	161.187000036
1880.0	0.0001553	161.217999935
1880.0	0.0001563	161.265000105
1880.0	0.0001563	161.296999931
1880.0	0.0001568	161.342999935
1880.0	0.0001588	161.390000105
1880.0	0.0001588	161.421999931
1880.0	0.0001568	161.467999935
1880.0	0.0001568	161.515000105
1880.0	0.0001568	161.562000036
1880.0	0.0001563	161.592999935
1880.0	0.0001553	161.640000105
1880.0	0.0001543	161.687000036
1880.0	0.0001555	161.717999935
1880.0	0.0001568	161.765000105
1880.0	0.0001575	161.812000036
1880.0	0.000157	161.842999935
1880.0	0.0001568	161.890000105
1880.0	0.0001553	161.921999931
1880.0	0.0001538	161.967999935
1880.0	0.000153	162.015000105
1880.0	0.0001528	162.046999931
1880.0	0.0001538	162.092999935
1880.0	0.0001553	162.140000105
1880.0	0.0001563	162.171999931
1880.0	0.000157	162.217999935
1880.0	0.0001575	162.25
1880.0	0.0001568	162.296999931
1880.0	0.0001565	162.342999935
1880.0	0.000157	162.375
1880.0	0.000158	162.421999931
1880.0	0.000157	162.467999935
1890.0	0.0001558	162.765000105
1890.0	0.0001545	162.796999931
1890.0	0.0001538	162.842999935
1890.0	0.0001525	162.875
1890.0	0.0001508	162.921999931
1890.0	0.0001495	162.967999935
1890.0	0.000149	163.0
1890.0	0.0001493	163.046999931
1890.0	0.0001493	163.092999935
1890.0	0.000149	163.125
1890.0	0.00015	163.171999931
1890.0	0.0001503	163.203000069
1890.0	0.000149	163.25
1890.0	0.000149	163.296999931
1890.0	0.000149	163.328000069
1890.0	0.0001495	163.375
1890.0	0.0001495	163.421999931
1890.0	0.0001503	163.453000069
1890.0	0.0001508	163.5
1890.0	0.0001495	163.531000137
1890.0	0.000149	163.578000069
1890.0	0.0001478	163.625
1890.0	0.000147	163.656000137
1890.0	0.0001468	163.703000069
1890.0	0.0001458	163.75
1890.0	0.0001455	163.796999931
1890.0	0.0001463	163.828000069
1890.0	0.000147	163.875
1890.0	0.0001465	163.906000137
1890.0	0.0001465	163.953000069
1890.0	0.0001468	164.0
1890.0	0.0001478	164.031000137
1890.0	0.0001493	164.078000069
1890.0	0.00015	164.125
1890.0	0.0001488	164.156000137
1890.0	0.0001478	164.203000069
1890.0	0.0001478	164.233999968
1900.0	0.0001505	164.531000137
1900.0	0.0001503	164.578000069
1900.0	0.0001503	164.625
1900.0	0.0001495	164.656000137
1900.0	0.0001493	164.703000069
1900.0	0.0001488	164.75
1900.0	0.0001468	164.781000137
1900.0	0.000144	164.828000069
1900.0	0.0001433	164.858999968
1900.0	0.0001428	164.906000137
1900.0	0.0001425	164.953000069
1900.0	0.0001425	164.983999968
1900.0	0.000142	165.031000137
1900.0	0.0001418	165.078000069
1900.0	0.0001415	165.108999968
1900.0	0.0001415	165.156000137
1900.0	0.0001405	165.187000036
1900.0	0.0001405	165.233999968
1900.0	0.0001413	165.281000137
1900.0	0.0001408	165.312000036
1900.0	0.0001405	165.358999968
1900.0	0.0001403	165.406000137
1900.0	0.0001413	165.437000036
1900.0	0.0001438	165.483999968
1900.0	0.0001455	165.531000137
1900.0	0.000147	165.562000036
1900.0	0.000148	165.608999968
1900.0	0.000148	165.656000137
1900.0	0.0001488	165.687000036
1900.0	0.0001488	165.733999968
1900.0	0.0001488	165.781000137
1900.0	0.000149	165.812000036
1900.0	0.000149	165.858999968
1900.0	0.000148	165.890000105
1900.0	0.0001465	165.937000036
1900.0	0.0001455	165.983999968
1900.0	0.0001455	166.015000105
1910.0	0.0001505	166.312000036
1910.0	0.0001503	166.358999968
1910.0	0.0001493	166.390000105
1910.0	0.0001493	166.437000036
1910.0	0.0001475	166.467999935
1910.0	0.0001455	166.515000105
1910.0	0.0001443	166.562000036
1910.0	0.0001428	166.592999935
1910.0	0.0001415	166.640000105
1910.0	0.0001408	166.687000036
1910.0	0.0001403	166.717999935
1910.0	0.0001395	166.765000105
1910.0	0.0001403	166.796999931
1910.0	0.0001413	166.842999935
1910.0	0.0001415	166.890000105
1910.0	0.0001408	166.921999931
1910.0	0.0001403	166.967999935
1910.0	0.0001413	167.015000105
1910.0	0.000143	167.046999931
1910.0	0.0001433	167.092999935
1910.0	0.0001438	167.125
1910.0	0.0001438	167.171999931
1910.0	0.0001438	167.217999935
1910.0	0.0001433	167.25
1910.0	0.000143	167.296999931
1910.0	0.0001425	167.342999935
1910.0	0.000142	167.375
1910.0	0.0001428	167.421999931
1910.0	0.0001428	167.467999935
1910.0	0.0001433	167.5
1910.0	0.0001443	167.546999931
1910.0	0.0001438	167.592999935
1910.0	0.0001428	167.625
1910.0	0.0001405	167.671999931
1910.0	0.0001395	167.717999935
1910.0	0.0001388	167.75
1910.0	0.0001395	167.796999931
1920.0	0.0001438	168.078000069
1920.0	0.0001433	168.125
1920.0	0.000143	168.171999931
1920.0	0.0001418	168.203000069
1920.0	0.0001408	168.25
1920.0	0.0001403	168.296999931
1920.0	0.0001388	168.328000069
1920.0	0.000137	168.375
1920.0	0.0001368	168.421999931
1920.0	0.0001358	168.453000069
1920.0	0.000137	168.5
1920.0	0.000139	168.531000137
1920.0	0.0001405	168.578000069
1920.0	0.000142	168.625
1920.0	0.000143	168.656000137
1920.0	0.0001418	168.703000069
1920.0	0.0001418	168.75
1920.0	0.0001415	168.781000137
1920.0	0.0001415	168.828000069
1920.0	0.0001418	168.858999968
1920.0	0.000143	168.906000137
1920.0	0.0001438	168.953000069
1920.0	0.0001428	168.983999968
1920.0	0.0001415	169.031000137
1920.0	0.0001413	169.078000069
1920.0	0.0001413	169.108999968
1920.0	0.0001413	169.156000137
1920.0	0.0001408	169.187000036
1920.0	0.0001405	169.233999968
1920.0	0.000138	169.281000137
1920.0	0.000137	169.328000069
1920.0	0.0001365	169.358999968
1920.0	0.0001375	169.406000137
1920.0	0.000138	169.453000069
1920.0	0.000138	169.483999968
1920.0	0.0001378	169.531000137
1920.0	0.0001368	169.562000036
1930.0	0.00014	169.858999968
1930.0	0.000139	169.906000137
1930.0	0.0001383	169.953000069
1930.0	0.000137	169.983999968
1930.0	0.0001363	170.031000137
1930.0	0.0001343	170.062000036
1930.0	0.000134	170.108999968
1930.0	0.0001355	170.156000137
1930.0	0.0001378	170.187000036
1930.0	0.0001383	170.233999968
1930.0	0.0001368	170.281000137
1930.0	0.0001358	170.312000036
1930.0	0.0001353	170.358999968
1930.0	0.0001345	170.390000105
1930.0	0.0001333	170.437000036
1930.0	0.0001328	170.483999968
1930.0	0.0001333	170.515000105
1930.0	0.0001345	170.562000036
1930.0	0.0001353	170.608999968
1930.0	0.0001355	170.640000105
1930.0	0.0001358	170.687000036
1930.0	0.0001365	170.717999935
1930.0	0.0001375	170.765000105
1930.0	0.000138	170.812000036
1930.0	0.0001388	170.842999935
1930.0	0.0001388	170.890000105
1930.0	0.0001388	170.937000036
1930.0	0.000139	170.967999935
1930.0	0.0001395	171.015000105
1930.0	0.0001403	171.046999931
1930.0	0.0001395	171.092999935
1930.0	0.0001388	171.140000105
1930.0	0.000139	171.171999931
1930.0	0.0001395	171.217999935
1930.0	0.00014	171.265000105
1930.0	0.0001403	171.296999931
1930.0	0.0001413	171.342999935
1940.0	0.0001358	171.640000105
1940.0	0.0001353	171.671999931
1940.0	0.0001345	171.717999935
1940.0	0.0001343	171.765000105
1940.0	0.0001333	171.796999931
1940.0	0.000132	171.842999935
1940.0	0.0001325	171.890000105
1940.0	0.0001315	171.921999931
1940.0	0.0001308	171.967999935
1940.0	0.000132	172.015000105
1940.0	0.0001333	172.046999931
1940.0	0.000134	172.092999935
1940.0	0.0001333	172.125
1940.0	0.000133	172.171999931
1940.0	0.0001343	172.217999935
1940.0	0.000135	172.25
1940.0	0.0001345	172.296999931
1940.0	0.0001343	172.342999935
1940.0	0.0001343	172.375
1940.0	0.000135	172.421999931
1940.0	0.0001355	172.467999935
1940.0	0.0001363	172.5
1940.0	0.0001363	172.546999931
1940.0	0.0001353	172.592999935
1940.0	0.000135	172.625
1940.0	0.000135	172.671999931
1940.0	0.0001353	172.703000069
1940.0	0.000134	172.75
1940.0	0.0001338	172.796999931
1940.0	0.0001338	172.828000069
1940.0	0.0001343	172.875
1940.0	0.0001353	172.921999931
1940.0	0.0001368	172.953000069
1940.0	0.0001388	173.0
1940.0	0.0001388	173.046999931
1940.0	0.000138	173.078000069
1940.0	0.000137	173.125
1950.0	0.0001355	173.421999931
1950.0	0.000135	173.467999935
1950.0	0.0001345	173.5
1950.0	0.0001338	173.546999931
1950.0	0.0001333	173.578000069
1950.0	0.0001318	173.625
1950.0	0.0001295	173.671999931
1950.0	0.0001303	173.703000069
1950.0	0.000132	173.75
1950.0	0.0001328	173.796999931
1950.0	0.000133	173.828000069
1950.0	0.0001333	173.875
1950.0	0.000133	173.906000137
1950.0	0.0001328	173.953000069
1950.0	0.0001333	174.0
1950.0	0.0001333	174.031000137
1950.0	0.000133	174.078000069
1950.0	0.000134	174.125
1950.0	0.0001345	174.156000137
1950.0	0.0001353	174.203000069
1950.0	0.0001358	174.25
1950.0	0.0001355	174.281000137
1950.0	0.0001343	174.328000069
1950.0	0.0001343	174.375
1950.0	0.0001333	174.406000137
1950.0	0.0001325	174.453000069
1950.0	0.000133	174.5
1950.0	0.0001343	174.531000137
1950.0	0.0001338	174.578000069
1950.0	0.0001333	174.608999968
1950.0	0.0001333	174.656000137
1950.0	0.0001328	174.703000069
1950.0	0.000132	174.733999968
1950.0	0.0001313	174.781000137
1950.0	0.0001308	174.828000069
1950.0	0.0001313	174.858999968
1950.0	0.0001303	174.906000137
1960.0	0.0001338	175.203000069
1960.0	0.0001345	175.25
1960.0	0.0001338	175.281000137
1960.0	0.000132	175.328000069
1960.0	0.0001315	175.375
1960.0	0.0001328	175.406000137
1960.0	0.000134	175.453000069
1960.0	0.0001338	175.483999968
1960.0	0.000134	175.531000137
1960.0	0.0001328	175.578000069
1960.0	0.0001308	175.608999968
1960.0	0.0001305	175.656000137
1960.0	0.0001318	175.703000069
1960.0	0.000132	175.733999968
1960.0	0.0001313	175.781000137
1960.0	0.0001318	175.812000036
1960.0	0.0001313	175.858999968
1960.0	0.0001318	175.906000137
1960.0	0.0001315	175.937000036
1960.0	0.0001313	175.983999968
1960.0	0.0001305	176.031000137
1960.0	0.0001293	176.062000036
1960.0	0.0001288	176.108999968
1960.0	0.0001293	176.156000137
1960.0	0.0001295	176.187000036
1960.0	0.00013	176.233999968
1960.0	0.0001305	176.265000105
1960.0	0.0001318	176.312000036
1960.0	0.0001338	176.358999968
1960.0	0.0001338	176.390000105
1960.0	0.0001338	176.437000036
1960.0	0.0001338	176.467999935
1960.0	0.000133	176.515000105
1960.0	0.000132	176.562000036
1960.0	0.0001308	176.592999935
1960.0	0.000129	176.640000105
1960.0	0.000128	176.687000036
1970.0	0.0001288	176.983999968
1970.0	0.000129	177.031000137
1970.0	0.0001288	177.062000036
1970.0	0.0001288	177.108999968
1970.0	0.000129	177.140000105
1970.0	0.00013	177.187000036
1970.0	0.0001303	177.233999968
1970.0	0.0001295	177.281000137
1970.0	0.0001293	177.312000036
1970.0	0.0001283	177.358999968
1970.0	0.000128	177.406000137
1970.0	0.000129	177.437000036
1970.0	0.0001293	177.483999968
1970.0	0.00013	177.531000137
1970.0	0.00013	177.562000036
1970.0	0.00013	177.608999968
1970.0	0.000129	177.640000105
1970.0	0.0001288	177.687000036
1970.0	0.000129	177.733999968
1970.0	0.0001295	177.765000105
1970.0	0.0001303	177.812000036
1970.0	0.000132	177.858999968
1970.0	0.000133	177.890000105
1970.0	0.000133	177.937000036
1970.0	0.000132	177.967999935
1970.0	0.0001305	178.015000105
1970.0	0.000129	178.062000036
1970.0	0.0001288	178.092999935
1970.0	0.00013	178.140000105
1970.0	0.0001305	178.187000036
1970.0	0.00013	178.217999935
1970.0	0.0001288	178.265000105
1970.0	0.000127	178.296999931
1970.0	0.000127	178.342999935
1970.0	0.0001275	178.390000105
1970.0	0.000127	178.421999931
1970.0	0.0001268	178.467999935
1980.0	0.0001268	178.765000105
1980.0	0.000127	178.812000036
1980.0	0.0001253	178.842999935
1980.0	0.000124	178.890000105
1980.0	0.000123	178.921999931
1980.0	0.000123	178.967999935
1980.0	0.0001238	179.015000105
1980.0	0.0001238	179.046999931
1980.0	0.0001233	179.092999935
1980.0	0.000124	179.140000105
1980.0	0.0001255	179.171999931
1980.0	0.0001253	179.217999935
1980.0	0.0001255	179.25
1980.0	0.0001265	179.296999931
1980.0	0.0001275	179.342999935
1980.0	0.0001278	179.375
1980.0	0.0001275	179.421999931
1980.0	0.000127	179.467999935
1980.0	0.0001268	179.5
1980.0	0.0001263	179.546999931
1980.0	0.0001253	179.578000069
1980.0	0.0001255	179.625
1980.0	0.0001258	179.671999931
1980.0	0.0001258	179.703000069
1980.0	0.0001255	179.75
1980.0	0.0001258	179.796999931
1980.0	0.000127	179.828000069
1980.0	0.0001275	179.875
1980.0	0.000127	179.921999931
1980.0	0.0001278	179.953000069
1980.0	0.000128	180.0
1980.0	0.0001278	180.031000137
1980.0	0.000128	180.078000069
1980.0	0.000128	180.125
1980.0	0.000127	180.156000137
1980.0	0.0001263	180.203000069
1980.0	0.0001255	180.25
1990.0	0.0001238	180.546999931
1990.0	0.0001215	180.592999935
1990.0	0.0001203	180.625
1990.0	0.0001195	180.671999931
1990.0	0.00012	180.717999935
1990.0	0.0001213	180.75
1990.0	0.0001228	180.796999931
1990.0	0.0001228	180.828000069
1990.0	0.0001218	180.875
1990.0	0.0001208	180.921999931
1990.0	0.0001205	180.953000069
1990.0	0.00012	181.0
1990.0	0.0001193	181.046999931
1990.0	0.0001183	181.078000069
1990.0	0.0001178	181.125
1990.0	0.0001178	181.171999931
1990.0	0.000118	181.203000069
1990.0	0.0001183	181.25
1990.0	0.0001193	181.296999931
1990.0	0.0001215	181.328000069
1990.0	0.000122	181.375
1990.0	0.000122	181.406000137
1990.0	0.000122	181.453000069
1990.0	0.000123	181.5
1990.0	0.000122	181.531000137
1990.0	0.0001218	181.578000069
1990.0	0.0001213	181.625
1990.0	0.0001205	181.656000137
1990.0	0.0001215	181.703000069
1990.0	0.000122	181.75
1990.0	0.000123	181.781000137
1990.0	0.000124	181.828000069
1990.0	0.0001255	181.875
1990.0	0.0001253	181.906000137
1990.0	0.000125	181.953000069
1990.0	0.0001245	182.0
2000.0	0.00012	182.296999931
2000.0	0.0001183	182.342999935
2000.0	0.0001178	182.375
2000.0	0.0001175	182.421999931
2000.0	0.0001175	182.467999935
2000.0	0.000117	182.5
2000.0	0.0001155	182.546999931
2000.0	0.0001143	182.578000069
2000.0	0.000114	182.625
2000.0	0.0001133	182.671999931
2000.0	0.000112	182.703000069
2000.0	0.000113	182.75
2000.0	0.0001143	182.796999931
2000.0	0.0001153	182.828000069
2000.0	0.0001163	182.875
2000.0	0.000117	182.906000137
2000.0	0.0001178	182.953000069
2000.0	0.000118	183.0
2000.0	0.000119	183.031000137
2000.0	0.0001195	183.078000069
2000.0	0.0001193	183.125
2000.0	0.00012	183.156000137
2000.0	0.0001195	183.203000069
2000.0	0.0001188	183.233999968
2000.0	0.0001168	183.281000137
2000.0	0.000115	183.328000069
2000.0	0.000115	183.358999968
2000.0	0.0001143	183.406000137
2000.0	0.0001125	183.453000069
2000.0	0.0001118	183.483999968
2000.0	0.000112	183.531000137
2000.0	0.000113	183.562000036
2000.0	0.0001143	183.608999968
2000.0	0.000115	183.656000137
2000.0	0.0001153	183.687000036
2000.0	0.0001145	183.733999968
2000.0	0.0001145	183.781000137
