Your edit line - do NOT delete this line
Wavelength [nm], Voltage [V], Elapsed time [s]
600.0	9.3e-06	5.73399996758
600.0	9e-06	5.76499986649
600.0	8.8e-06	5.81200003624
600.0	9e-06	5.85899996758
600.0	8.8e-06	5.88999986649
600.0	9e-06	5.93700003624
600.0	9e-06	5.98399996758
600.0	9e-06	6.01499986649
600.0	9e-06	6.06200003624
600.0	8.8e-06	6.09299993515
600.0	8.3e-06	6.13999986649
600.0	8e-06	6.18700003624
600.0	8e-06	6.21799993515
600.0	8e-06	6.26499986649
600.0	8.3e-06	6.31200003624
600.0	8.8e-06	6.34299993515
600.0	8.8e-06	6.38999986649
600.0	8.8e-06	6.42100000381
600.0	8.8e-06	6.46799993515
600.0	8.8e-06	6.51499986649
600.0	8.8e-06	6.54600000381
600.0	9e-06	6.59299993515
600.0	9e-06	6.63999986649
600.0	8.8e-06	6.67100000381
600.0	8.8e-06	6.71799993515
600.0	8.8e-06	6.76499986649
600.0	8.8e-06	6.79600000381
600.0	8.8e-06	6.84299993515
600.0	8.3e-06	6.88999986649
600.0	8.3e-06	6.92100000381
600.0	8.3e-06	6.96799993515
600.0	8.3e-06	7.01499986649
600.0	8.3e-06	7.04600000381
600.0	8.3e-06	7.09299993515
600.0	8.8e-06	7.125
600.0	8.8e-06	7.17100000381
600.0	8.8e-06	7.21799993515
620.0	1.08e-05	8.13999986649
620.0	1.05e-05	8.18700003624
620.0	1.08e-05	8.23399996758
620.0	1.08e-05	8.26499986649
620.0	1.05e-05	8.31200003624
620.0	1.03e-05	8.34299993515
620.0	1.05e-05	8.38999986649
620.0	1.08e-05	8.43700003624
620.0	1.08e-05	8.46799993515
620.0	1.08e-05	8.51499986649
620.0	1.08e-05	8.56200003624
620.0	1.05e-05	8.59299993515
620.0	1.05e-05	8.63999986649
620.0	1.05e-05	8.68700003624
620.0	1.03e-05	8.71799993515
620.0	1e-05	8.76499986649
620.0	9.5e-06	8.79600000381
620.0	9.5e-06	8.84299993515
620.0	9.5e-06	8.88999986649
620.0	1e-05	8.92100000381
620.0	1e-05	8.96799993515
620.0	1.03e-05	9.01499986649
620.0	1.05e-05	9.04600000381
620.0	1.05e-05	9.09299993515
620.0	1.05e-05	9.125
620.0	1.08e-05	9.17100000381
620.0	1.08e-05	9.21799993515
620.0	1.08e-05	9.25
620.0	1.03e-05	9.29600000381
620.0	9.5e-06	9.34299993515
620.0	9.5e-06	9.375
620.0	9.3e-06	9.42100000381
620.0	9.3e-06	9.46799993515
620.0	9.3e-06	9.5
620.0	9.5e-06	9.54600000381
620.0	9.5e-06	9.57800006866
620.0	9.5e-06	9.625
640.0	1.13e-05	10.4839999676
640.0	1.13e-05	10.5309998989
640.0	1.13e-05	10.5620000362
640.0	1.15e-05	10.6089999676
640.0	1.18e-05	10.6559998989
640.0	1.18e-05	10.6870000362
640.0	1.2e-05	10.7339999676
640.0	1.2e-05	10.7809998989
640.0	1.2e-05	10.8120000362
640.0	1.18e-05	10.8589999676
640.0	1.18e-05	10.8899998665
640.0	1.2e-05	10.9370000362
640.0	1.2e-05	10.9839999676
640.0	1.2e-05	11.0149998665
640.0	1.2e-05	11.0620000362
640.0	1.25e-05	11.1089999676
640.0	1.25e-05	11.1399998665
640.0	1.2e-05	11.1870000362
640.0	1.18e-05	11.2339999676
640.0	1.18e-05	11.2649998665
640.0	1.18e-05	11.3120000362
640.0	1.2e-05	11.3429999352
640.0	1.2e-05	11.3899998665
640.0	1.2e-05	11.4370000362
640.0	1.2e-05	11.4679999352
640.0	1.25e-05	11.5149998665
640.0	1.25e-05	11.5620000362
640.0	1.28e-05	11.5929999352
640.0	1.28e-05	11.6399998665
640.0	1.3e-05	11.6710000038
640.0	1.3e-05	11.7179999352
640.0	1.28e-05	11.7649998665
640.0	1.28e-05	11.7960000038
640.0	1.28e-05	11.8429999352
640.0	1.3e-05	11.8899998665
640.0	1.3e-05	11.9210000038
640.0	1.3e-05	11.9679999352
660.0	1.38e-05	12.7809998989
660.0	1.4e-05	12.8280000687
660.0	1.43e-05	12.875
660.0	1.4e-05	12.9059998989
660.0	1.4e-05	12.9530000687
660.0	1.4e-05	13.0
660.0	1.4e-05	13.0309998989
660.0	1.38e-05	13.0780000687
660.0	1.38e-05	13.1089999676
660.0	1.33e-05	13.1559998989
660.0	1.38e-05	13.2030000687
660.0	1.4e-05	13.2339999676
660.0	1.4e-05	13.2809998989
660.0	1.4e-05	13.3280000687
660.0	1.4e-05	13.3589999676
660.0	1.4e-05	13.4059998989
660.0	1.43e-05	13.4370000362
660.0	1.43e-05	13.4839999676
660.0	1.45e-05	13.5309998989
660.0	1.45e-05	13.5620000362
660.0	1.45e-05	13.6089999676
660.0	1.45e-05	13.6559998989
660.0	1.43e-05	13.6870000362
660.0	1.4e-05	13.7339999676
660.0	1.4e-05	13.7649998665
660.0	1.4e-05	13.8120000362
660.0	1.4e-05	13.8589999676
660.0	1.38e-05	13.8899998665
660.0	1.33e-05	13.9370000362
660.0	1.33e-05	13.9839999676
660.0	1.38e-05	14.0149998665
660.0	1.4e-05	14.0620000362
660.0	1.4e-05	14.1089999676
660.0	1.4e-05	14.1399998665
660.0	1.43e-05	14.1870000362
660.0	1.43e-05	14.2179999352
660.0	1.43e-05	14.2649998665
680.0	1.65e-05	15.0309998989
680.0	1.68e-05	15.0780000687
680.0	1.75e-05	15.125
680.0	1.78e-05	15.1559998989
680.0	1.8e-05	15.2030000687
680.0	1.8e-05	15.25
680.0	1.83e-05	15.2809998989
680.0	1.83e-05	15.3280000687
680.0	1.83e-05	15.3589999676
680.0	1.88e-05	15.4059998989
680.0	1.9e-05	15.4530000687
680.0	1.88e-05	15.4839999676
680.0	1.88e-05	15.5309998989
680.0	1.88e-05	15.5780000687
680.0	1.88e-05	15.6089999676
680.0	1.88e-05	15.6559998989
680.0	1.88e-05	15.7030000687
680.0	1.83e-05	15.7339999676
680.0	1.83e-05	15.7809998989
680.0	1.88e-05	15.8280000687
680.0	1.9e-05	15.875
680.0	1.93e-05	15.9059998989
680.0	1.93e-05	15.9530000687
680.0	1.9e-05	15.9839999676
680.0	1.9e-05	16.0309998989
680.0	1.88e-05	16.0780000687
680.0	1.9e-05	16.1089999676
680.0	1.88e-05	16.1559998989
680.0	1.88e-05	16.2030000687
680.0	1.83e-05	16.2339999676
680.0	1.83e-05	16.2809998989
680.0	1.83e-05	16.3120000362
680.0	1.83e-05	16.3589999676
680.0	1.88e-05	16.4059998989
680.0	1.9e-05	16.4370000362
680.0	1.9e-05	16.4839999676
680.0	1.88e-05	16.5309998989
700.0	2.2e-05	17.2339999676
700.0	2.2e-05	17.2809998989
700.0	2.25e-05	17.3280000687
700.0	2.3e-05	17.3589999676
700.0	2.33e-05	17.4059998989
700.0	2.3e-05	17.4370000362
700.0	2.3e-05	17.4839999676
700.0	2.33e-05	17.5309998989
700.0	2.38e-05	17.5620000362
700.0	2.38e-05	17.6089999676
700.0	2.33e-05	17.6559998989
700.0	2.33e-05	17.6870000362
700.0	2.33e-05	17.7339999676
700.0	2.38e-05	17.7649998665
700.0	2.38e-05	17.8120000362
700.0	2.33e-05	17.8589999676
700.0	2.3e-05	17.8899998665
700.0	2.3e-05	17.9370000362
700.0	2.3e-05	17.9839999676
700.0	2.2e-05	18.0309998989
700.0	2.2e-05	18.0620000362
700.0	2.18e-05	18.1089999676
700.0	2.2e-05	18.1559998989
700.0	2.25e-05	18.1870000362
700.0	2.25e-05	18.2339999676
700.0	2.25e-05	18.2809998989
700.0	2.25e-05	18.3120000362
700.0	2.25e-05	18.3589999676
700.0	2.28e-05	18.3899998665
700.0	2.28e-05	18.4370000362
700.0	2.25e-05	18.4839999676
700.0	2.25e-05	18.5149998665
700.0	2.25e-05	18.5620000362
700.0	2.2e-05	18.6089999676
700.0	2.25e-05	18.6399998665
700.0	2.2e-05	18.6870000362
700.0	2.2e-05	18.7179999352
720.0	2.65e-05	19.4210000038
720.0	2.68e-05	19.4679999352
720.0	2.68e-05	19.5
720.0	2.68e-05	19.5460000038
720.0	2.7e-05	19.5929999352
720.0	2.7e-05	19.625
720.0	2.68e-05	19.6710000038
720.0	2.68e-05	19.7179999352
720.0	2.7e-05	19.75
720.0	2.75e-05	19.7960000038
720.0	2.78e-05	19.8280000687
720.0	2.78e-05	19.875
720.0	2.8e-05	19.9210000038
720.0	2.83e-05	19.9530000687
720.0	2.88e-05	20.0
720.0	2.8e-05	20.0460000038
720.0	2.8e-05	20.0780000687
720.0	2.83e-05	20.125
720.0	2.8e-05	20.1559998989
720.0	2.8e-05	20.2030000687
720.0	2.78e-05	20.25
720.0	2.78e-05	20.2809998989
720.0	2.8e-05	20.3280000687
720.0	2.88e-05	20.375
720.0	2.88e-05	20.4059998989
720.0	2.88e-05	20.4530000687
720.0	2.88e-05	20.4839999676
720.0	2.9e-05	20.5309998989
720.0	2.88e-05	20.5780000687
720.0	2.83e-05	20.6089999676
720.0	2.83e-05	20.6559998989
720.0	2.88e-05	20.7030000687
720.0	2.88e-05	20.7339999676
720.0	2.88e-05	20.7809998989
720.0	2.9e-05	20.8280000687
720.0	2.93e-05	20.8589999676
720.0	2.93e-05	20.9059998989
740.0	3.33e-05	21.5780000687
740.0	3.4e-05	21.6089999676
740.0	3.45e-05	21.6559998989
740.0	3.45e-05	21.7030000687
740.0	3.5e-05	21.7339999676
740.0	3.5e-05	21.7809998989
740.0	3.53e-05	21.8280000687
740.0	3.58e-05	21.8589999676
740.0	3.55e-05	21.9059998989
740.0	3.58e-05	21.9530000687
740.0	3.58e-05	21.9839999676
740.0	3.58e-05	22.0309998989
740.0	3.55e-05	22.0620000362
740.0	3.55e-05	22.1089999676
740.0	3.53e-05	22.1559998989
740.0	3.55e-05	22.1870000362
740.0	3.53e-05	22.2339999676
740.0	3.5e-05	22.2809998989
740.0	3.43e-05	22.3120000362
740.0	3.43e-05	22.3589999676
740.0	3.43e-05	22.3899998665
740.0	3.43e-05	22.4370000362
740.0	3.4e-05	22.4839999676
740.0	3.4e-05	22.5149998665
740.0	3.4e-05	22.5620000362
740.0	3.43e-05	22.6089999676
740.0	3.45e-05	22.6399998665
740.0	3.45e-05	22.6870000362
740.0	3.5e-05	22.7339999676
740.0	3.53e-05	22.7649998665
740.0	3.55e-05	22.8120000362
740.0	3.55e-05	22.8429999352
740.0	3.55e-05	22.8899998665
740.0	3.53e-05	22.9370000362
740.0	3.53e-05	22.9679999352
740.0	3.5e-05	23.0149998665
740.0	3.45e-05	23.0620000362
760.0	3.93e-05	23.6870000362
760.0	4.03e-05	23.7339999676
760.0	4.05e-05	23.7649998665
760.0	4.13e-05	23.8120000362
760.0	4.15e-05	23.8589999676
760.0	4.18e-05	23.8899998665
760.0	4.15e-05	23.9370000362
760.0	4.18e-05	23.9679999352
760.0	4.18e-05	24.0149998665
760.0	4.18e-05	24.0620000362
760.0	4.2e-05	24.0929999352
760.0	4.2e-05	24.1399998665
760.0	4.2e-05	24.1870000362
760.0	4.18e-05	24.2179999352
760.0	4.18e-05	24.2649998665
760.0	4.15e-05	24.2960000038
760.0	4.13e-05	24.3429999352
760.0	4.08e-05	24.3899998665
760.0	4.08e-05	24.4210000038
760.0	4.13e-05	24.4679999352
760.0	4.15e-05	24.5149998665
760.0	4.13e-05	24.5460000038
760.0	4.08e-05	24.5929999352
760.0	4.08e-05	24.6399998665
760.0	4.13e-05	24.6710000038
760.0	4.13e-05	24.7179999352
760.0	4.13e-05	24.75
760.0	4.13e-05	24.7960000038
760.0	4.15e-05	24.8429999352
760.0	4.15e-05	24.875
760.0	4.15e-05	24.9210000038
760.0	4.13e-05	24.9679999352
760.0	4.13e-05	25.0
760.0	4.13e-05	25.0460000038
760.0	4.15e-05	25.0780000687
760.0	4.15e-05	25.125
760.0	4.15e-05	25.1710000038
780.0	4.63e-05	25.7649998665
780.0	4.68e-05	25.7960000038
780.0	4.75e-05	25.8429999352
780.0	4.78e-05	25.8899998665
780.0	4.83e-05	25.9210000038
780.0	4.88e-05	25.9679999352
780.0	4.9e-05	26.0149998665
780.0	4.9e-05	26.0460000038
780.0	4.9e-05	26.0929999352
780.0	4.88e-05	26.1399998665
780.0	4.9e-05	26.1710000038
780.0	4.88e-05	26.2179999352
780.0	4.88e-05	26.2649998665
780.0	4.83e-05	26.2960000038
780.0	4.8e-05	26.3429999352
780.0	4.8e-05	26.375
780.0	4.8e-05	26.4210000038
780.0	4.83e-05	26.4679999352
780.0	4.8e-05	26.5
780.0	4.78e-05	26.5460000038
780.0	4.75e-05	26.5929999352
780.0	4.78e-05	26.625
780.0	4.75e-05	26.6710000038
780.0	4.75e-05	26.7179999352
780.0	4.75e-05	26.75
780.0	4.75e-05	26.7960000038
780.0	4.8e-05	26.8280000687
780.0	4.8e-05	26.875
780.0	4.83e-05	26.9210000038
780.0	4.88e-05	26.9530000687
780.0	4.88e-05	27.0
780.0	4.88e-05	27.0460000038
780.0	4.83e-05	27.0780000687
780.0	4.8e-05	27.125
780.0	4.8e-05	27.1559998989
780.0	4.83e-05	27.2030000687
780.0	4.78e-05	27.25
800.0	5.28e-05	27.8120000362
800.0	5.3e-05	27.8589999676
800.0	5.38e-05	27.8899998665
800.0	5.43e-05	27.9370000362
800.0	5.45e-05	27.9839999676
800.0	5.5e-05	28.0149998665
800.0	5.53e-05	28.0620000362
800.0	5.55e-05	28.1089999676
800.0	5.58e-05	28.1399998665
800.0	5.55e-05	28.1870000362
800.0	5.55e-05	28.2339999676
800.0	5.58e-05	28.2649998665
800.0	5.63e-05	28.3120000362
800.0	5.58e-05	28.3429999352
800.0	5.63e-05	28.3899998665
800.0	5.58e-05	28.4370000362
800.0	5.63e-05	28.4679999352
800.0	5.65e-05	28.5149998665
800.0	5.65e-05	28.5620000362
800.0	5.63e-05	28.5929999352
800.0	5.58e-05	28.6399998665
800.0	5.58e-05	28.6710000038
800.0	5.58e-05	28.7179999352
800.0	5.58e-05	28.7649998665
800.0	5.58e-05	28.8120000362
800.0	5.58e-05	28.8429999352
800.0	5.63e-05	28.8899998665
800.0	5.63e-05	28.9210000038
800.0	5.68e-05	28.9679999352
800.0	5.68e-05	29.0149998665
800.0	5.7e-05	29.0460000038
800.0	5.75e-05	29.0929999352
800.0	5.78e-05	29.1399998665
800.0	5.75e-05	29.1710000038
800.0	5.75e-05	29.2179999352
800.0	5.75e-05	29.2649998665
820.0	6.25e-05	29.7960000038
820.0	6.28e-05	29.8429999352
820.0	6.33e-05	29.8899998665
820.0	6.38e-05	29.9210000038
820.0	6.43e-05	29.9679999352
820.0	6.45e-05	30.0149998665
820.0	6.5e-05	30.0460000038
820.0	6.5e-05	30.0929999352
820.0	6.45e-05	30.125
820.0	6.5e-05	30.1710000038
820.0	6.53e-05	30.2179999352
820.0	6.53e-05	30.25
820.0	6.55e-05	30.2960000038
820.0	6.63e-05	30.3429999352
820.0	6.65e-05	30.375
820.0	6.68e-05	30.4210000038
820.0	6.65e-05	30.4679999352
820.0	6.63e-05	30.5
820.0	6.63e-05	30.5460000038
820.0	6.63e-05	30.5780000687
820.0	6.55e-05	30.625
820.0	6.55e-05	30.6710000038
820.0	6.53e-05	30.7030000687
820.0	6.55e-05	30.75
820.0	6.58e-05	30.7809998989
820.0	6.58e-05	30.8280000687
820.0	6.58e-05	30.875
820.0	6.63e-05	30.9059998989
820.0	6.65e-05	30.9530000687
820.0	6.65e-05	31.0
820.0	6.65e-05	31.0309998989
820.0	6.63e-05	31.0780000687
820.0	6.63e-05	31.125
820.0	6.58e-05	31.1559998989
820.0	6.58e-05	31.2030000687
820.0	6.55e-05	31.2339999676
820.0	6.55e-05	31.2809998989
840.0	7.28e-05	31.8120000362
840.0	7.33e-05	31.8589999676
840.0	7.45e-05	31.9059998989
840.0	7.45e-05	31.9370000362
840.0	7.5e-05	31.9839999676
840.0	7.55e-05	32.0149998665
840.0	7.63e-05	32.0620000362
840.0	7.63e-05	32.1089999676
840.0	7.63e-05	32.1399998665
840.0	7.63e-05	32.1870000362
840.0	7.63e-05	32.2339999676
840.0	7.63e-05	32.2649998665
840.0	7.65e-05	32.3120000362
840.0	7.63e-05	32.3429999352
840.0	7.63e-05	32.3899998665
840.0	7.65e-05	32.4370000362
840.0	7.7e-05	32.4679999352
840.0	7.7e-05	32.5149998665
840.0	7.68e-05	32.5620000362
840.0	7.7e-05	32.5929999352
840.0	7.75e-05	32.6399998665
840.0	7.78e-05	32.6710000038
840.0	7.78e-05	32.7179999352
840.0	7.78e-05	32.7649998665
840.0	7.78e-05	32.7960000038
840.0	7.78e-05	32.8429999352
840.0	7.78e-05	32.8899998665
840.0	7.7e-05	32.9210000038
840.0	7.65e-05	32.9679999352
840.0	7.65e-05	33.0149998665
840.0	7.68e-05	33.0460000038
840.0	7.68e-05	33.0929999352
840.0	7.68e-05	33.125
840.0	7.68e-05	33.1710000038
840.0	7.68e-05	33.2179999352
840.0	7.7e-05	33.25
840.0	7.7e-05	33.2960000038
860.0	8.8e-05	33.8120000362
860.0	8.93e-05	33.8589999676
860.0	9.13e-05	33.8899998665
860.0	9.25e-05	33.9370000362
860.0	9.28e-05	33.9839999676
860.0	9.3e-05	34.0149998665
860.0	9.38e-05	34.0620000362
860.0	9.43e-05	34.1089999676
860.0	9.4e-05	34.1399998665
860.0	9.38e-05	34.1870000362
860.0	9.4e-05	34.2339999676
860.0	9.43e-05	34.2649998665
860.0	9.43e-05	34.3120000362
860.0	9.43e-05	34.3429999352
860.0	9.4e-05	34.3899998665
860.0	9.43e-05	34.4370000362
860.0	9.5e-05	34.4679999352
860.0	9.5e-05	34.5149998665
860.0	9.43e-05	34.5620000362
860.0	9.4e-05	34.5929999352
860.0	9.4e-05	34.6399998665
860.0	9.43e-05	34.6710000038
860.0	9.4e-05	34.7179999352
860.0	9.38e-05	34.7649998665
860.0	9.33e-05	34.7960000038
860.0	9.33e-05	34.8429999352
860.0	9.33e-05	34.8899998665
860.0	9.4e-05	34.9370000362
860.0	9.33e-05	34.9679999352
860.0	9.33e-05	35.0149998665
860.0	9.38e-05	35.0460000038
860.0	9.38e-05	35.0929999352
860.0	9.38e-05	35.1399998665
860.0	9.4e-05	35.1710000038
860.0	9.4e-05	35.2179999352
860.0	9.38e-05	35.2649998665
880.0	0.0001068	35.7649998665
880.0	0.0001093	35.7960000038
880.0	0.0001105	35.8429999352
880.0	0.0001115	35.8899998665
880.0	0.0001125	35.9210000038
880.0	0.0001133	35.9679999352
880.0	0.0001138	36.0149998665
880.0	0.0001138	36.0460000038
880.0	0.0001143	36.0929999352
880.0	0.0001143	36.1399998665
880.0	0.0001145	36.1710000038
880.0	0.0001145	36.2179999352
880.0	0.0001143	36.25
880.0	0.0001143	36.2960000038
880.0	0.0001145	36.3429999352
880.0	0.000115	36.375
880.0	0.0001143	36.4210000038
880.0	0.0001145	36.4679999352
880.0	0.000115	36.5
880.0	0.0001155	36.5460000038
880.0	0.0001158	36.5929999352
880.0	0.0001158	36.625
880.0	0.0001163	36.6710000038
880.0	0.0001158	36.7179999352
880.0	0.0001163	36.75
880.0	0.0001163	36.7960000038
880.0	0.0001155	36.8280000687
880.0	0.0001155	36.875
880.0	0.0001155	36.9210000038
880.0	0.0001163	36.9530000687
880.0	0.0001163	37.0
880.0	0.0001158	37.0460000038
880.0	0.0001163	37.0780000687
880.0	0.0001165	37.125
880.0	0.0001165	37.1559998989
880.0	0.0001163	37.2030000687
880.0	0.0001163	37.25
900.0	0.0001333	37.75
900.0	0.0001358	37.7809998989
900.0	0.0001375	37.8280000687
900.0	0.0001393	37.8589999676
900.0	0.0001408	37.9059998989
900.0	0.000142	37.9530000687
900.0	0.0001433	37.9839999676
900.0	0.0001433	38.0309998989
900.0	0.0001438	38.0780000687
900.0	0.0001438	38.1089999676
900.0	0.000144	38.1559998989
900.0	0.000144	38.1870000362
900.0	0.000144	38.2339999676
900.0	0.0001438	38.2809998989
900.0	0.0001445	38.3120000362
900.0	0.0001445	38.3589999676
900.0	0.000144	38.4059998989
900.0	0.0001438	38.4370000362
900.0	0.0001438	38.4839999676
900.0	0.000144	38.5309998989
900.0	0.000144	38.5620000362
900.0	0.000144	38.6089999676
900.0	0.0001443	38.6399998665
900.0	0.0001445	38.6870000362
900.0	0.0001445	38.7339999676
900.0	0.0001445	38.7649998665
900.0	0.000144	38.8120000362
900.0	0.0001433	38.8589999676
900.0	0.0001433	38.8899998665
900.0	0.0001438	38.9370000362
900.0	0.000143	38.9679999352
900.0	0.0001428	39.0149998665
900.0	0.0001428	39.0620000362
900.0	0.0001438	39.0929999352
900.0	0.0001443	39.1399998665
900.0	0.0001438	39.1870000362
900.0	0.0001438	39.2179999352
920.0	0.000165	39.7179999352
920.0	0.000168	39.75
920.0	0.00017	39.7960000038
920.0	0.0001725	39.8429999352
920.0	0.000174	39.875
920.0	0.0001745	39.9210000038
920.0	0.0001745	39.9679999352
920.0	0.0001753	40.0
920.0	0.0001763	40.0460000038
920.0	0.0001765	40.0780000687
920.0	0.0001763	40.125
920.0	0.0001763	40.1710000038
920.0	0.0001765	40.2030000687
920.0	0.0001775	40.25
920.0	0.0001778	40.2809998989
920.0	0.0001775	40.3280000687
920.0	0.0001768	40.375
920.0	0.000177	40.4059998989
920.0	0.0001778	40.4530000687
920.0	0.000177	40.5
920.0	0.0001775	40.5309998989
920.0	0.000177	40.5780000687
920.0	0.0001775	40.625
920.0	0.000178	40.6559998989
920.0	0.0001775	40.7030000687
920.0	0.000177	40.7339999676
920.0	0.0001768	40.7809998989
920.0	0.0001775	40.8280000687
920.0	0.0001775	40.8589999676
920.0	0.000177	40.9059998989
920.0	0.0001765	40.9530000687
920.0	0.0001768	40.9839999676
920.0	0.0001765	41.0309998989
920.0	0.0001765	41.0620000362
920.0	0.0001765	41.1089999676
920.0	0.0001768	41.1559998989
920.0	0.0001765	41.2030000687
940.0	0.0002003	41.6710000038
940.0	0.0002033	41.7179999352
940.0	0.0002058	41.75
940.0	0.0002078	41.7960000038
940.0	0.00021	41.8429999352
940.0	0.0002115	41.875
940.0	0.0002118	41.9210000038
940.0	0.0002128	41.9679999352
940.0	0.0002133	42.0
940.0	0.0002143	42.0460000038
940.0	0.0002145	42.0780000687
940.0	0.0002143	42.125
940.0	0.0002143	42.1710000038
940.0	0.0002143	42.2030000687
940.0	0.000215	42.25
940.0	0.000215	42.2960000038
940.0	0.0002143	42.3280000687
940.0	0.0002145	42.375
940.0	0.0002153	42.4059998989
940.0	0.0002155	42.4530000687
940.0	0.000215	42.5
940.0	0.000215	42.5309998989
940.0	0.000215	42.5780000687
940.0	0.0002155	42.625
940.0	0.0002158	42.6559998989
940.0	0.0002153	42.7030000687
940.0	0.0002155	42.7339999676
940.0	0.0002158	42.7809998989
940.0	0.0002163	42.8280000687
940.0	0.0002163	42.8589999676
940.0	0.0002155	42.9059998989
940.0	0.0002155	42.9530000687
940.0	0.0002163	42.9839999676
940.0	0.0002168	43.0309998989
940.0	0.0002163	43.0620000362
940.0	0.0002158	43.1089999676
940.0	0.0002158	43.1559998989
960.0	0.00024	43.6089999676
960.0	0.000244	43.6559998989
960.0	0.0002468	43.6870000362
960.0	0.000248	43.7339999676
960.0	0.00025	43.7809998989
960.0	0.0002505	43.8120000362
960.0	0.0002525	43.8589999676
960.0	0.0002533	43.9059998989
960.0	0.000253	43.9370000362
960.0	0.0002533	43.9839999676
960.0	0.0002538	44.0149998665
960.0	0.0002545	44.0620000362
960.0	0.000254	44.1089999676
960.0	0.0002538	44.1399998665
960.0	0.0002533	44.1870000362
960.0	0.000254	44.2339999676
960.0	0.0002543	44.2649998665
960.0	0.0002538	44.3120000362
960.0	0.0002538	44.3589999676
960.0	0.0002545	44.3899998665
960.0	0.000255	44.4370000362
960.0	0.0002543	44.4679999352
960.0	0.0002545	44.5149998665
960.0	0.000255	44.5620000362
960.0	0.0002555	44.5929999352
960.0	0.0002563	44.6399998665
960.0	0.0002555	44.6870000362
960.0	0.0002553	44.7179999352
960.0	0.000255	44.7649998665
960.0	0.0002555	44.8120000362
960.0	0.0002555	44.8429999352
960.0	0.000255	44.8899998665
960.0	0.0002545	44.9370000362
960.0	0.000254	44.9679999352
960.0	0.0002543	45.0149998665
960.0	0.000255	45.0460000038
960.0	0.0002543	45.0929999352
980.0	0.0002758	45.5460000038
980.0	0.0002803	45.5780000687
980.0	0.000282	45.625
980.0	0.0002845	45.6710000038
980.0	0.0002863	45.7179999352
980.0	0.0002868	45.75
980.0	0.0002888	45.7960000038
980.0	0.0002893	45.8280000687
980.0	0.000289	45.875
980.0	0.0002893	45.9210000038
980.0	0.0002895	45.9530000687
980.0	0.00029	46.0
980.0	0.0002905	46.0309998989
980.0	0.0002893	46.0780000687
980.0	0.0002893	46.125
980.0	0.0002895	46.1559998989
980.0	0.0002913	46.2030000687
980.0	0.0002903	46.25
980.0	0.0002903	46.2809998989
980.0	0.0002903	46.3280000687
980.0	0.0002905	46.375
980.0	0.0002918	46.4059998989
980.0	0.0002908	46.4530000687
980.0	0.0002908	46.4839999676
980.0	0.0002908	46.5309998989
980.0	0.0002918	46.5780000687
980.0	0.0002918	46.6089999676
980.0	0.0002915	46.6559998989
980.0	0.0002918	46.7030000687
980.0	0.000292	46.7339999676
980.0	0.0002928	46.7809998989
980.0	0.0002925	46.8120000362
980.0	0.0002915	46.8589999676
980.0	0.0002913	46.9059998989
980.0	0.0002918	46.9370000362
980.0	0.0002925	46.9839999676
980.0	0.0002915	47.0309998989
1000.0	0.0003138	47.4679999352
1000.0	0.0003153	47.5
1000.0	0.000319	47.5460000038
1000.0	0.0003208	47.5780000687
1000.0	0.0003228	47.625
1000.0	0.000323	47.6710000038
1000.0	0.0003238	47.7030000687
1000.0	0.0003258	47.75
1000.0	0.0003263	47.7960000038
1000.0	0.0003255	47.8280000687
1000.0	0.0003263	47.875
1000.0	0.0003263	47.9059998989
1000.0	0.0003275	47.9530000687
1000.0	0.0003278	48.0
1000.0	0.0003265	48.0309998989
1000.0	0.0003263	48.0780000687
1000.0	0.000328	48.125
1000.0	0.0003288	48.1559998989
1000.0	0.0003278	48.2030000687
1000.0	0.0003278	48.2339999676
1000.0	0.0003275	48.2809998989
1000.0	0.0003283	48.3280000687
1000.0	0.0003288	48.3589999676
1000.0	0.000327	48.4059998989
1000.0	0.000327	48.4530000687
1000.0	0.0003278	48.4839999676
1000.0	0.000328	48.5309998989
1000.0	0.000327	48.5620000362
1000.0	0.0003265	48.6089999676
1000.0	0.0003263	48.6559998989
1000.0	0.0003275	48.6870000362
1000.0	0.000327	48.7339999676
1000.0	0.0003263	48.7809998989
1000.0	0.0003263	48.8120000362
1000.0	0.0003258	48.8589999676
1000.0	0.000327	48.8899998665
1000.0	0.000328	48.9370000362
1020.0	0.0003465	49.375
1020.0	0.0003513	49.4210000038
1020.0	0.0003525	49.4679999352
1020.0	0.0003545	49.5
1020.0	0.000357	49.5460000038
1020.0	0.0003593	49.5780000687
1020.0	0.0003593	49.625
1020.0	0.00036	49.6710000038
1020.0	0.0003605	49.7030000687
1020.0	0.0003618	49.75
1020.0	0.0003618	49.7960000038
1020.0	0.0003605	49.8280000687
1020.0	0.0003605	49.875
1020.0	0.0003615	49.9059998989
1020.0	0.0003618	49.9530000687
1020.0	0.0003603	50.0
1020.0	0.0003603	50.0309998989
1020.0	0.0003603	50.0780000687
1020.0	0.0003613	50.125
1020.0	0.000362	50.1559998989
1020.0	0.0003605	50.2030000687
1020.0	0.0003608	50.2339999676
1020.0	0.0003613	50.2809998989
1020.0	0.0003628	50.3280000687
1020.0	0.000363	50.3589999676
1020.0	0.0003618	50.4059998989
1020.0	0.0003618	50.4530000687
1020.0	0.000363	50.4839999676
1020.0	0.0003633	50.5309998989
1020.0	0.000362	50.5620000362
1020.0	0.000362	50.6089999676
1020.0	0.0003618	50.6559998989
1020.0	0.0003628	50.6870000362
1020.0	0.0003638	50.7339999676
1020.0	0.000363	50.7809998989
1020.0	0.0003625	50.8120000362
1020.0	0.0003625	50.8589999676
1040.0	0.0003825	51.2960000038
1040.0	0.0003868	51.3429999352
1040.0	0.0003895	51.375
1040.0	0.0003905	51.4210000038
1040.0	0.000392	51.4679999352
1040.0	0.0003933	51.5
1040.0	0.0003955	51.5460000038
1040.0	0.000397	51.5780000687
1040.0	0.0003965	51.625
1040.0	0.000397	51.6710000038
1040.0	0.000397	51.7179999352
1040.0	0.0003983	51.75
1040.0	0.0003993	51.7960000038
1040.0	0.0003978	51.8280000687
1040.0	0.0003978	51.875
1040.0	0.000397	51.9210000038
1040.0	0.0003983	51.9530000687
1040.0	0.0003988	52.0
1040.0	0.0003968	52.0460000038
1040.0	0.0003968	52.0780000687
1040.0	0.0003963	52.125
1040.0	0.0003975	52.1559998989
1040.0	0.0003975	52.2030000687
1040.0	0.0003963	52.25
1040.0	0.0003958	52.2809998989
1040.0	0.0003975	52.3280000687
1040.0	0.0003975	52.375
1040.0	0.0003963	52.4059998989
1040.0	0.0003963	52.4530000687
1040.0	0.0003963	52.4839999676
1040.0	0.000398	52.5309998989
1040.0	0.000398	52.5780000687
1040.0	0.0003965	52.6089999676
1040.0	0.0003965	52.6559998989
1040.0	0.0003963	52.7030000687
1040.0	0.000397	52.7339999676
1040.0	0.0003975	52.7809998989
1060.0	0.0004163	53.2179999352
1060.0	0.0004203	53.2649998665
1060.0	0.0004228	53.2960000038
1060.0	0.0004245	53.3429999352
1060.0	0.0004278	53.3899998665
1060.0	0.0004293	53.4210000038
1060.0	0.0004288	53.4679999352
1060.0	0.0004295	53.5149998665
1060.0	0.0004295	53.5460000038
1060.0	0.0004308	53.5929999352
1060.0	0.0004318	53.6399998665
1060.0	0.0004305	53.6710000038
1060.0	0.0004305	53.7179999352
1060.0	0.0004308	53.75
1060.0	0.000432	53.7960000038
1060.0	0.000433	53.8429999352
1060.0	0.0004318	53.875
1060.0	0.000432	53.9210000038
1060.0	0.0004318	53.9679999352
1060.0	0.000433	54.0
1060.0	0.0004325	54.0460000038
1060.0	0.000432	54.0929999352
1060.0	0.000432	54.125
1060.0	0.0004343	54.1710000038
1060.0	0.0004343	54.2030000687
1060.0	0.000434	54.25
1060.0	0.0004328	54.2960000038
1060.0	0.0004325	54.3280000687
1060.0	0.0004338	54.375
1060.0	0.000434	54.4059998989
1060.0	0.0004325	54.4530000687
1060.0	0.0004325	54.5
1060.0	0.000432	54.5460000038
1060.0	0.000432	54.5780000687
1060.0	0.0004328	54.625
1060.0	0.0004338	54.6710000038
1080.0	0.0004495	55.0929999352
1080.0	0.0004525	55.1399998665
1080.0	0.0004553	55.1870000362
1080.0	0.0004568	55.2179999352
1080.0	0.0004588	55.2649998665
1080.0	0.000458	55.3120000362
1080.0	0.000459	55.3429999352
1080.0	0.0004593	55.3899998665
1080.0	0.0004605	55.4370000362
1080.0	0.0004613	55.4679999352
1080.0	0.0004605	55.5149998665
1080.0	0.0004605	55.5620000362
1080.0	0.0004605	55.5929999352
1080.0	0.000462	55.6399998665
1080.0	0.000463	55.6710000038
1080.0	0.0004618	55.7179999352
1080.0	0.0004618	55.7649998665
1080.0	0.0004625	55.7960000038
1080.0	0.0004638	55.8429999352
1080.0	0.000462	55.8899998665
1080.0	0.000462	55.9210000038
1080.0	0.0004618	55.9679999352
1080.0	0.000463	56.0
1080.0	0.0004633	56.0460000038
1080.0	0.0004618	56.0929999352
1080.0	0.0004618	56.125
1080.0	0.000462	56.1710000038
1080.0	0.0004633	56.2179999352
1080.0	0.0004645	56.25
1080.0	0.0004633	56.2960000038
1080.0	0.000463	56.3429999352
1080.0	0.000463	56.375
1080.0	0.000465	56.4210000038
1080.0	0.0004653	56.4530000687
1080.0	0.0004638	56.5
1080.0	0.0004633	56.5460000038
1080.0	0.000465	56.5780000687
1100.0	0.0004768	57.0149998665
1100.0	0.0004778	57.0460000038
1100.0	0.000479	57.0929999352
1100.0	0.0004815	57.1399998665
1100.0	0.000483	57.1710000038
1100.0	0.0004825	57.2179999352
1100.0	0.0004828	57.25
1100.0	0.0004838	57.2960000038
1100.0	0.000485	57.3429999352
1100.0	0.0004863	57.375
1100.0	0.0004845	57.4210000038
1100.0	0.0004838	57.4679999352
1100.0	0.000485	57.5
1100.0	0.0004853	57.5460000038
1100.0	0.000485	57.5780000687
1100.0	0.0004838	57.625
1100.0	0.000484	57.6710000038
1100.0	0.0004853	57.7030000687
1100.0	0.000485	57.75
1100.0	0.0004838	57.7960000038
1100.0	0.0004838	57.8280000687
1100.0	0.0004833	57.875
1100.0	0.0004845	57.9059998989
1100.0	0.0004853	57.9530000687
1100.0	0.0004833	58.0
1100.0	0.0004833	58.0309998989
1100.0	0.0004845	58.0780000687
1100.0	0.0004853	58.125
1100.0	0.000484	58.1559998989
1100.0	0.000483	58.2030000687
1100.0	0.0004843	58.2339999676
1100.0	0.0004845	58.2809998989
1100.0	0.0004853	58.3280000687
1100.0	0.0004833	58.3589999676
1100.0	0.0004838	58.4059998989
1100.0	0.0004838	58.4530000687
1100.0	0.0004858	58.4839999676
1120.0	0.00049	58.9059998989
1120.0	0.0004908	58.9370000362
1120.0	0.0004918	58.9839999676
1120.0	0.0004925	59.0309998989
1120.0	0.0004943	59.0620000362
1120.0	0.000495	59.1089999676
1120.0	0.0004938	59.1559998989
1120.0	0.000494	59.1870000362
1120.0	0.000494	59.2339999676
1120.0	0.0004955	59.2649998665
1120.0	0.0004963	59.3120000362
1120.0	0.0004953	59.3589999676
1120.0	0.000495	59.3899998665
1120.0	0.0004965	59.4370000362
1120.0	0.000497	59.4839999676
1120.0	0.0004963	59.5149998665
1120.0	0.0004953	59.5620000362
1120.0	0.0004945	59.6089999676
1120.0	0.0004965	59.6399998665
1120.0	0.0004965	59.6870000362
1120.0	0.0004958	59.7179999352
1120.0	0.0004953	59.7649998665
1120.0	0.0004945	59.8120000362
1120.0	0.0004955	59.8429999352
1120.0	0.0004963	59.8899998665
1120.0	0.0004945	59.9370000362
1120.0	0.0004943	59.9679999352
1120.0	0.000494	60.0149998665
1120.0	0.0004958	60.0460000038
1120.0	0.0004955	60.0929999352
1120.0	0.000494	60.1399998665
1120.0	0.0004943	60.1710000038
1120.0	0.0004955	60.2179999352
1120.0	0.0004965	60.2649998665
1120.0	0.000495	60.2960000038
1120.0	0.000494	60.3429999352
1120.0	0.0004938	60.375
1140.0	0.0004938	60.7960000038
1140.0	0.0004958	60.8280000687
1140.0	0.0004945	60.875
1140.0	0.0004943	60.9210000038
1140.0	0.0004938	60.9530000687
1140.0	0.0004963	61.0
1140.0	0.0004963	61.0309998989
1140.0	0.000495	61.0780000687
1140.0	0.0004953	61.125
1140.0	0.0004965	61.1559998989
1140.0	0.0004965	61.2030000687
1140.0	0.0004965	61.25
1140.0	0.0004945	61.2809998989
1140.0	0.0004945	61.3280000687
1140.0	0.0004963	61.3589999676
1140.0	0.0004965	61.4059998989
1140.0	0.0004968	61.4530000687
1140.0	0.0004953	61.4839999676
1140.0	0.0004943	61.5309998989
1140.0	0.0004958	61.5780000687
1140.0	0.0004963	61.6089999676
1140.0	0.0004943	61.6559998989
1140.0	0.0004945	61.7030000687
1140.0	0.0004958	61.7339999676
1140.0	0.0004965	61.7809998989
1140.0	0.0004963	61.8120000362
1140.0	0.0004953	61.8589999676
1140.0	0.0004945	61.9059998989
1140.0	0.0004965	61.9370000362
1140.0	0.0004965	61.9839999676
1140.0	0.000495	62.0309998989
1140.0	0.000495	62.0620000362
1140.0	0.0004945	62.1089999676
1140.0	0.000497	62.1399998665
1140.0	0.000497	62.1870000362
1140.0	0.0004963	62.2339999676
1140.0	0.0004958	62.2649998665
1160.0	0.0004925	62.6870000362
1160.0	0.000494	62.7179999352
1160.0	0.0004925	62.7649998665
1160.0	0.0004938	62.8120000362
1160.0	0.0004913	62.8429999352
1160.0	0.0004908	62.8899998665
1160.0	0.000492	62.9370000362
1160.0	0.0004905	62.9839999676
1160.0	0.0004918	63.0149998665
1160.0	0.0004903	63.0620000362
1160.0	0.00049	63.0929999352
1160.0	0.00049	63.1399998665
1160.0	0.0004908	63.1870000362
1160.0	0.00049	63.2339999676
1160.0	0.0004908	63.2649998665
1160.0	0.00049	63.3120000362
1160.0	0.0004893	63.3589999676
1160.0	0.0004908	63.3899998665
1160.0	0.0004905	63.4370000362
1160.0	0.0004893	63.4679999352
1160.0	0.0004893	63.5149998665
1160.0	0.0004895	63.5620000362
1160.0	0.0004913	63.5929999352
1160.0	0.0004913	63.6399998665
1160.0	0.00049	63.6870000362
1160.0	0.0004895	63.7179999352
1160.0	0.0004913	63.7649998665
1160.0	0.000492	63.7960000038
1160.0	0.000492	63.8429999352
1160.0	0.0004903	63.8899998665
1160.0	0.0004895	63.9210000038
1160.0	0.0004913	63.9679999352
1160.0	0.0004913	64.0149998665
1160.0	0.00049	64.0460000038
1160.0	0.00049	64.0929999352
1160.0	0.0004893	64.125
1160.0	0.0004905	64.1710000038
1180.0	0.000489	64.5929999352
1180.0	0.0004903	64.6399998665
1180.0	0.0004905	64.6710000038
1180.0	0.0004888	64.7179999352
1180.0	0.0004883	64.75
1180.0	0.000488	64.7960000038
1180.0	0.000489	64.8429999352
1180.0	0.0004893	64.875
1180.0	0.0004888	64.9210000038
1180.0	0.0004888	64.9679999352
1180.0	0.0004903	65.0
1180.0	0.0004905	65.0460000038
1180.0	0.0004913	65.0780000687
1180.0	0.0004893	65.125
1180.0	0.000489	65.1710000038
1180.0	0.0004905	65.2030000687
1180.0	0.0004903	65.25
1180.0	0.00049	65.2960000038
1180.0	0.000489	65.3280000687
1180.0	0.00049	65.375
1180.0	0.0004908	65.4059998989
1180.0	0.0004915	65.4530000687
1180.0	0.0004903	65.5
1180.0	0.0004905	65.5309998989
1180.0	0.00049	65.5780000687
1180.0	0.0004925	65.625
1180.0	0.0004908	65.6559998989
1180.0	0.00049	65.7030000687
1180.0	0.0004893	65.7339999676
1180.0	0.0004908	65.7809998989
1180.0	0.0004913	65.8280000687
1180.0	0.0004893	65.8589999676
1180.0	0.0004893	65.9059998989
1180.0	0.0004908	65.9530000687
1180.0	0.0004908	65.9839999676
1180.0	0.000489	66.0309998989
1180.0	0.000489	66.0620000362
1200.0	0.0004928	66.4839999676
1200.0	0.0004918	66.5309998989
1200.0	0.000492	66.5780000687
1200.0	0.000492	66.6089999676
1200.0	0.0004945	66.6559998989
1200.0	0.0004933	66.6870000362
1200.0	0.000494	66.7339999676
1200.0	0.0004938	66.7809998989
1200.0	0.0004955	66.8120000362
1200.0	0.0004958	66.8589999676
1200.0	0.0004945	66.9059998989
1200.0	0.0004945	66.9370000362
1200.0	0.0004943	66.9839999676
1200.0	0.0004958	67.0149998665
1200.0	0.0004958	67.0620000362
1200.0	0.0004943	67.1089999676
1200.0	0.000494	67.1399998665
1200.0	0.0004958	67.1870000362
1200.0	0.0004963	67.2339999676
1200.0	0.0004943	67.2649998665
1200.0	0.0004943	67.3120000362
1200.0	0.0004945	67.3589999676
1200.0	0.0004953	67.3899998665
1200.0	0.0004958	67.4370000362
1200.0	0.000495	67.4679999352
1200.0	0.000494	67.5149998665
1200.0	0.0004938	67.5620000362
1200.0	0.0004955	67.5929999352
1200.0	0.0004945	67.6399998665
1200.0	0.000494	67.6870000362
1200.0	0.0004938	67.7179999352
1200.0	0.0004933	67.7649998665
1200.0	0.0004953	67.7960000038
1200.0	0.0004938	67.8429999352
1200.0	0.0004938	67.8899998665
1200.0	0.000494	67.9210000038
1200.0	0.0004963	67.9679999352
1220.0	0.0005018	68.375
1220.0	0.0005038	68.4210000038
1220.0	0.000503	68.4530000687
1220.0	0.0005038	68.5
1220.0	0.0005065	68.5460000038
1220.0	0.0005075	68.5780000687
1220.0	0.0005063	68.625
1220.0	0.0005063	68.6710000038
1220.0	0.0005063	68.7179999352
1220.0	0.0005083	68.75
1220.0	0.0005075	68.7960000038
1220.0	0.0005083	68.8429999352
1220.0	0.000507	68.875
1220.0	0.0005078	68.9210000038
1220.0	0.0005075	68.9679999352
1220.0	0.0005093	69.0
1220.0	0.0005103	69.0460000038
1220.0	0.0005083	69.0780000687
1220.0	0.000508	69.125
1220.0	0.0005093	69.1710000038
1220.0	0.0005095	69.2030000687
1220.0	0.000508	69.25
1220.0	0.000508	69.2960000038
1220.0	0.000508	69.3280000687
1220.0	0.0005078	69.375
1220.0	0.0005103	69.4059998989
1220.0	0.0005088	69.4530000687
1220.0	0.0005088	69.5
1220.0	0.000509	69.5309998989
1220.0	0.0005093	69.5780000687
1220.0	0.0005095	69.625
1220.0	0.0005075	69.6559998989
1220.0	0.000507	69.7030000687
1220.0	0.0005078	69.7339999676
1220.0	0.000509	69.7809998989
1220.0	0.000509	69.8280000687
1220.0	0.000507	69.8589999676
1240.0	0.0005205	70.3120000362
1240.0	0.0005218	70.3589999676
1240.0	0.000522	70.3899998665
1240.0	0.0005228	70.4370000362
1240.0	0.0005245	70.4839999676
1240.0	0.0005253	70.5149998665
1240.0	0.0005263	70.5620000362
1240.0	0.0005245	70.5929999352
1240.0	0.000525	70.6399998665
1240.0	0.000527	70.6870000362
1240.0	0.000527	70.7179999352
1240.0	0.0005258	70.7649998665
1240.0	0.0005263	70.8120000362
1240.0	0.0005275	70.8429999352
1240.0	0.0005278	70.8899998665
1240.0	0.0005268	70.9210000038
1240.0	0.0005265	70.9679999352
1240.0	0.0005263	71.0149998665
1240.0	0.0005275	71.0460000038
1240.0	0.0005278	71.0929999352
1240.0	0.0005263	71.1399998665
1240.0	0.0005263	71.1710000038
1240.0	0.0005263	71.2179999352
1240.0	0.0005278	71.2649998665
1240.0	0.000528	71.2960000038
1240.0	0.0005263	71.3429999352
1240.0	0.0005263	71.375
1240.0	0.0005258	71.4210000038
1240.0	0.000528	71.4679999352
1240.0	0.0005268	71.5
1240.0	0.0005268	71.5460000038
1240.0	0.0005268	71.5780000687
1240.0	0.0005263	71.625
1240.0	0.000528	71.6710000038
1240.0	0.0005263	71.7030000687
1240.0	0.0005263	71.75
1240.0	0.0005255	71.7960000038
1260.0	0.0005358	72.2030000687
1260.0	0.0005393	72.25
1260.0	0.0005393	72.2809998989
1260.0	0.0005405	72.3280000687
1260.0	0.0005415	72.3589999676
1260.0	0.0005438	72.4059998989
1260.0	0.0005445	72.4530000687
1260.0	0.0005438	72.4839999676
1260.0	0.0005438	72.5309998989
1260.0	0.0005438	72.5780000687
1260.0	0.0005458	72.6089999676
1260.0	0.0005458	72.6559998989
1260.0	0.0005443	72.7030000687
1260.0	0.0005453	72.7339999676
1260.0	0.0005445	72.7809998989
1260.0	0.0005458	72.8280000687
1260.0	0.0005463	72.8589999676
1260.0	0.0005445	72.9059998989
1260.0	0.000545	72.9530000687
1260.0	0.0005445	72.9839999676
1260.0	0.0005468	73.0309998989
1260.0	0.0005468	73.0620000362
1260.0	0.0005455	73.1089999676
1260.0	0.0005453	73.1559998989
1260.0	0.000545	73.1870000362
1260.0	0.0005475	73.2339999676
1260.0	0.0005463	73.2809998989
1260.0	0.0005453	73.3120000362
1260.0	0.0005453	73.3589999676
1260.0	0.0005455	73.3899998665
1260.0	0.0005475	73.4370000362
1260.0	0.000545	73.4839999676
1260.0	0.0005455	73.5149998665
1260.0	0.0005445	73.5620000362
1260.0	0.0005468	73.6089999676
1260.0	0.0005455	73.6399998665
1260.0	0.0005453	73.6870000362
1280.0	0.0005543	74.0929999352
1280.0	0.0005533	74.1399998665
1280.0	0.0005558	74.1710000038
1280.0	0.000557	74.2179999352
1280.0	0.0005563	74.2649998665
1280.0	0.0005558	74.2960000038
1280.0	0.0005578	74.3429999352
1280.0	0.0005583	74.3899998665
1280.0	0.0005588	74.4210000038
1280.0	0.000557	74.4679999352
1280.0	0.0005575	74.5
1280.0	0.0005595	74.5460000038
1280.0	0.0005603	74.5929999352
1280.0	0.0005588	74.625
1280.0	0.0005578	74.6710000038
1280.0	0.0005583	74.7179999352
1280.0	0.0005578	74.7649998665
1280.0	0.0005588	74.7960000038
1280.0	0.0005593	74.8429999352
1280.0	0.0005575	74.8899998665
1280.0	0.000557	74.9210000038
1280.0	0.0005575	74.9679999352
1280.0	0.0005578	75.0149998665
1280.0	0.0005603	75.0460000038
1280.0	0.000558	75.0929999352
1280.0	0.000558	75.125
1280.0	0.0005578	75.1710000038
1280.0	0.0005593	75.2179999352
1280.0	0.0005588	75.25
1280.0	0.0005578	75.2960000038
1280.0	0.000558	75.3280000687
1280.0	0.0005578	75.375
1280.0	0.0005595	75.4210000038
1280.0	0.0005593	75.4530000687
1280.0	0.0005575	75.5
1280.0	0.000557	75.5460000038
1300.0	0.000558	75.9530000687
1300.0	0.0005603	76.0
1300.0	0.00056	76.0309998989
1300.0	0.000558	76.0780000687
1300.0	0.0005578	76.125
1300.0	0.0005575	76.1559998989
1300.0	0.0005578	76.2030000687
1300.0	0.0005588	76.25
1300.0	0.0005565	76.2809998989
1300.0	0.0005565	76.3280000687
1300.0	0.0005565	76.3589999676
1300.0	0.0005588	76.4059998989
1300.0	0.0005575	76.4530000687
1300.0	0.0005568	76.4839999676
1300.0	0.0005565	76.5309998989
1300.0	0.0005588	76.5780000687
1300.0	0.0005588	76.6089999676
1300.0	0.000557	76.6559998989
1300.0	0.000557	76.7030000687
1300.0	0.0005565	76.7339999676
1300.0	0.000559	76.7809998989
1300.0	0.0005593	76.8120000362
1300.0	0.000558	76.8589999676
1300.0	0.000557	76.9059998989
1300.0	0.0005568	76.9370000362
1300.0	0.000559	76.9839999676
1300.0	0.0005568	77.0309998989
1300.0	0.0005568	77.0620000362
1300.0	0.0005565	77.1089999676
1300.0	0.0005583	77.1399998665
1300.0	0.0005588	77.1870000362
1300.0	0.0005575	77.2339999676
1300.0	0.0005575	77.2649998665
1300.0	0.0005568	77.3120000362
1300.0	0.0005578	77.3589999676
1300.0	0.0005588	77.3899998665
1300.0	0.0005575	77.4370000362
1320.0	0.0005475	77.8429999352
1320.0	0.0005443	77.8899998665
1320.0	0.0005415	77.9370000362
1320.0	0.00054	77.9839999676
1320.0	0.00054	78.0149998665
1320.0	0.0005378	78.0620000362
1320.0	0.0005375	78.0929999352
1320.0	0.0005368	78.1399998665
1320.0	0.0005368	78.1870000362
1320.0	0.0005383	78.2179999352
1320.0	0.0005358	78.2649998665
1320.0	0.0005353	78.3120000362
1320.0	0.0005358	78.3429999352
1320.0	0.0005358	78.3899998665
1320.0	0.0005368	78.4210000038
1320.0	0.0005345	78.4679999352
1320.0	0.0005345	78.5149998665
1320.0	0.000535	78.5460000038
1320.0	0.0005363	78.5929999352
1320.0	0.000537	78.6399998665
1320.0	0.0005353	78.6710000038
1320.0	0.000535	78.7179999352
1320.0	0.0005363	78.7649998665
1320.0	0.0005363	78.7960000038
1320.0	0.0005345	78.8429999352
1320.0	0.000535	78.875
1320.0	0.000534	78.9210000038
1320.0	0.0005363	78.9679999352
1320.0	0.0005338	79.0
1320.0	0.000534	79.0460000038
1320.0	0.0005338	79.0780000687
1320.0	0.000534	79.125
1320.0	0.0005365	79.1710000038
1320.0	0.000535	79.2030000687
1320.0	0.0005355	79.25
1320.0	0.0005355	79.2960000038
1320.0	0.0005368	79.3280000687
1340.0	0.0005113	79.75
1340.0	0.0005083	79.7960000038
1340.0	0.000504	79.8280000687
1340.0	0.000499	79.875
1340.0	0.0004963	79.9210000038
1340.0	0.0004943	79.9530000687
1340.0	0.0004938	80.0
1340.0	0.000492	80.0309998989
1340.0	0.00049	80.0780000687
1340.0	0.0004895	80.125
1340.0	0.0004903	80.1559998989
1340.0	0.0004913	80.2030000687
1340.0	0.0004908	80.25
1340.0	0.000489	80.2809998989
1340.0	0.0004883	80.3280000687
1340.0	0.0004893	80.375
1340.0	0.00049	80.4059998989
1340.0	0.0004883	80.4530000687
1340.0	0.0004888	80.4839999676
1340.0	0.0004888	80.5309998989
1340.0	0.0004895	80.5780000687
1340.0	0.0004903	80.6089999676
1340.0	0.0004888	80.6559998989
1340.0	0.0004883	80.7030000687
1340.0	0.0004883	80.7339999676
1340.0	0.00049	80.7809998989
1340.0	0.0004903	80.8120000362
1340.0	0.0004888	80.8589999676
1340.0	0.0004895	80.9059998989
1340.0	0.0004908	80.9370000362
1340.0	0.0004908	80.9839999676
1340.0	0.0004883	81.0309998989
1340.0	0.0004883	81.0620000362
1340.0	0.0004875	81.1089999676
1340.0	0.0004893	81.1399998665
1340.0	0.000489	81.1870000362
1340.0	0.000488	81.2339999676
1360.0	0.0004605	81.6399998665
1360.0	0.000454	81.6870000362
1360.0	0.0004493	81.7339999676
1360.0	0.000448	81.7649998665
1360.0	0.0004443	81.8120000362
1360.0	0.0004425	81.8429999352
1360.0	0.0004408	81.8899998665
1360.0	0.0004413	81.9370000362
1360.0	0.0004405	81.9679999352
1360.0	0.000439	82.0149998665
1360.0	0.0004388	82.0620000362
1360.0	0.0004388	82.0929999352
1360.0	0.0004393	82.1399998665
1360.0	0.0004383	82.1710000038
1360.0	0.0004375	82.2179999352
1360.0	0.0004375	82.2649998665
1360.0	0.000437	82.2960000038
1360.0	0.0004388	82.3429999352
1360.0	0.0004375	82.3899998665
1360.0	0.0004375	82.4370000362
1360.0	0.0004378	82.4679999352
1360.0	0.0004375	82.5149998665
1360.0	0.000439	82.5460000038
1360.0	0.000439	82.5929999352
1360.0	0.0004375	82.6399998665
1360.0	0.0004375	82.6710000038
1360.0	0.0004375	82.7179999352
1360.0	0.0004395	82.7649998665
1360.0	0.0004393	82.7960000038
1360.0	0.000438	82.8429999352
1360.0	0.0004383	82.875
1360.0	0.0004378	82.9210000038
1360.0	0.0004393	82.9679999352
1360.0	0.000439	83.0
1360.0	0.0004378	83.0460000038
1360.0	0.000437	83.0929999352
1360.0	0.0004383	83.125
1380.0	0.0004075	83.5309998989
1380.0	0.000402	83.5780000687
1380.0	0.000398	83.625
1380.0	0.0003953	83.6559998989
1380.0	0.000394	83.7030000687
1380.0	0.000392	83.75
1380.0	0.00039	83.7809998989
1380.0	0.0003883	83.8280000687
1380.0	0.000388	83.8589999676
1380.0	0.000388	83.9059998989
1380.0	0.0003878	83.9530000687
1380.0	0.0003858	83.9839999676
1380.0	0.0003855	84.0309998989
1380.0	0.000387	84.0780000687
1380.0	0.0003875	84.1089999676
1380.0	0.0003858	84.1559998989
1380.0	0.0003863	84.2030000687
1380.0	0.0003863	84.2339999676
1380.0	0.0003875	84.2809998989
1380.0	0.0003875	84.3120000362
1380.0	0.0003858	84.3589999676
1380.0	0.0003858	84.4059998989
1380.0	0.0003858	84.4370000362
1380.0	0.0003865	84.4839999676
1380.0	0.000385	84.5309998989
1380.0	0.0003853	84.5620000362
1380.0	0.0003855	84.6089999676
1380.0	0.000385	84.6399998665
1380.0	0.0003868	84.6870000362
1380.0	0.0003855	84.7339999676
1380.0	0.0003858	84.7649998665
1380.0	0.0003858	84.8120000362
1380.0	0.0003875	84.8589999676
1380.0	0.0003878	84.8899998665
1380.0	0.0003865	84.9370000362
1380.0	0.0003863	84.9679999352
1380.0	0.0003865	85.0149998665
1400.0	0.0003638	85.4210000038
1400.0	0.0003605	85.4679999352
1400.0	0.0003575	85.5
1400.0	0.0003558	85.5460000038
1400.0	0.000355	85.5929999352
1400.0	0.000354	85.625
1400.0	0.0003518	85.6710000038
1400.0	0.0003513	85.7179999352
1400.0	0.000352	85.75
1400.0	0.000352	85.7960000038
1400.0	0.0003505	85.8280000687
1400.0	0.0003505	85.875
1400.0	0.0003508	85.9210000038
1400.0	0.0003518	85.9530000687
1400.0	0.0003518	86.0
1400.0	0.0003503	86.0460000038
1400.0	0.0003503	86.0780000687
1400.0	0.0003508	86.125
1400.0	0.0003518	86.1559998989
1400.0	0.0003518	86.2030000687
1400.0	0.0003505	86.25
1400.0	0.0003505	86.2809998989
1400.0	0.0003513	86.3280000687
1400.0	0.0003508	86.375
1400.0	0.0003513	86.4059998989
1400.0	0.00035	86.4530000687
1400.0	0.0003495	86.4839999676
1400.0	0.0003513	86.5309998989
1400.0	0.0003513	86.5780000687
1400.0	0.0003503	86.6089999676
1400.0	0.0003503	86.6559998989
1400.0	0.0003503	86.7030000687
1400.0	0.0003513	86.7339999676
1400.0	0.0003513	86.7809998989
1400.0	0.00035	86.8120000362
1400.0	0.0003495	86.8589999676
1400.0	0.0003505	86.9059998989
1420.0	0.0003408	87.3120000362
1420.0	0.0003395	87.3589999676
1420.0	0.0003388	87.3899998665
1420.0	0.000338	87.4370000362
1420.0	0.0003388	87.4839999676
1420.0	0.000339	87.5149998665
1420.0	0.0003383	87.5620000362
1420.0	0.000338	87.5929999352
1420.0	0.0003375	87.6399998665
1420.0	0.0003388	87.6870000362
1420.0	0.0003388	87.7179999352
1420.0	0.0003375	87.7649998665
1420.0	0.0003375	87.8120000362
1420.0	0.0003375	87.8429999352
1420.0	0.0003383	87.8899998665
1420.0	0.000338	87.9370000362
1420.0	0.000337	87.9679999352
1420.0	0.000337	88.0149998665
1420.0	0.0003383	88.0460000038
1420.0	0.0003388	88.0929999352
1420.0	0.0003378	88.1399998665
1420.0	0.0003378	88.1710000038
1420.0	0.000338	88.2179999352
1420.0	0.0003388	88.2649998665
1420.0	0.000339	88.2960000038
1420.0	0.0003378	88.3429999352
1420.0	0.0003378	88.375
1420.0	0.0003375	88.4210000038
1420.0	0.0003388	88.4679999352
1420.0	0.000338	88.5
1420.0	0.0003378	88.5460000038
1420.0	0.0003375	88.5780000687
1420.0	0.0003375	88.625
1420.0	0.0003375	88.6710000038
1420.0	0.0003363	88.7030000687
1420.0	0.0003358	88.75
1420.0	0.0003355	88.7960000038
1440.0	0.0003393	89.2030000687
1440.0	0.000342	89.25
1440.0	0.0003425	89.2809998989
1440.0	0.000343	89.3280000687
1440.0	0.0003438	89.3589999676
1440.0	0.0003458	89.4059998989
1440.0	0.0003468	89.4530000687
1440.0	0.0003468	89.4839999676
1440.0	0.0003468	89.5309998989
1440.0	0.0003475	89.5780000687
1440.0	0.000348	89.6089999676
1440.0	0.0003475	89.6559998989
1440.0	0.0003468	89.6870000362
1440.0	0.000347	89.7339999676
1440.0	0.000348	89.7809998989
1440.0	0.0003488	89.8120000362
1440.0	0.0003483	89.8589999676
1440.0	0.000347	89.9059998989
1440.0	0.0003468	89.9370000362
1440.0	0.000348	89.9839999676
1440.0	0.000348	90.0309998989
1440.0	0.0003468	90.0620000362
1440.0	0.0003468	90.1089999676
1440.0	0.0003478	90.1399998665
1440.0	0.0003483	90.1870000362
1440.0	0.000348	90.2339999676
1440.0	0.000347	90.2649998665
1440.0	0.0003475	90.3120000362
1440.0	0.000348	90.3589999676
1440.0	0.000348	90.3899998665
1440.0	0.0003475	90.4370000362
1440.0	0.0003475	90.4679999352
1440.0	0.0003475	90.5149998665
1440.0	0.0003483	90.5620000362
1440.0	0.0003483	90.5929999352
1440.0	0.0003475	90.6399998665
1440.0	0.0003468	90.6870000362
1460.0	0.0003593	91.0929999352
1460.0	0.00036	91.1399998665
1460.0	0.0003633	91.1710000038
1460.0	0.000364	91.2179999352
1460.0	0.000365	91.2649998665
1460.0	0.0003655	91.2960000038
1460.0	0.0003668	91.3429999352
1460.0	0.0003678	91.3899998665
1460.0	0.0003683	91.4210000038
1460.0	0.0003675	91.4679999352
1460.0	0.000367	91.5
1460.0	0.000368	91.5460000038
1460.0	0.0003683	91.5929999352
1460.0	0.0003688	91.625
1460.0	0.0003675	91.6710000038
1460.0	0.000368	91.7179999352
1460.0	0.0003693	91.75
1460.0	0.0003695	91.7960000038
1460.0	0.000368	91.8280000687
1460.0	0.0003675	91.875
1460.0	0.0003675	91.9210000038
1460.0	0.0003693	91.9530000687
1460.0	0.0003693	92.0
1460.0	0.000368	92.0460000038
1460.0	0.0003688	92.0780000687
1460.0	0.0003693	92.125
1460.0	0.0003693	92.1559998989
1460.0	0.000368	92.2030000687
1460.0	0.000368	92.25
1460.0	0.0003688	92.2809998989
1460.0	0.0003693	92.3280000687
1460.0	0.0003693	92.375
1460.0	0.0003683	92.4059998989
1460.0	0.0003683	92.4530000687
1460.0	0.0003693	92.5
1460.0	0.0003695	92.5309998989
1460.0	0.00037	92.5780000687
1480.0	0.0003763	92.9839999676
1480.0	0.0003778	93.0309998989
1480.0	0.0003793	93.0780000687
1480.0	0.0003808	93.1089999676
1480.0	0.0003818	93.1559998989
1480.0	0.0003813	93.1870000362
1480.0	0.0003815	93.2339999676
1480.0	0.0003815	93.2809998989
1480.0	0.000383	93.3120000362
1480.0	0.0003828	93.3589999676
1480.0	0.0003815	93.4059998989
1480.0	0.0003815	93.4370000362
1480.0	0.000382	93.4839999676
1480.0	0.0003833	93.5149998665
1480.0	0.0003838	93.5620000362
1480.0	0.0003825	93.6089999676
1480.0	0.0003825	93.6399998665
1480.0	0.0003838	93.6870000362
1480.0	0.000382	93.7339999676
1480.0	0.0003838	93.7809998989
1480.0	0.0003825	93.8120000362
1480.0	0.0003828	93.8589999676
1480.0	0.0003833	93.8899998665
1480.0	0.000384	93.9370000362
1480.0	0.0003843	93.9839999676
1480.0	0.000383	94.0149998665
1480.0	0.0003828	94.0620000362
1480.0	0.000383	94.1089999676
1480.0	0.0003843	94.1399998665
1480.0	0.000383	94.1870000362
1480.0	0.000383	94.2179999352
1480.0	0.0003833	94.2649998665
1480.0	0.0003845	94.3120000362
1480.0	0.0003843	94.3429999352
1480.0	0.0003838	94.3899998665
1480.0	0.000383	94.4370000362
1480.0	0.0003833	94.4679999352
1500.0	0.0003875	94.8899998665
1500.0	0.000388	94.9370000362
1500.0	0.0003895	94.9679999352
1500.0	0.0003893	95.0149998665
1500.0	0.0003905	95.0620000362
1500.0	0.00039	95.0929999352
1500.0	0.0003905	95.1399998665
1500.0	0.0003918	95.1870000362
1500.0	0.0003925	95.2179999352
1500.0	0.0003918	95.2649998665
1500.0	0.0003905	95.3120000362
1500.0	0.0003895	95.3429999352
1500.0	0.00039	95.3899998665
1500.0	0.0003913	95.4370000362
1500.0	0.0003913	95.4679999352
1500.0	0.00039	95.5149998665
1500.0	0.0003903	95.5620000362
1500.0	0.00039	95.5929999352
1500.0	0.0003913	95.6399998665
1500.0	0.00039	95.6870000362
1500.0	0.00039	95.7179999352
1500.0	0.00039	95.7649998665
1500.0	0.0003913	95.7960000038
1500.0	0.0003913	95.8429999352
1500.0	0.00039	95.8899998665
1500.0	0.00039	95.9210000038
1500.0	0.0003903	95.9679999352
1500.0	0.0003913	96.0149998665
1500.0	0.0003913	96.0460000038
1500.0	0.000389	96.0929999352
1500.0	0.000389	96.125
1500.0	0.0003888	96.1710000038
1500.0	0.00039	96.2179999352
1500.0	0.0003905	96.25
1500.0	0.000389	96.2960000038
1500.0	0.0003893	96.3429999352
1520.0	0.000392	96.7649998665
1520.0	0.0003915	96.7960000038
1520.0	0.000392	96.8429999352
1520.0	0.0003925	96.8899998665
1520.0	0.000393	96.9210000038
1520.0	0.000393	96.9679999352
1520.0	0.0003915	97.0149998665
1520.0	0.0003915	97.0460000038
1520.0	0.0003925	97.0929999352
1520.0	0.0003938	97.1399998665
1520.0	0.0003925	97.1710000038
1520.0	0.0003918	97.2179999352
1520.0	0.000392	97.25
1520.0	0.0003933	97.2960000038
1520.0	0.000393	97.3429999352
1520.0	0.0003918	97.375
1520.0	0.0003915	97.4210000038
1520.0	0.000392	97.4679999352
1520.0	0.000393	97.5
1520.0	0.000393	97.5460000038
1520.0	0.0003918	97.5780000687
1520.0	0.0003918	97.625
1520.0	0.0003915	97.6710000038
1520.0	0.000392	97.7030000687
1520.0	0.0003908	97.75
1520.0	0.0003908	97.7960000038
1520.0	0.0003905	97.8280000687
1520.0	0.0003908	97.875
1520.0	0.000392	97.9059998989
1520.0	0.0003913	97.9530000687
1520.0	0.0003915	98.0
1520.0	0.000392	98.0309998989
1520.0	0.0003928	98.0780000687
1520.0	0.0003928	98.125
1520.0	0.0003918	98.1559998989
1520.0	0.0003918	98.2030000687
1520.0	0.0003918	98.25
1540.0	0.0003888	98.6710000038
1540.0	0.000388	98.7030000687
1540.0	0.0003878	98.75
1540.0	0.0003883	98.7960000038
1540.0	0.0003878	98.8280000687
1540.0	0.0003868	98.875
1540.0	0.0003865	98.9210000038
1540.0	0.0003858	98.9530000687
1540.0	0.0003875	99.0
1540.0	0.0003875	99.0309998989
1540.0	0.0003865	99.0780000687
1540.0	0.0003865	99.125
1540.0	0.0003865	99.1559998989
1540.0	0.0003878	99.2030000687
1540.0	0.0003863	99.25
1540.0	0.0003865	99.2960000038
1540.0	0.0003863	99.3280000687
1540.0	0.0003863	99.375
1540.0	0.0003875	99.4059998989
1540.0	0.000387	99.4530000687
1540.0	0.0003858	99.5
1540.0	0.0003855	99.5309998989
1540.0	0.0003855	99.5780000687
1540.0	0.0003868	99.625
1540.0	0.000387	99.6559998989
1540.0	0.0003863	99.7030000687
1540.0	0.0003868	99.7339999676
1540.0	0.0003863	99.7809998989
1540.0	0.0003875	99.8280000687
1540.0	0.0003863	99.8589999676
1540.0	0.0003863	99.9059998989
1540.0	0.0003865	99.9530000687
1540.0	0.0003878	99.9839999676
1540.0	0.000388	100.030999899
1540.0	0.0003868	100.062000036
1540.0	0.0003868	100.108999968
1540.0	0.000387	100.155999899
1560.0	0.0003788	100.578000069
1560.0	0.000375	100.625
1560.0	0.0003733	100.671000004
1560.0	0.0003725	100.703000069
1560.0	0.0003725	100.75
1560.0	0.0003718	100.780999899
1560.0	0.0003695	100.828000069
1560.0	0.000369	100.875
1560.0	0.000369	100.905999899
1560.0	0.00037	100.953000069
1560.0	0.00037	101.0
1560.0	0.0003688	101.030999899
1560.0	0.0003688	101.078000069
1560.0	0.0003705	101.125
1560.0	0.0003705	101.155999899
1560.0	0.0003695	101.203000069
1560.0	0.00037	101.233999968
1560.0	0.0003703	101.280999899
1560.0	0.0003715	101.328000069
1560.0	0.0003713	101.358999968
1560.0	0.00037	101.405999899
1560.0	0.00037	101.453000069
1560.0	0.0003713	101.483999968
1560.0	0.0003708	101.530999899
1560.0	0.0003695	101.562000036
1560.0	0.0003693	101.608999968
1560.0	0.00037	101.655999899
1560.0	0.0003703	101.703000069
1560.0	0.0003708	101.733999968
1560.0	0.0003715	101.780999899
1560.0	0.0003713	101.812000036
1560.0	0.0003705	101.858999968
1560.0	0.0003703	101.905999899
1560.0	0.0003715	101.937000036
1560.0	0.0003713	101.983999968
1560.0	0.0003703	102.030999899
1580.0	0.0003528	102.453000069
1580.0	0.00035	102.483999968
1580.0	0.000347	102.530999899
1580.0	0.000345	102.578000069
1580.0	0.000343	102.608999968
1580.0	0.000343	102.655999899
1580.0	0.000342	102.703000069
1580.0	0.0003403	102.733999968
1580.0	0.00034	102.780999899
1580.0	0.0003393	102.828000069
1580.0	0.0003403	102.858999968
1580.0	0.00034	102.905999899
1580.0	0.0003393	102.953000069
1580.0	0.0003393	102.983999968
1580.0	0.0003405	103.030999899
1580.0	0.0003405	103.062000036
1580.0	0.0003405	103.108999968
1580.0	0.00034	103.155999899
1580.0	0.00034	103.187000036
1580.0	0.0003405	103.233999968
1580.0	0.0003413	103.280999899
1580.0	0.00034	103.312000036
1580.0	0.0003393	103.358999968
1580.0	0.0003395	103.389999866
1580.0	0.0003403	103.437000036
1580.0	0.0003403	103.483999968
1580.0	0.0003393	103.514999866
1580.0	0.000339	103.562000036
1580.0	0.0003393	103.608999968
1580.0	0.00034	103.639999866
1580.0	0.000339	103.687000036
1580.0	0.0003388	103.717999935
1580.0	0.0003388	103.764999866
1580.0	0.0003395	103.812000036
1580.0	0.0003395	103.842999935
1580.0	0.0003388	103.889999866
1580.0	0.0003383	103.937000036
1600.0	0.000315	104.358999968
1600.0	0.0003105	104.405999899
1600.0	0.000307	104.437000036
1600.0	0.0003045	104.483999968
1600.0	0.0003028	104.514999866
1600.0	0.000302	104.562000036
1600.0	0.0003	104.608999968
1600.0	0.000299	104.639999866
1600.0	0.0002988	104.687000036
1600.0	0.000299	104.733999968
1600.0	0.000298	104.764999866
1600.0	0.000297	104.812000036
1600.0	0.000297	104.842999935
1600.0	0.000297	104.889999866
1600.0	0.000298	104.937000036
1600.0	0.0002975	104.967999935
1600.0	0.0002968	105.014999866
1600.0	0.0002965	105.062000036
1600.0	0.0002975	105.092999935
1600.0	0.000297	105.139999866
1600.0	0.0002975	105.171000004
1600.0	0.0002965	105.217999935
1600.0	0.0002963	105.264999866
1600.0	0.000297	105.296000004
1600.0	0.000297	105.342999935
1600.0	0.0002963	105.389999866
1600.0	0.0002963	105.421000004
1600.0	0.0002963	105.467999935
1600.0	0.000297	105.514999866
1600.0	0.0002968	105.546000004
1600.0	0.0002958	105.592999935
1600.0	0.0002955	105.625
1600.0	0.0002965	105.671000004
1600.0	0.0002968	105.717999935
1600.0	0.0002955	105.764999866
1600.0	0.000295	105.796000004
1600.0	0.0002953	105.842999935
1620.0	0.0002678	106.280999899
1620.0	0.0002628	106.312000036
1620.0	0.0002593	106.358999968
1620.0	0.0002555	106.405999899
1620.0	0.0002533	106.437000036
1620.0	0.0002518	106.483999968
1620.0	0.0002508	106.514999866
1620.0	0.0002495	106.562000036
1620.0	0.0002483	106.608999968
1620.0	0.000248	106.639999866
1620.0	0.0002475	106.687000036
1620.0	0.0002483	106.733999968
1620.0	0.0002478	106.764999866
1620.0	0.000247	106.812000036
1620.0	0.0002468	106.842999935
1620.0	0.0002468	106.889999866
1620.0	0.0002475	106.937000036
1620.0	0.0002468	106.967999935
1620.0	0.0002468	107.014999866
1620.0	0.000247	107.062000036
1620.0	0.000248	107.092999935
1620.0	0.0002475	107.139999866
1620.0	0.000247	107.187000036
1620.0	0.0002475	107.217999935
1620.0	0.000247	107.264999866
1620.0	0.000248	107.296000004
1620.0	0.000248	107.342999935
1620.0	0.000247	107.389999866
1620.0	0.0002478	107.437000036
1620.0	0.000247	107.467999935
1620.0	0.0002475	107.514999866
1620.0	0.0002468	107.546000004
1620.0	0.0002465	107.592999935
1620.0	0.0002463	107.639999866
1620.0	0.0002468	107.671000004
1620.0	0.000247	107.717999935
1620.0	0.000247	107.764999866
1640.0	0.000217	108.203000069
1640.0	0.000213	108.25
1640.0	0.0002088	108.280999899
1640.0	0.0002055	108.328000069
1640.0	0.000204	108.358999968
1640.0	0.000203	108.405999899
1640.0	0.0002013	108.453000069
1640.0	0.0002013	108.5
1640.0	0.0002	108.530999899
1640.0	0.0001995	108.578000069
1640.0	0.0001995	108.625
1640.0	0.0001993	108.655999899
1640.0	0.0001988	108.703000069
1640.0	0.0001983	108.733999968
1640.0	0.0001983	108.780999899
1640.0	0.0001983	108.828000069
1640.0	0.0001983	108.858999968
1640.0	0.0001975	108.905999899
1640.0	0.0001968	108.953000069
1640.0	0.0001968	108.983999968
1640.0	0.0001975	109.030999899
1640.0	0.0001975	109.062000036
1640.0	0.000197	109.108999968
1640.0	0.0001975	109.155999899
1640.0	0.0001983	109.187000036
1640.0	0.000198	109.233999968
1640.0	0.000198	109.280999899
1640.0	0.000198	109.312000036
1640.0	0.0001983	109.358999968
1640.0	0.000199	109.389999866
1640.0	0.000199	109.437000036
1640.0	0.0001988	109.483999968
1640.0	0.0001988	109.514999866
1640.0	0.0001988	109.562000036
1640.0	0.0001995	109.608999968
1640.0	0.0001995	109.639999866
1640.0	0.0001988	109.687000036
1660.0	0.000172	110.139999866
1660.0	0.0001683	110.171000004
1660.0	0.000165	110.217999935
1660.0	0.0001628	110.25
1660.0	0.0001608	110.296000004
1660.0	0.00016	110.342999935
1660.0	0.0001588	110.375
1660.0	0.0001578	110.421000004
1660.0	0.0001575	110.453000069
1660.0	0.0001575	110.5
1660.0	0.0001575	110.546000004
1660.0	0.0001568	110.578000069
1660.0	0.0001558	110.625
1660.0	0.0001563	110.671000004
1660.0	0.0001565	110.703000069
1660.0	0.0001568	110.75
1660.0	0.0001563	110.796000004
1660.0	0.0001565	110.828000069
1660.0	0.0001565	110.875
1660.0	0.0001568	110.905999899
1660.0	0.0001568	110.953000069
1660.0	0.0001563	111.0
1660.0	0.0001565	111.030999899
1660.0	0.000157	111.078000069
1660.0	0.0001578	111.125
1660.0	0.000157	111.155999899
1660.0	0.0001565	111.203000069
1660.0	0.0001565	111.25
1660.0	0.0001565	111.280999899
1660.0	0.000157	111.328000069
1660.0	0.0001568	111.375
1660.0	0.0001565	111.405999899
1660.0	0.0001568	111.453000069
1660.0	0.0001575	111.483999968
1660.0	0.000158	111.530999899
1660.0	0.000158	111.578000069
1660.0	0.0001575	111.608999968
1680.0	0.0001358	112.062000036
1680.0	0.0001333	112.108999968
1680.0	0.0001303	112.155999899
1680.0	0.0001288	112.187000036
1680.0	0.000127	112.233999968
1680.0	0.0001263	112.264999866
1680.0	0.0001253	112.312000036
1680.0	0.0001245	112.358999968
1680.0	0.0001243	112.389999866
1680.0	0.000124	112.437000036
1680.0	0.0001238	112.483999968
1680.0	0.000123	112.514999866
1680.0	0.0001233	112.562000036
1680.0	0.0001233	112.592999935
1680.0	0.0001233	112.639999866
1680.0	0.0001238	112.687000036
1680.0	0.000123	112.717999935
1680.0	0.0001225	112.764999866
1680.0	0.000122	112.812000036
1680.0	0.0001225	112.842999935
1680.0	0.0001228	112.889999866
1680.0	0.0001228	112.937000036
1680.0	0.0001228	112.967999935
1680.0	0.0001228	113.014999866
1680.0	0.0001238	113.046000004
1680.0	0.000124	113.092999935
1680.0	0.0001238	113.139999866
1680.0	0.0001238	113.171000004
1680.0	0.0001243	113.217999935
1680.0	0.0001245	113.264999866
1680.0	0.000124	113.296000004
1680.0	0.000124	113.342999935
1680.0	0.0001243	113.375
1680.0	0.0001243	113.421000004
1680.0	0.000124	113.467999935
1680.0	0.0001238	113.5
1680.0	0.0001238	113.546000004
1700.0	0.0001075	114.0
1700.0	0.0001055	114.030999899
1700.0	0.000103	114.078000069
1700.0	0.0001013	114.125
1700.0	0.0001005	114.155999899
1700.0	0.0001	114.203000069
1700.0	9.93e-05	114.25
1700.0	9.93e-05	114.280999899
1700.0	9.9e-05	114.328000069
1700.0	9.88e-05	114.358999968
1700.0	9.88e-05	114.405999899
1700.0	9.8e-05	114.453000069
1700.0	9.78e-05	114.5
1700.0	9.78e-05	114.530999899
1700.0	9.78e-05	114.578000069
1700.0	9.88e-05	114.625
1700.0	9.9e-05	114.655999899
1700.0	9.88e-05	114.703000069
1700.0	9.88e-05	114.733999968
1700.0	9.9e-05	114.780999899
1700.0	9.93e-05	114.828000069
1700.0	9.93e-05	114.858999968
1700.0	9.9e-05	114.905999899
1700.0	9.88e-05	114.953000069
1700.0	9.88e-05	114.983999968
1700.0	9.9e-05	115.030999899
1700.0	9.88e-05	115.062000036
1700.0	9.83e-05	115.108999968
1700.0	9.8e-05	115.155999899
1700.0	9.83e-05	115.187000036
1700.0	9.8e-05	115.233999968
1700.0	9.78e-05	115.280999899
1700.0	9.78e-05	115.312000036
1700.0	9.78e-05	115.358999968
1700.0	9.8e-05	115.405999899
1700.0	9.78e-05	115.437000036
1700.0	9.8e-05	115.483999968
1720.0	8.55e-05	115.937000036
1720.0	8.4e-05	115.983999968
1720.0	8.3e-05	116.014999866
1720.0	8.15e-05	116.062000036
1720.0	8.08e-05	116.092999935
1720.0	8.05e-05	116.139999866
1720.0	8e-05	116.187000036
1720.0	7.93e-05	116.217999935
1720.0	7.88e-05	116.264999866
1720.0	7.88e-05	116.312000036
1720.0	7.83e-05	116.342999935
1720.0	7.88e-05	116.389999866
1720.0	7.88e-05	116.421000004
1720.0	7.83e-05	116.467999935
1720.0	7.8e-05	116.514999866
1720.0	7.83e-05	116.546000004
1720.0	7.8e-05	116.592999935
1720.0	7.8e-05	116.639999866
1720.0	7.8e-05	116.671000004
1720.0	7.8e-05	116.717999935
1720.0	7.88e-05	116.764999866
1720.0	7.88e-05	116.796000004
1720.0	7.88e-05	116.842999935
1720.0	7.88e-05	116.875
1720.0	7.88e-05	116.921000004
1720.0	7.9e-05	116.967999935
1720.0	7.88e-05	117.0
1720.0	7.88e-05	117.046000004
1720.0	7.8e-05	117.092999935
1720.0	7.88e-05	117.125
1720.0	7.88e-05	117.171000004
1720.0	7.88e-05	117.203000069
1720.0	7.8e-05	117.25
1720.0	7.8e-05	117.296000004
1720.0	7.83e-05	117.328000069
1720.0	7.83e-05	117.375
1720.0	7.8e-05	117.421000004
1740.0	6.9e-05	117.875
1740.0	6.83e-05	117.921000004
1740.0	6.75e-05	117.953000069
1740.0	6.68e-05	118.0
1740.0	6.63e-05	118.030999899
1740.0	6.58e-05	118.078000069
1740.0	6.55e-05	118.125
1740.0	6.58e-05	118.155999899
1740.0	6.58e-05	118.203000069
1740.0	6.58e-05	118.25
1740.0	6.55e-05	118.280999899
1740.0	6.55e-05	118.328000069
1740.0	6.58e-05	118.375
1740.0	6.53e-05	118.405999899
1740.0	6.5e-05	118.453000069
1740.0	6.45e-05	118.483999968
1740.0	6.43e-05	118.530999899
1740.0	6.45e-05	118.578000069
1740.0	6.45e-05	118.608999968
1740.0	6.5e-05	118.655999899
1740.0	6.53e-05	118.703000069
1740.0	6.55e-05	118.733999968
1740.0	6.58e-05	118.780999899
1740.0	6.58e-05	118.812000036
1740.0	6.55e-05	118.858999968
1740.0	6.55e-05	118.905999899
1740.0	6.53e-05	118.937000036
1740.0	6.45e-05	118.983999968
1740.0	6.43e-05	119.030999899
1740.0	6.4e-05	119.062000036
1740.0	6.43e-05	119.108999968
1740.0	6.43e-05	119.139999866
1740.0	6.45e-05	119.187000036
1740.0	6.43e-05	119.233999968
1740.0	6.43e-05	119.264999866
1740.0	6.43e-05	119.312000036
1740.0	6.43e-05	119.358999968
1760.0	5.88e-05	119.812000036
1760.0	5.75e-05	119.842999935
1760.0	5.68e-05	119.889999866
1760.0	5.58e-05	119.921000004
1760.0	5.53e-05	119.967999935
1760.0	5.5e-05	120.014999866
1760.0	5.43e-05	120.062000036
1760.0	5.38e-05	120.092999935
1760.0	5.38e-05	120.139999866
1760.0	5.38e-05	120.171000004
1760.0	5.33e-05	120.217999935
1760.0	5.3e-05	120.264999866
1760.0	5.38e-05	120.296000004
1760.0	5.38e-05	120.342999935
1760.0	5.38e-05	120.389999866
1760.0	5.4e-05	120.421000004
1760.0	5.4e-05	120.467999935
1760.0	5.43e-05	120.514999866
1760.0	5.43e-05	120.546000004
1760.0	5.43e-05	120.592999935
1760.0	5.4e-05	120.625
1760.0	5.38e-05	120.671000004
1760.0	5.38e-05	120.717999935
1760.0	5.3e-05	120.75
1760.0	5.3e-05	120.796000004
1760.0	5.3e-05	120.828000069
1760.0	5.33e-05	120.875
1760.0	5.38e-05	120.921000004
1760.0	5.38e-05	120.953000069
1760.0	5.33e-05	121.0
1760.0	5.33e-05	121.046000004
1760.0	5.38e-05	121.078000069
1760.0	5.38e-05	121.125
1760.0	5.38e-05	121.171000004
1760.0	5.38e-05	121.203000069
1760.0	5.38e-05	121.25
1760.0	5.4e-05	121.280999899
1780.0	4.88e-05	121.75
1780.0	4.78e-05	121.780999899
1780.0	4.68e-05	121.828000069
1780.0	4.65e-05	121.858999968
1780.0	4.63e-05	121.905999899
1780.0	4.55e-05	121.953000069
1780.0	4.53e-05	121.983999968
1780.0	4.5e-05	122.030999899
1780.0	4.5e-05	122.078000069
1780.0	4.45e-05	122.125
1780.0	4.45e-05	122.155999899
1780.0	4.43e-05	122.203000069
1780.0	4.43e-05	122.233999968
1780.0	4.43e-05	122.280999899
1780.0	4.45e-05	122.328000069
1780.0	4.43e-05	122.358999968
1780.0	4.4e-05	122.405999899
1780.0	4.43e-05	122.453000069
1780.0	4.43e-05	122.483999968
1780.0	4.43e-05	122.530999899
1780.0	4.38e-05	122.562000036
1780.0	4.38e-05	122.608999968
1780.0	4.38e-05	122.655999899
1780.0	4.38e-05	122.687000036
1780.0	4.38e-05	122.733999968
1780.0	4.4e-05	122.780999899
1780.0	4.4e-05	122.812000036
1780.0	4.4e-05	122.858999968
1780.0	4.43e-05	122.889999866
1780.0	4.4e-05	122.937000036
1780.0	4.38e-05	122.983999968
1780.0	4.33e-05	123.014999866
1780.0	4.33e-05	123.062000036
1780.0	4.33e-05	123.108999968
1780.0	4.3e-05	123.139999866
1780.0	4.3e-05	123.187000036
1780.0	4.3e-05	123.233999968
1800.0	3.78e-05	123.687000036
1800.0	3.68e-05	123.717999935
1800.0	3.63e-05	123.764999866
1800.0	3.55e-05	123.812000036
1800.0	3.5e-05	123.842999935
1800.0	3.45e-05	123.889999866
1800.0	3.43e-05	123.921000004
1800.0	3.4e-05	123.967999935
1800.0	3.38e-05	124.014999866
1800.0	3.38e-05	124.046000004
1800.0	3.38e-05	124.092999935
1800.0	3.38e-05	124.139999866
1800.0	3.33e-05	124.171000004
1800.0	3.33e-05	124.217999935
1800.0	3.33e-05	124.264999866
1800.0	3.3e-05	124.296000004
1800.0	3.3e-05	124.342999935
1800.0	3.3e-05	124.389999866
1800.0	3.33e-05	124.421000004
1800.0	3.33e-05	124.467999935
1800.0	3.38e-05	124.514999866
1800.0	3.38e-05	124.546000004
1800.0	3.38e-05	124.592999935
1800.0	3.38e-05	124.625
1800.0	3.4e-05	124.671000004
1800.0	3.4e-05	124.717999935
1800.0	3.4e-05	124.75
1800.0	3.4e-05	124.796000004
1800.0	3.43e-05	124.842999935
1800.0	3.45e-05	124.875
1800.0	3.43e-05	124.921000004
1800.0	3.43e-05	124.953000069
1800.0	3.45e-05	125.0
1800.0	3.45e-05	125.046000004
1800.0	3.5e-05	125.078000069
1800.0	3.45e-05	125.125
1800.0	3.43e-05	125.171000004
