Your edit line - do NOT delete this line
Wavelength [nm], Voltage [V], Elapsed time [s]
900.0	0.0001563	5.01600003242
900.0	0.0001525	5.06200003624
900.0	0.00015	5.09399986267
900.0	0.0001478	5.14100003242
900.0	0.0001463	5.18700003624
900.0	0.0001453	5.21899986267
900.0	0.000145	5.26600003242
900.0	0.000145	5.31200003624
900.0	0.0001445	5.34399986267
900.0	0.0001445	5.39100003242
900.0	0.0001443	5.42199993134
900.0	0.000144	5.46899986267
900.0	0.000144	5.51600003242
900.0	0.0001438	5.54699993134
900.0	0.0001438	5.59399986267
900.0	0.0001438	5.64100003242
900.0	0.0001433	5.67199993134
900.0	0.0001433	5.71899986267
900.0	0.0001433	5.75
900.0	0.0001433	5.79699993134
900.0	0.0001438	5.84399986267
900.0	0.0001438	5.875
900.0	0.000144	5.92199993134
900.0	0.000144	5.96899986267
900.0	0.000144	6.0
900.0	0.000144	6.04699993134
900.0	0.000144	6.07800006866
900.0	0.000144	6.125
900.0	0.0001443	6.17199993134
900.0	0.000144	6.20300006866
900.0	0.0001443	6.25
900.0	0.0001443	6.29699993134
900.0	0.0001443	6.32800006866
900.0	0.0001443	6.375
900.0	0.000144	6.40599989891
900.0	0.0001443	6.45300006866
900.0	0.000144	6.5
910.0	0.0001508	6.79699993134
910.0	0.0001525	6.84399986267
910.0	0.000154	6.89100003242
910.0	0.000155	6.92199993134
910.0	0.0001558	6.96899986267
910.0	0.0001568	7.01600003242
910.0	0.0001575	7.04699993134
910.0	0.0001575	7.09399986267
910.0	0.0001578	7.125
910.0	0.0001583	7.17199993134
910.0	0.0001588	7.21899986267
910.0	0.000159	7.25
910.0	0.000159	7.29699993134
910.0	0.0001588	7.34399986267
910.0	0.0001583	7.375
910.0	0.000158	7.42199993134
910.0	0.0001578	7.45300006866
910.0	0.0001578	7.5
910.0	0.0001575	7.54699993134
910.0	0.0001575	7.57800006866
910.0	0.0001578	7.625
910.0	0.0001578	7.67199993134
910.0	0.000158	7.70300006866
910.0	0.0001583	7.75
910.0	0.0001588	7.78099989891
910.0	0.0001588	7.82800006866
910.0	0.0001588	7.875
910.0	0.0001588	7.90599989891
910.0	0.0001583	7.95300006866
910.0	0.000158	8.0
910.0	0.000158	8.03099989891
910.0	0.000158	8.07800006866
910.0	0.000158	8.125
910.0	0.000158	8.15599989891
910.0	0.0001583	8.20300006866
910.0	0.0001583	8.23399996758
910.0	0.0001583	8.28099989891
920.0	0.0001655	8.59399986267
920.0	0.0001675	8.625
920.0	0.0001688	8.67199993134
920.0	0.0001703	8.70300006866
920.0	0.0001715	8.75
920.0	0.0001728	8.79699993134
920.0	0.0001738	8.82800006866
920.0	0.0001745	8.875
920.0	0.000175	8.92199993134
920.0	0.000175	8.95300006866
920.0	0.0001745	9.0
920.0	0.0001745	9.03099989891
920.0	0.0001745	9.07800006866
920.0	0.000175	9.125
920.0	0.000175	9.15599989891
920.0	0.0001745	9.20300006866
920.0	0.0001745	9.25
920.0	0.000175	9.28099989891
920.0	0.000175	9.32800006866
920.0	0.0001753	9.35899996758
920.0	0.0001755	9.40599989891
920.0	0.0001755	9.45300006866
920.0	0.0001755	9.48399996758
920.0	0.0001755	9.53099989891
920.0	0.0001753	9.57800006866
920.0	0.000175	9.60899996758
920.0	0.0001745	9.65599989891
920.0	0.0001745	9.70300006866
920.0	0.0001743	9.73399996758
920.0	0.0001743	9.78099989891
920.0	0.0001745	9.81200003624
920.0	0.000175	9.85899996758
920.0	0.0001753	9.90599989891
920.0	0.0001753	9.93700003624
920.0	0.000175	9.98399996758
920.0	0.000175	10.0309998989
920.0	0.0001753	10.0620000362
930.0	0.0001825	10.3589999676
930.0	0.000185	10.4059998989
930.0	0.0001865	10.4530000687
930.0	0.000188	10.4839999676
930.0	0.0001893	10.5309998989
930.0	0.0001908	10.5780000687
930.0	0.0001915	10.6089999676
930.0	0.000192	10.6559998989
930.0	0.0001925	10.6870000362
930.0	0.0001928	10.7339999676
930.0	0.0001928	10.7809998989
930.0	0.0001928	10.8120000362
930.0	0.000193	10.8589999676
930.0	0.0001933	10.9059998989
930.0	0.0001933	10.9370000362
930.0	0.0001933	10.9839999676
930.0	0.000193	11.0160000324
930.0	0.0001928	11.0620000362
930.0	0.0001925	11.1089999676
930.0	0.0001925	11.1410000324
930.0	0.0001925	11.1870000362
930.0	0.000192	11.2339999676
930.0	0.0001925	11.2660000324
930.0	0.000192	11.3120000362
930.0	0.000192	11.3439998627
930.0	0.0001918	11.3910000324
930.0	0.000192	11.4370000362
930.0	0.000192	11.4689998627
930.0	0.000192	11.5160000324
930.0	0.000192	11.5620000362
930.0	0.000192	11.6089999676
930.0	0.000192	11.6410000324
930.0	0.000192	11.6870000362
930.0	0.000192	11.7189998627
930.0	0.000192	11.7660000324
930.0	0.000192	11.8120000362
930.0	0.0001925	11.8439998627
940.0	0.0002008	12.1410000324
940.0	0.0002033	12.1870000362
940.0	0.000205	12.2339999676
940.0	0.0002063	12.2660000324
940.0	0.0002075	12.3120000362
940.0	0.0002083	12.3589999676
940.0	0.0002088	12.3910000324
940.0	0.0002093	12.4370000362
940.0	0.0002095	12.4689998627
940.0	0.00021	12.5160000324
940.0	0.00021	12.5620000362
940.0	0.00021	12.5939998627
940.0	0.0002103	12.6410000324
940.0	0.0002103	12.6870000362
940.0	0.0002103	12.7189998627
940.0	0.0002103	12.7660000324
940.0	0.0002105	12.8120000362
940.0	0.0002108	12.8439998627
940.0	0.0002108	12.8910000324
940.0	0.0002108	12.9219999313
940.0	0.0002105	12.9689998627
940.0	0.0002103	13.0160000324
940.0	0.0002105	13.0469999313
940.0	0.0002103	13.0939998627
940.0	0.00021	13.125
940.0	0.0002095	13.1719999313
940.0	0.0002095	13.2189998627
940.0	0.0002093	13.25
940.0	0.0002093	13.2969999313
940.0	0.0002093	13.3439998627
940.0	0.0002095	13.375
940.0	0.0002103	13.4219999313
940.0	0.0002103	13.4689998627
940.0	0.0002103	13.5
940.0	0.0002105	13.5469999313
940.0	0.0002105	13.5780000687
940.0	0.0002105	13.625
950.0	0.0002168	13.9219999313
950.0	0.0002195	13.9689998627
950.0	0.0002218	14.0
950.0	0.0002233	14.0469999313
950.0	0.000225	14.0780000687
950.0	0.0002258	14.125
950.0	0.0002268	14.1719999313
950.0	0.000227	14.2030000687
950.0	0.0002275	14.25
950.0	0.0002275	14.2969999313
950.0	0.0002275	14.3280000687
950.0	0.0002278	14.375
950.0	0.000228	14.4219999313
950.0	0.000228	14.4530000687
950.0	0.0002278	14.5
950.0	0.0002278	14.5309998989
950.0	0.000228	14.5780000687
950.0	0.000228	14.625
950.0	0.000228	14.6719999313
950.0	0.0002278	14.7030000687
950.0	0.0002278	14.75
950.0	0.000228	14.7809998989
950.0	0.000228	14.8280000687
950.0	0.000228	14.875
950.0	0.0002283	14.9059998989
950.0	0.0002283	14.9530000687
950.0	0.0002283	15.0
950.0	0.0002283	15.0309998989
950.0	0.000228	15.0780000687
950.0	0.000228	15.1089999676
950.0	0.0002275	15.1559998989
950.0	0.000227	15.2030000687
950.0	0.0002268	15.2339999676
950.0	0.0002268	15.2809998989
950.0	0.0002265	15.3280000687
950.0	0.0002265	15.3589999676
950.0	0.0002268	15.4059998989
960.0	0.000235	15.6870000362
960.0	0.0002375	15.7339999676
960.0	0.0002393	15.7809998989
960.0	0.0002413	15.8120000362
960.0	0.0002425	15.8589999676
960.0	0.0002433	15.9059998989
960.0	0.000244	15.9370000362
960.0	0.0002445	15.9839999676
960.0	0.000245	16.0309998989
960.0	0.0002445	16.0620000362
960.0	0.0002445	16.1089999676
960.0	0.0002445	16.1410000324
960.0	0.000245	16.1870000362
960.0	0.0002453	16.2339999676
960.0	0.000245	16.2660000324
960.0	0.000245	16.3120000362
960.0	0.000245	16.3589999676
960.0	0.0002453	16.3910000324
960.0	0.0002455	16.4370000362
960.0	0.0002458	16.4839999676
960.0	0.0002463	16.5160000324
960.0	0.0002465	16.5620000362
960.0	0.0002465	16.5939998627
960.0	0.0002465	16.6410000324
960.0	0.0002465	16.6870000362
960.0	0.0002468	16.7189998627
960.0	0.0002468	16.7660000324
960.0	0.0002468	16.8120000362
960.0	0.0002465	16.8439998627
960.0	0.0002465	16.8910000324
960.0	0.0002463	16.9219999313
960.0	0.0002463	16.9689998627
960.0	0.0002458	17.0160000324
960.0	0.0002455	17.0469999313
960.0	0.0002458	17.0939998627
960.0	0.0002463	17.1410000324
960.0	0.0002463	17.1719999313
970.0	0.0002518	17.4530000687
970.0	0.0002543	17.5
970.0	0.0002568	17.5469999313
970.0	0.000258	17.5780000687
970.0	0.0002593	17.625
970.0	0.0002603	17.6719999313
970.0	0.0002615	17.7030000687
970.0	0.000262	17.75
970.0	0.0002625	17.7969999313
970.0	0.000263	17.8280000687
970.0	0.0002638	17.875
970.0	0.0002638	17.9219999313
970.0	0.000264	17.9530000687
970.0	0.0002638	18.0
970.0	0.0002633	18.0469999313
970.0	0.0002638	18.0939998627
970.0	0.0002638	18.125
970.0	0.0002638	18.1719999313
970.0	0.0002638	18.2030000687
970.0	0.0002638	18.25
970.0	0.0002638	18.2969999313
970.0	0.0002633	18.3280000687
970.0	0.000263	18.375
970.0	0.000263	18.4219999313
970.0	0.0002633	18.4530000687
970.0	0.0002633	18.5
970.0	0.0002638	18.5309998989
970.0	0.0002638	18.5780000687
970.0	0.0002638	18.625
970.0	0.0002638	18.6559998989
970.0	0.0002633	18.7030000687
970.0	0.000263	18.75
970.0	0.000263	18.7809998989
970.0	0.000263	18.8280000687
970.0	0.0002633	18.8589999676
970.0	0.0002633	18.9059998989
970.0	0.0002638	18.9530000687
980.0	0.0002703	19.2339999676
980.0	0.0002725	19.2809998989
980.0	0.0002743	19.3120000362
980.0	0.0002753	19.3589999676
980.0	0.0002768	19.3910000324
980.0	0.0002775	19.4370000362
980.0	0.0002783	19.4839999676
980.0	0.000279	19.5160000324
980.0	0.0002793	19.5620000362
980.0	0.0002795	19.6089999676
980.0	0.0002793	19.6410000324
980.0	0.0002793	19.6870000362
980.0	0.0002793	19.7189998627
980.0	0.0002795	19.7660000324
980.0	0.00028	19.8120000362
980.0	0.0002803	19.8439998627
980.0	0.0002803	19.8910000324
980.0	0.0002803	19.9370000362
980.0	0.00028	19.9689998627
980.0	0.0002803	20.0160000324
980.0	0.00028	20.0469999313
980.0	0.0002803	20.0939998627
980.0	0.0002803	20.1410000324
980.0	0.0002803	20.1719999313
980.0	0.0002803	20.2189998627
980.0	0.0002805	20.2660000324
980.0	0.0002808	20.2969999313
980.0	0.0002805	20.3439998627
980.0	0.00028	20.375
980.0	0.00028	20.4219999313
980.0	0.00028	20.4689998627
980.0	0.00028	20.5
980.0	0.00028	20.5469999313
980.0	0.00028	20.5939998627
980.0	0.0002795	20.625
980.0	0.0002795	20.6719999313
980.0	0.0002793	20.7030000687
990.0	0.000285	20.9839999676
990.0	0.0002875	21.0309998989
990.0	0.0002893	21.0780000687
990.0	0.0002905	21.1089999676
990.0	0.0002918	21.1559998989
990.0	0.000293	21.2030000687
990.0	0.0002938	21.2339999676
990.0	0.0002945	21.2809998989
990.0	0.000295	21.3120000362
990.0	0.0002953	21.3589999676
990.0	0.0002953	21.4059998989
990.0	0.0002955	21.4370000362
990.0	0.0002955	21.4839999676
990.0	0.0002955	21.5309998989
990.0	0.0002953	21.5620000362
990.0	0.0002945	21.6089999676
990.0	0.000295	21.6410000324
990.0	0.000295	21.6870000362
990.0	0.0002945	21.7339999676
990.0	0.0002943	21.7660000324
990.0	0.0002943	21.8120000362
990.0	0.000295	21.8589999676
990.0	0.0002953	21.8910000324
990.0	0.0002953	21.9370000362
990.0	0.0002953	21.9839999676
990.0	0.0002955	22.0160000324
990.0	0.0002958	22.0620000362
990.0	0.0002958	22.0939998627
990.0	0.0002963	22.1410000324
990.0	0.0002963	22.1870000362
990.0	0.0002965	22.2189998627
990.0	0.0002963	22.2660000324
990.0	0.0002958	22.3120000362
990.0	0.0002958	22.3439998627
990.0	0.0002958	22.3910000324
990.0	0.0002958	22.4219999313
990.0	0.0002963	22.4689998627
1000.0	0.0003028	22.75
1000.0	0.0003045	22.7969999313
1000.0	0.0003063	22.8280000687
1000.0	0.0003075	22.875
1000.0	0.0003083	22.9219999313
1000.0	0.0003093	22.9530000687
1000.0	0.00031	23.0
1000.0	0.0003105	23.0469999313
1000.0	0.0003108	23.0780000687
1000.0	0.0003113	23.125
1000.0	0.0003118	23.1559998989
1000.0	0.000312	23.2030000687
1000.0	0.0003128	23.25
1000.0	0.000313	23.2809998989
1000.0	0.0003128	23.3280000687
1000.0	0.0003125	23.375
1000.0	0.000312	23.4059998989
1000.0	0.0003118	23.4530000687
1000.0	0.0003118	23.4839999676
1000.0	0.0003118	23.5309998989
1000.0	0.0003118	23.5780000687
1000.0	0.000312	23.6089999676
1000.0	0.0003125	23.6559998989
1000.0	0.0003125	23.7030000687
1000.0	0.0003128	23.7339999676
1000.0	0.000313	23.7809998989
1000.0	0.0003125	23.8120000362
1000.0	0.000312	23.8589999676
1000.0	0.0003118	23.9059998989
1000.0	0.000312	23.9530000687
1000.0	0.000312	23.9839999676
1000.0	0.0003118	24.0309998989
1000.0	0.0003118	24.0780000687
1000.0	0.0003118	24.1089999676
1000.0	0.000312	24.1559998989
1000.0	0.0003125	24.1870000362
1000.0	0.0003125	24.2339999676
1010.0	0.0003188	24.5160000324
1010.0	0.0003205	24.5620000362
1010.0	0.0003228	24.5939998627
1010.0	0.0003243	24.6410000324
1010.0	0.0003258	24.6719999313
1010.0	0.0003268	24.7189998627
1010.0	0.0003275	24.7660000324
1010.0	0.000328	24.7969999313
1010.0	0.0003283	24.8439998627
1010.0	0.0003283	24.8910000324
1010.0	0.0003283	24.9219999313
1010.0	0.000328	24.9689998627
1010.0	0.000328	25.0
1010.0	0.0003278	25.0469999313
1010.0	0.0003278	25.0939998627
1010.0	0.0003275	25.125
1010.0	0.0003275	25.1719999313
1010.0	0.0003275	25.2189998627
1010.0	0.000327	25.25
1010.0	0.0003268	25.2969999313
1010.0	0.0003275	25.3280000687
1010.0	0.0003278	25.375
1010.0	0.000328	25.4219999313
1010.0	0.0003283	25.4530000687
1010.0	0.0003283	25.5
1010.0	0.000328	25.5469999313
1010.0	0.000328	25.5780000687
1010.0	0.000328	25.625
1010.0	0.000328	25.6719999313
1010.0	0.0003278	25.7030000687
1010.0	0.000328	25.75
1010.0	0.000328	25.7809998989
1010.0	0.0003278	25.8280000687
1010.0	0.0003278	25.875
1010.0	0.000328	25.9059998989
1010.0	0.000328	25.9530000687
1010.0	0.000328	26.0
1020.0	0.0003338	26.2809998989
1020.0	0.0003363	26.3120000362
1020.0	0.0003383	26.3589999676
1020.0	0.0003393	26.4059998989
1020.0	0.0003405	26.4370000362
1020.0	0.0003418	26.4839999676
1020.0	0.0003425	26.5160000324
1020.0	0.000343	26.5620000362
1020.0	0.0003433	26.6089999676
1020.0	0.0003438	26.6410000324
1020.0	0.0003438	26.6870000362
1020.0	0.000344	26.7339999676
1020.0	0.000344	26.7660000324
1020.0	0.0003443	26.8120000362
1020.0	0.000344	26.8589999676
1020.0	0.000344	26.8910000324
1020.0	0.0003438	26.9370000362
1020.0	0.0003438	26.9689998627
1020.0	0.0003433	27.0160000324
1020.0	0.0003433	27.0620000362
1020.0	0.0003438	27.0939998627
1020.0	0.0003438	27.1410000324
1020.0	0.000344	27.1870000362
1020.0	0.0003443	27.2189998627
1020.0	0.0003443	27.2660000324
1020.0	0.0003445	27.2969999313
1020.0	0.0003445	27.3439998627
1020.0	0.000345	27.3910000324
1020.0	0.000345	27.4219999313
1020.0	0.0003453	27.4689998627
1020.0	0.0003453	27.5160000324
1020.0	0.0003453	27.5469999313
1020.0	0.0003453	27.5939998627
1020.0	0.0003453	27.625
1020.0	0.0003455	27.6719999313
1020.0	0.0003453	27.7189998627
1020.0	0.0003455	27.75
1030.0	0.0003505	28.0309998989
1030.0	0.000353	28.0780000687
1030.0	0.0003553	28.1089999676
1030.0	0.0003568	28.1559998989
1030.0	0.0003575	28.2030000687
1030.0	0.000358	28.2339999676
1030.0	0.0003588	28.2809998989
1030.0	0.0003595	28.3280000687
1030.0	0.00036	28.3589999676
1030.0	0.0003603	28.4059998989
1030.0	0.0003603	28.4530000687
1030.0	0.00036	28.4839999676
1030.0	0.0003595	28.5309998989
1030.0	0.00036	28.5780000687
1030.0	0.0003603	28.6089999676
1030.0	0.0003605	28.6559998989
1030.0	0.0003605	28.7030000687
1030.0	0.0003605	28.7339999676
1030.0	0.0003608	28.7809998989
1030.0	0.0003605	28.8120000362
1030.0	0.0003603	28.8589999676
1030.0	0.00036	28.9059998989
1030.0	0.00036	28.9370000362
1030.0	0.0003603	28.9839999676
1030.0	0.0003603	29.0309998989
1030.0	0.0003603	29.0620000362
1030.0	0.0003603	29.1089999676
1030.0	0.0003605	29.1410000324
1030.0	0.0003603	29.1870000362
1030.0	0.0003605	29.2339999676
1030.0	0.0003605	29.2660000324
1030.0	0.0003608	29.3120000362
1030.0	0.0003605	29.3589999676
1030.0	0.0003605	29.3910000324
1030.0	0.0003603	29.4370000362
1030.0	0.0003603	29.4689998627
1030.0	0.0003605	29.5160000324
1040.0	0.000367	29.7969999313
1040.0	0.000369	29.8439998627
1040.0	0.0003708	29.875
1040.0	0.0003725	29.9219999313
1040.0	0.0003738	29.9689998627
1040.0	0.0003745	30.0
1040.0	0.000375	30.0469999313
1040.0	0.0003755	30.0939998627
1040.0	0.0003763	30.1410000324
1040.0	0.0003765	30.1719999313
1040.0	0.0003768	30.2189998627
1040.0	0.0003768	30.25
1040.0	0.0003768	30.2969999313
1040.0	0.0003768	30.3439998627
1040.0	0.000377	30.375
1040.0	0.000377	30.4219999313
1040.0	0.0003775	30.4689998627
1040.0	0.0003775	30.5
1040.0	0.0003775	30.5469999313
1040.0	0.0003775	30.5780000687
1040.0	0.000377	30.625
1040.0	0.0003768	30.6719999313
1040.0	0.0003768	30.7030000687
1040.0	0.000377	30.75
1040.0	0.000377	30.7969999313
1040.0	0.000377	30.8280000687
1040.0	0.000377	30.875
1040.0	0.000377	30.9059998989
1040.0	0.0003775	30.9530000687
1040.0	0.0003775	31.0
1040.0	0.0003775	31.0309998989
1040.0	0.0003775	31.0780000687
1040.0	0.0003778	31.125
1040.0	0.0003775	31.1559998989
1040.0	0.0003775	31.2030000687
1040.0	0.000377	31.2339999676
1050.0	0.0003828	31.5160000324
1050.0	0.0003853	31.5620000362
1050.0	0.0003868	31.6089999676
1050.0	0.0003888	31.6410000324
1050.0	0.0003895	31.6870000362
1050.0	0.0003903	31.7339999676
1050.0	0.0003908	31.7660000324
1050.0	0.0003913	31.8120000362
1050.0	0.0003915	31.8439998627
1050.0	0.0003915	31.8910000324
1050.0	0.000392	31.9370000362
1050.0	0.000392	31.9689998627
1050.0	0.0003925	32.0160000324
1050.0	0.000393	32.0620000362
1050.0	0.0003938	32.0939998627
1050.0	0.0003938	32.1410000324
1050.0	0.0003938	32.1719999313
1050.0	0.0003938	32.2189998627
1050.0	0.0003938	32.2660000324
1050.0	0.0003938	32.2969999313
1050.0	0.0003938	32.3439998627
1050.0	0.0003938	32.3910000324
1050.0	0.0003933	32.4219999313
1050.0	0.0003933	32.4689998627
1050.0	0.0003938	32.5
1050.0	0.0003938	32.5469999313
1050.0	0.0003938	32.5939998627
1050.0	0.0003938	32.625
1050.0	0.0003938	32.6719999313
1050.0	0.0003938	32.7189998627
1050.0	0.0003933	32.75
1050.0	0.0003933	32.7969999313
1050.0	0.0003933	32.8280000687
1050.0	0.0003933	32.875
1050.0	0.000394	32.9219999313
1050.0	0.000394	32.9530000687
1050.0	0.000394	33.0
1060.0	0.0004003	33.2809998989
1060.0	0.0004018	33.3120000362
1060.0	0.0004038	33.3589999676
1060.0	0.0004055	33.4059998989
1060.0	0.0004065	33.4370000362
1060.0	0.000407	33.4839999676
1060.0	0.0004078	33.5309998989
1060.0	0.0004083	33.5620000362
1060.0	0.0004088	33.6089999676
1060.0	0.0004093	33.6559998989
1060.0	0.00041	33.6870000362
1060.0	0.00041	33.7339999676
1060.0	0.00041	33.7660000324
1060.0	0.0004103	33.8120000362
1060.0	0.0004103	33.8589999676
1060.0	0.0004103	33.8910000324
1060.0	0.0004105	33.9370000362
1060.0	0.0004105	33.9839999676
1060.0	0.0004103	34.0160000324
1060.0	0.0004103	34.0620000362
1060.0	0.0004103	34.0939998627
1060.0	0.00041	34.1410000324
1060.0	0.0004103	34.1870000362
1060.0	0.0004103	34.2189998627
1060.0	0.0004108	34.2660000324
1060.0	0.0004108	34.3120000362
1060.0	0.0004108	34.3439998627
1060.0	0.0004108	34.3910000324
1060.0	0.0004105	34.4219999313
1060.0	0.0004105	34.4689998627
1060.0	0.0004103	34.5160000324
1060.0	0.0004103	34.5469999313
1060.0	0.00041	34.5939998627
1060.0	0.00041	34.6410000324
1060.0	0.0004095	34.6719999313
1060.0	0.00041	34.7189998627
1060.0	0.00041	34.75
1070.0	0.0004158	35.0309998989
1070.0	0.000418	35.0780000687
1070.0	0.0004203	35.125
1070.0	0.0004218	35.1559998989
1070.0	0.000423	35.2030000687
1070.0	0.0004243	35.2339999676
1070.0	0.000425	35.2809998989
1070.0	0.0004255	35.3280000687
1070.0	0.0004258	35.3589999676
1070.0	0.0004263	35.4059998989
1070.0	0.0004265	35.4530000687
1070.0	0.0004268	35.4839999676
1070.0	0.000427	35.5309998989
1070.0	0.0004268	35.5780000687
1070.0	0.0004268	35.6089999676
1070.0	0.0004268	35.6559998989
1070.0	0.0004268	35.7030000687
1070.0	0.0004268	35.7339999676
1070.0	0.0004265	35.7809998989
1070.0	0.0004263	35.8280000687
1070.0	0.0004263	35.8589999676
1070.0	0.0004263	35.9059998989
1070.0	0.0004263	35.9530000687
1070.0	0.0004263	35.9839999676
1070.0	0.0004265	36.0309998989
1070.0	0.0004268	36.0620000362
1070.0	0.0004268	36.1089999676
1070.0	0.0004265	36.1559998989
1070.0	0.0004265	36.1870000362
1070.0	0.0004265	36.2339999676
1070.0	0.0004265	36.2809998989
1070.0	0.0004265	36.3120000362
1070.0	0.0004263	36.3589999676
1070.0	0.0004258	36.3910000324
1070.0	0.0004258	36.4370000362
1070.0	0.0004255	36.4839999676
1070.0	0.0004258	36.5160000324
1080.0	0.000432	36.7969999313
1080.0	0.0004338	36.8439998627
1080.0	0.000435	36.875
1080.0	0.0004363	36.9219999313
1080.0	0.0004375	36.9689998627
1080.0	0.0004388	37.0
1080.0	0.0004393	37.0469999313
1080.0	0.0004403	37.0939998627
1080.0	0.0004405	37.125
1080.0	0.0004408	37.1719999313
1080.0	0.0004405	37.2030000687
1080.0	0.0004405	37.25
1080.0	0.0004405	37.2969999313
1080.0	0.0004408	37.3280000687
1080.0	0.0004408	37.375
1080.0	0.0004408	37.4219999313
1080.0	0.0004405	37.4530000687
1080.0	0.0004405	37.5
1080.0	0.0004405	37.5309998989
1080.0	0.0004408	37.5780000687
1080.0	0.0004405	37.625
1080.0	0.0004405	37.6559998989
1080.0	0.0004405	37.7030000687
1080.0	0.0004405	37.75
1080.0	0.0004405	37.7809998989
1080.0	0.0004403	37.8280000687
1080.0	0.0004403	37.8589999676
1080.0	0.00044	37.9059998989
1080.0	0.00044	37.9530000687
1080.0	0.00044	37.9839999676
1080.0	0.00044	38.0309998989
1080.0	0.00044	38.0780000687
1080.0	0.0004403	38.1089999676
1080.0	0.0004403	38.1559998989
1080.0	0.0004403	38.2030000687
1080.0	0.0004403	38.2339999676
1080.0	0.00044	38.2809998989
1090.0	0.0004458	38.5469999313
1090.0	0.0004475	38.5939998627
1090.0	0.0004488	38.6410000324
1090.0	0.0004493	38.6719999313
1090.0	0.0004503	38.7189998627
1090.0	0.0004513	38.75
1090.0	0.0004515	38.7969999313
1090.0	0.000452	38.8439998627
1090.0	0.0004525	38.875
1090.0	0.0004525	38.9219999313
1090.0	0.0004525	38.9689998627
1090.0	0.000453	39.0
1090.0	0.0004533	39.0469999313
1090.0	0.0004533	39.0939998627
1090.0	0.000453	39.125
1090.0	0.0004528	39.1719999313
1090.0	0.0004528	39.2030000687
1090.0	0.0004525	39.25
1090.0	0.000453	39.2969999313
1090.0	0.000453	39.3439998627
1090.0	0.0004528	39.375
1090.0	0.0004525	39.4219999313
1090.0	0.0004518	39.4530000687
1090.0	0.0004518	39.5
1090.0	0.000452	39.5469999313
1090.0	0.0004525	39.5780000687
1090.0	0.0004525	39.625
1090.0	0.0004525	39.6719999313
1090.0	0.0004525	39.7030000687
1090.0	0.0004525	39.75
1090.0	0.0004525	39.7809998989
1090.0	0.0004528	39.8280000687
1090.0	0.0004528	39.875
1090.0	0.0004528	39.9059998989
1090.0	0.000453	39.9530000687
1090.0	0.0004533	40.0
1090.0	0.000453	40.0309998989
1100.0	0.0004568	40.3120000362
1100.0	0.000458	40.3589999676
1100.0	0.000459	40.3910000324
1100.0	0.0004595	40.4370000362
1100.0	0.0004603	40.4689998627
1100.0	0.0004605	40.5160000324
1100.0	0.0004613	40.5620000362
1100.0	0.0004613	40.5939998627
1100.0	0.0004613	40.6410000324
1100.0	0.0004613	40.6870000362
1100.0	0.0004613	40.7189998627
1100.0	0.0004613	40.7660000324
1100.0	0.0004615	40.7969999313
1100.0	0.0004618	40.8439998627
1100.0	0.0004615	40.8910000324
1100.0	0.0004613	40.9219999313
1100.0	0.0004613	40.9689998627
1100.0	0.0004608	41.0160000324
1100.0	0.0004608	41.0469999313
1100.0	0.0004605	41.0939998627
1100.0	0.0004605	41.125
1100.0	0.0004603	41.1719999313
1100.0	0.0004603	41.2189998627
1100.0	0.0004605	41.25
1100.0	0.0004605	41.2969999313
1100.0	0.0004605	41.3439998627
1100.0	0.0004613	41.375
1100.0	0.0004618	41.4219999313
1100.0	0.0004618	41.4530000687
1100.0	0.000462	41.5
1100.0	0.000462	41.5469999313
1100.0	0.0004618	41.5780000687
1100.0	0.0004618	41.625
1100.0	0.0004615	41.6719999313
1100.0	0.0004613	41.7030000687
1100.0	0.0004615	41.75
1100.0	0.0004615	41.7969999313
1110.0	0.0004643	42.0620000362
1110.0	0.000465	42.1089999676
1110.0	0.0004658	42.1410000324
1110.0	0.0004668	42.1870000362
1110.0	0.0004675	42.2189998627
1110.0	0.0004678	42.2660000324
1110.0	0.000468	42.3120000362
1110.0	0.0004683	42.3439998627
1110.0	0.0004683	42.3910000324
1110.0	0.0004683	42.4370000362
1110.0	0.0004683	42.4689998627
1110.0	0.0004683	42.5160000324
1110.0	0.0004683	42.5469999313
1110.0	0.0004683	42.5939998627
1110.0	0.0004678	42.6410000324
1110.0	0.0004678	42.6719999313
1110.0	0.0004675	42.7189998627
1110.0	0.0004675	42.7660000324
1110.0	0.0004678	42.7969999313
1110.0	0.0004678	42.8439998627
1110.0	0.0004675	42.875
1110.0	0.000467	42.9219999313
1110.0	0.000467	42.9689998627
1110.0	0.000467	43.0
1110.0	0.000467	43.0469999313
1110.0	0.0004675	43.0939998627
1110.0	0.0004678	43.125
1110.0	0.0004678	43.1719999313
1110.0	0.0004675	43.2030000687
1110.0	0.0004675	43.25
1110.0	0.000467	43.2969999313
1110.0	0.000467	43.3280000687
1110.0	0.000467	43.375
1110.0	0.0004675	43.4219999313
1110.0	0.0004675	43.4530000687
1110.0	0.0004675	43.5
1110.0	0.000467	43.5469999313
1120.0	0.0004693	43.8120000362
1120.0	0.0004703	43.8439998627
1120.0	0.0004705	43.8910000324
1120.0	0.0004705	43.9370000362
1120.0	0.0004708	43.9689998627
1120.0	0.0004708	44.0160000324
1120.0	0.0004713	44.0620000362
1120.0	0.0004713	44.0939998627
1120.0	0.0004713	44.1410000324
1120.0	0.0004708	44.1870000362
1120.0	0.0004708	44.2189998627
1120.0	0.0004708	44.2660000324
1120.0	0.0004708	44.2969999313
1120.0	0.0004705	44.3439998627
1120.0	0.0004708	44.3910000324
1120.0	0.0004708	44.4219999313
1120.0	0.0004708	44.4689998627
1120.0	0.0004708	44.5
1120.0	0.0004713	44.5469999313
1120.0	0.0004713	44.5939998627
1120.0	0.0004715	44.6410000324
1120.0	0.0004718	44.6719999313
1120.0	0.000472	44.7189998627
1120.0	0.0004725	44.7660000324
1120.0	0.000472	44.7969999313
1120.0	0.0004718	44.8439998627
1120.0	0.0004713	44.875
1120.0	0.0004708	44.9219999313
1120.0	0.0004708	44.9689998627
1120.0	0.0004708	45.0
1120.0	0.0004713	45.0469999313
1120.0	0.0004718	45.0939998627
1120.0	0.0004718	45.125
1120.0	0.0004718	45.1719999313
1120.0	0.0004718	45.2030000687
1120.0	0.0004718	45.25
1120.0	0.0004718	45.2969999313
1130.0	0.000473	45.5620000362
1130.0	0.0004738	45.5939998627
1130.0	0.000474	45.6410000324
1130.0	0.0004743	45.6870000362
1130.0	0.0004745	45.7189998627
1130.0	0.000475	45.7660000324
1130.0	0.000475	45.8120000362
1130.0	0.000475	45.8439998627
1130.0	0.000475	45.8910000324
1130.0	0.0004745	45.9219999313
1130.0	0.0004743	45.9689998627
1130.0	0.0004743	46.0160000324
1130.0	0.0004743	46.0469999313
1130.0	0.0004745	46.0939998627
1130.0	0.0004745	46.1410000324
1130.0	0.0004745	46.1719999313
1130.0	0.000475	46.2189998627
1130.0	0.000475	46.25
1130.0	0.000475	46.2969999313
1130.0	0.0004743	46.3439998627
1130.0	0.0004738	46.375
1130.0	0.0004738	46.4219999313
1130.0	0.0004738	46.4689998627
1130.0	0.0004738	46.5
1130.0	0.0004743	46.5469999313
1130.0	0.0004743	46.5939998627
1130.0	0.0004743	46.625
1130.0	0.0004745	46.6719999313
1130.0	0.0004745	46.7030000687
1130.0	0.0004743	46.75
1130.0	0.0004743	46.7969999313
1130.0	0.0004743	46.8280000687
1130.0	0.0004745	46.875
1130.0	0.000475	46.9219999313
1130.0	0.0004745	46.9530000687
1130.0	0.000475	47.0
1130.0	0.0004753	47.0309998989
1140.0	0.0004745	47.3120000362
1140.0	0.0004743	47.3439998627
1140.0	0.0004743	47.3910000324
1140.0	0.0004743	47.4219999313
1140.0	0.0004745	47.4689998627
1140.0	0.0004745	47.5160000324
1140.0	0.0004745	47.5469999313
1140.0	0.0004745	47.5939998627
1140.0	0.000475	47.6410000324
1140.0	0.0004753	47.6719999313
1140.0	0.000475	47.7189998627
1140.0	0.000475	47.75
1140.0	0.000475	47.7969999313
1140.0	0.000475	47.8439998627
1140.0	0.0004753	47.875
1140.0	0.0004755	47.9219999313
1140.0	0.0004755	47.9689998627
1140.0	0.0004753	48.0
1140.0	0.000475	48.0469999313
1140.0	0.000475	48.0939998627
1140.0	0.000475	48.125
1140.0	0.0004753	48.1719999313
1140.0	0.0004755	48.2189998627
1140.0	0.0004755	48.25
1140.0	0.0004755	48.2969999313
1140.0	0.0004755	48.3280000687
1140.0	0.0004755	48.375
1140.0	0.0004755	48.4219999313
1140.0	0.0004753	48.4530000687
1140.0	0.0004755	48.5
1140.0	0.0004755	48.5469999313
1140.0	0.0004758	48.5780000687
1140.0	0.0004758	48.625
1140.0	0.0004758	48.6719999313
1140.0	0.0004758	48.7030000687
1140.0	0.0004758	48.75
1140.0	0.0004758	48.7809998989
1150.0	0.0004753	49.0620000362
1150.0	0.0004755	49.0939998627
1150.0	0.0004753	49.1410000324
1150.0	0.0004753	49.1719999313
1150.0	0.0004753	49.2189998627
1150.0	0.000475	49.2660000324
1150.0	0.0004743	49.2969999313
1150.0	0.000474	49.3439998627
1150.0	0.0004743	49.3910000324
1150.0	0.000474	49.4219999313
1150.0	0.0004738	49.4689998627
1150.0	0.0004733	49.5
1150.0	0.0004738	49.5469999313
1150.0	0.000474	49.5939998627
1150.0	0.0004745	49.625
1150.0	0.0004745	49.6719999313
1150.0	0.000475	49.7189998627
1150.0	0.000475	49.75
1150.0	0.000475	49.7969999313
1150.0	0.0004745	49.8280000687
1150.0	0.0004743	49.875
1150.0	0.000475	49.9219999313
1150.0	0.0004753	49.9530000687
1150.0	0.0004753	50.0
1150.0	0.000475	50.0469999313
1150.0	0.000475	50.0780000687
1150.0	0.0004745	50.125
1150.0	0.000474	50.1559998989
1150.0	0.0004738	50.2030000687
1150.0	0.0004733	50.25
1150.0	0.0004733	50.2809998989
1150.0	0.0004738	50.3280000687
1150.0	0.000474	50.375
1150.0	0.000474	50.4219999313
1150.0	0.000474	50.4530000687
1150.0	0.000474	50.5
1150.0	0.000474	50.5309998989
1160.0	0.0004728	50.8120000362
1160.0	0.0004725	50.8439998627
1160.0	0.0004725	50.8910000324
1160.0	0.0004725	50.9219999313
1160.0	0.0004725	50.9689998627
1160.0	0.0004725	51.0160000324
1160.0	0.0004725	51.0469999313
1160.0	0.0004728	51.0939998627
1160.0	0.0004725	51.1410000324
1160.0	0.0004728	51.1719999313
1160.0	0.0004725	51.2189998627
1160.0	0.000472	51.25
1160.0	0.000472	51.2969999313
1160.0	0.000472	51.3439998627
1160.0	0.0004725	51.375
1160.0	0.000472	51.4219999313
1160.0	0.0004718	51.4689998627
1160.0	0.0004718	51.5
1160.0	0.0004715	51.5469999313
1160.0	0.0004715	51.5780000687
1160.0	0.0004713	51.625
1160.0	0.0004715	51.6719999313
1160.0	0.0004715	51.7189998627
1160.0	0.0004718	51.75
1160.0	0.0004715	51.7969999313
1160.0	0.0004713	51.8280000687
1160.0	0.0004713	51.875
1160.0	0.0004713	51.9219999313
1160.0	0.0004713	51.9530000687
1160.0	0.0004708	52.0
1160.0	0.0004708	52.0469999313
1160.0	0.0004705	52.0780000687
1160.0	0.0004705	52.125
1160.0	0.0004705	52.1559998989
1160.0	0.0004705	52.2030000687
1160.0	0.0004705	52.25
1160.0	0.0004705	52.2809998989
1170.0	0.00047	52.5620000362
1170.0	0.0004695	52.5939998627
1170.0	0.000469	52.6410000324
1170.0	0.000469	52.6870000362
1170.0	0.000469	52.7189998627
1170.0	0.0004693	52.7660000324
1170.0	0.0004693	52.8120000362
1170.0	0.000469	52.8439998627
1170.0	0.0004688	52.8910000324
1170.0	0.0004688	52.9219999313
1170.0	0.0004683	52.9689998627
1170.0	0.0004683	53.0160000324
1170.0	0.0004683	53.0469999313
1170.0	0.0004683	53.0939998627
1170.0	0.000468	53.1410000324
1170.0	0.0004683	53.1719999313
1170.0	0.0004688	53.2189998627
1170.0	0.0004688	53.25
1170.0	0.000469	53.2969999313
1170.0	0.0004693	53.3439998627
1170.0	0.0004695	53.375
1170.0	0.0004693	53.4219999313
1170.0	0.0004695	53.4689998627
1170.0	0.00047	53.5
1170.0	0.00047	53.5469999313
1170.0	0.00047	53.5780000687
1170.0	0.0004695	53.625
1170.0	0.0004693	53.6719999313
1170.0	0.000469	53.7030000687
1170.0	0.000469	53.75
1170.0	0.000469	53.7969999313
1170.0	0.000469	53.8280000687
1170.0	0.0004688	53.875
1170.0	0.0004688	53.9059998989
1170.0	0.0004683	53.9530000687
1170.0	0.000468	54.0
1170.0	0.000468	54.0309998989
1180.0	0.0004678	54.3120000362
1180.0	0.0004675	54.3439998627
1180.0	0.0004675	54.3910000324
1180.0	0.000467	54.4370000362
1180.0	0.0004668	54.4689998627
1180.0	0.0004668	54.5160000324
1180.0	0.0004668	54.5620000362
1180.0	0.000467	54.5939998627
1180.0	0.0004675	54.6410000324
1180.0	0.0004678	54.6719999313
1180.0	0.0004678	54.7189998627
1180.0	0.0004675	54.7660000324
1180.0	0.0004675	54.7969999313
1180.0	0.0004675	54.8439998627
1180.0	0.000468	54.875
1180.0	0.0004678	54.9219999313
1180.0	0.0004678	54.9689998627
1180.0	0.000468	55.0
1180.0	0.000468	55.0469999313
1180.0	0.0004678	55.0939998627
1180.0	0.0004675	55.125
1180.0	0.000467	55.1719999313
1180.0	0.000467	55.2189998627
1180.0	0.0004675	55.25
1180.0	0.0004675	55.2969999313
1180.0	0.0004678	55.3280000687
1180.0	0.000468	55.375
1180.0	0.0004678	55.4219999313
1180.0	0.0004678	55.4530000687
1180.0	0.0004678	55.5
1180.0	0.000468	55.5469999313
1180.0	0.0004678	55.5780000687
1180.0	0.0004675	55.625
1180.0	0.0004678	55.6559998989
1180.0	0.0004678	55.7030000687
1180.0	0.0004678	55.75
1180.0	0.000468	55.7809998989
1190.0	0.0004665	56.0620000362
1190.0	0.0004665	56.0939998627
1190.0	0.0004668	56.1410000324
1190.0	0.0004668	56.1870000362
1190.0	0.000467	56.2189998627
1190.0	0.0004675	56.2660000324
1190.0	0.0004678	56.3120000362
1190.0	0.000468	56.3439998627
1190.0	0.0004683	56.3910000324
1190.0	0.0004683	56.4219999313
1190.0	0.000468	56.4689998627
1190.0	0.000468	56.5160000324
1190.0	0.000468	56.5469999313
1190.0	0.0004688	56.5939998627
1190.0	0.0004688	56.625
1190.0	0.000469	56.6719999313
1190.0	0.0004688	56.7189998627
1190.0	0.0004688	56.7660000324
1190.0	0.000469	56.7969999313
1190.0	0.0004693	56.8439998627
1190.0	0.0004693	56.8910000324
1190.0	0.0004693	56.9219999313
1190.0	0.000469	56.9689998627
1190.0	0.000469	57.0
1190.0	0.0004688	57.0469999313
1190.0	0.0004688	57.0939998627
1190.0	0.0004688	57.125
1190.0	0.0004688	57.1719999313
1190.0	0.0004688	57.2189998627
1190.0	0.0004683	57.25
1190.0	0.0004683	57.2969999313
1190.0	0.0004683	57.3280000687
1190.0	0.0004683	57.375
1190.0	0.0004688	57.4219999313
1190.0	0.0004688	57.4530000687
1190.0	0.000469	57.5
1190.0	0.000469	57.5469999313
1200.0	0.0004705	57.8120000362
1200.0	0.0004708	57.8589999676
1200.0	0.0004713	57.8910000324
1200.0	0.0004713	57.9370000362
1200.0	0.0004713	57.9689998627
1200.0	0.0004715	58.0160000324
1200.0	0.0004718	58.0620000362
1200.0	0.0004718	58.0939998627
1200.0	0.0004718	58.1410000324
1200.0	0.0004718	58.1870000362
1200.0	0.000472	58.2189998627
1200.0	0.0004725	58.2660000324
1200.0	0.0004725	58.2969999313
1200.0	0.000472	58.3439998627
1200.0	0.000472	58.3910000324
1200.0	0.0004718	58.4219999313
1200.0	0.0004718	58.4689998627
1200.0	0.0004718	58.5160000324
1200.0	0.0004718	58.5469999313
1200.0	0.0004718	58.5939998627
1200.0	0.0004718	58.625
1200.0	0.0004715	58.6719999313
1200.0	0.0004718	58.7189998627
1200.0	0.0004718	58.7660000324
1200.0	0.0004718	58.7969999313
1200.0	0.0004718	58.8439998627
1200.0	0.000472	58.8910000324
1200.0	0.0004725	58.9219999313
1200.0	0.0004725	58.9689998627
1200.0	0.0004725	59.0
1200.0	0.0004728	59.0469999313
1200.0	0.0004728	59.0939998627
1200.0	0.0004725	59.125
1200.0	0.0004725	59.1719999313
1200.0	0.0004725	59.2189998627
1200.0	0.0004725	59.25
1200.0	0.0004728	59.2969999313
1210.0	0.0004738	59.5620000362
1210.0	0.0004743	59.6089999676
1210.0	0.0004745	59.6410000324
1210.0	0.000475	59.6870000362
1210.0	0.000475	59.7189998627
1210.0	0.0004753	59.7660000324
1210.0	0.0004755	59.8120000362
1210.0	0.0004758	59.8439998627
1210.0	0.0004763	59.8910000324
1210.0	0.0004765	59.9370000362
1210.0	0.0004768	59.9689998627
1210.0	0.0004768	60.0160000324
1210.0	0.0004768	60.0620000362
1210.0	0.0004768	60.0939998627
1210.0	0.0004765	60.1410000324
1210.0	0.0004763	60.1870000362
1210.0	0.0004763	60.2189998627
1210.0	0.0004765	60.2660000324
1210.0	0.0004765	60.3120000362
1210.0	0.0004765	60.3439998627
1210.0	0.0004765	60.3910000324
1210.0	0.0004765	60.4219999313
1210.0	0.0004763	60.4689998627
1210.0	0.0004763	60.5160000324
1210.0	0.0004765	60.5469999313
1210.0	0.000477	60.5939998627
1210.0	0.000477	60.6410000324
1210.0	0.0004778	60.6719999313
1210.0	0.0004778	60.7189998627
1210.0	0.0004778	60.75
1210.0	0.000478	60.7969999313
1210.0	0.0004778	60.8439998627
1210.0	0.0004775	60.875
1210.0	0.000477	60.9219999313
1210.0	0.000477	60.9689998627
1210.0	0.0004775	61.0
1210.0	0.0004775	61.0469999313
1220.0	0.0004795	61.3120000362
1220.0	0.0004805	61.3589999676
1220.0	0.0004815	61.3910000324
1220.0	0.0004825	61.4370000362
1220.0	0.0004833	61.4689998627
1220.0	0.0004838	61.5160000324
1220.0	0.000484	61.5620000362
1220.0	0.0004843	61.5939998627
1220.0	0.0004845	61.6410000324
1220.0	0.0004845	61.6870000362
1220.0	0.0004845	61.7189998627
1220.0	0.000485	61.7660000324
1220.0	0.0004845	61.7969999313
1220.0	0.0004843	61.8439998627
1220.0	0.0004843	61.8910000324
1220.0	0.000484	61.9219999313
1220.0	0.000484	61.9689998627
1220.0	0.0004843	62.0160000324
1220.0	0.0004843	62.0469999313
1220.0	0.0004843	62.0939998627
1220.0	0.0004843	62.125
1220.0	0.0004845	62.1719999313
1220.0	0.0004843	62.2189998627
1220.0	0.0004843	62.25
1220.0	0.000484	62.2969999313
1220.0	0.0004833	62.3439998627
1220.0	0.0004833	62.375
1220.0	0.0004833	62.4219999313
1220.0	0.0004833	62.4530000687
1220.0	0.0004838	62.5
1220.0	0.0004838	62.5469999313
1220.0	0.0004838	62.5780000687
1220.0	0.0004838	62.625
1220.0	0.0004838	62.6719999313
1220.0	0.0004838	62.7030000687
1220.0	0.0004838	62.75
1220.0	0.0004833	62.7969999313
1230.0	0.000487	63.0620000362
1230.0	0.0004878	63.0939998627
1230.0	0.0004883	63.1410000324
1230.0	0.000489	63.1870000362
1230.0	0.0004893	63.2189998627
1230.0	0.00049	63.2660000324
1230.0	0.0004905	63.2969999313
1230.0	0.0004913	63.3439998627
1230.0	0.0004918	63.3910000324
1230.0	0.0004925	63.4219999313
1230.0	0.0004928	63.4689998627
1230.0	0.000493	63.5160000324
1230.0	0.0004928	63.5469999313
1230.0	0.0004928	63.5939998627
1230.0	0.000493	63.625
1230.0	0.000493	63.6719999313
1230.0	0.000493	63.7189998627
1230.0	0.000493	63.75
1230.0	0.000493	63.7969999313
1230.0	0.000493	63.8439998627
1230.0	0.000493	63.875
1230.0	0.000493	63.9219999313
1230.0	0.0004928	63.9530000687
1230.0	0.0004928	64.0
1230.0	0.0004928	64.0469999313
1230.0	0.0004925	64.0939998627
1230.0	0.0004925	64.125
1230.0	0.000492	64.1719999313
1230.0	0.000492	64.2030000687
1230.0	0.000492	64.25
1230.0	0.0004918	64.2969999313
1230.0	0.0004918	64.3280000687
1230.0	0.0004915	64.375
1230.0	0.0004918	64.4219999313
1230.0	0.000492	64.4530000687
1230.0	0.000492	64.5
1230.0	0.0004918	64.5469999313
1240.0	0.000494	64.8120000362
1240.0	0.0004953	64.8439998627
1240.0	0.0004968	64.8910000324
1240.0	0.0004978	64.9370000362
1240.0	0.0004983	64.9689998627
1240.0	0.0004988	65.0160000324
1240.0	0.000499	65.0469999313
1240.0	0.0004993	65.0939998627
1240.0	0.0004993	65.1410000324
1240.0	0.0004993	65.1719999313
1240.0	0.0004993	65.2189998627
1240.0	0.0004993	65.2660000324
1240.0	0.0004993	65.2969999313
1240.0	0.0004993	65.3439998627
1240.0	0.0004993	65.375
1240.0	0.0004993	65.4219999313
1240.0	0.0004995	65.4689998627
1240.0	0.0005	65.5
1240.0	0.0004993	65.5469999313
1240.0	0.0004993	65.5939998627
1240.0	0.000499	65.625
1240.0	0.000499	65.6719999313
1240.0	0.000499	65.7030000687
1240.0	0.000499	65.75
1240.0	0.0004993	65.7969999313
1240.0	0.0004993	65.8280000687
1240.0	0.0004988	65.875
1240.0	0.0004988	65.9219999313
1240.0	0.000498	65.9530000687
1240.0	0.000498	66.0
1240.0	0.0004978	66.0309998989
1240.0	0.0004975	66.0780000687
1240.0	0.0004978	66.125
1240.0	0.0004975	66.1559998989
1240.0	0.0004978	66.2030000687
1240.0	0.0004978	66.25
1240.0	0.000498	66.2809998989
1250.0	0.0005015	66.5469999313
1250.0	0.0005028	66.5939998627
1250.0	0.0005038	66.6410000324
1250.0	0.0005043	66.6719999313
1250.0	0.000505	66.7189998627
1250.0	0.0005055	66.75
1250.0	0.0005055	66.7969999313
1250.0	0.0005058	66.8439998627
1250.0	0.0005058	66.875
1250.0	0.0005058	66.9219999313
1250.0	0.0005063	66.9689998627
1250.0	0.0005065	67.0
1250.0	0.0005068	67.0469999313
1250.0	0.0005068	67.0780000687
1250.0	0.0005068	67.125
1250.0	0.0005068	67.1719999313
1250.0	0.0005065	67.2030000687
1250.0	0.0005065	67.25
1250.0	0.0005065	67.2969999313
1250.0	0.0005065	67.3280000687
1250.0	0.0005065	67.375
1250.0	0.0005063	67.4059998989
1250.0	0.0005065	67.4530000687
1250.0	0.0005065	67.5
1250.0	0.0005068	67.5469999313
1250.0	0.0005068	67.5780000687
1250.0	0.0005065	67.625
1250.0	0.0005058	67.6719999313
1250.0	0.0005058	67.7030000687
1250.0	0.0005058	67.75
1250.0	0.0005063	67.7969999313
1250.0	0.0005065	67.8280000687
1250.0	0.0005065	67.875
1250.0	0.0005063	67.9219999313
1250.0	0.0005063	67.9530000687
1250.0	0.0005063	68.0
1250.0	0.0005063	68.0309998989
1260.0	0.0005093	68.3120000362
1260.0	0.00051	68.3439998627
1260.0	0.0005108	68.3910000324
1260.0	0.0005118	68.4219999313
1260.0	0.0005128	68.4689998627
1260.0	0.0005133	68.5160000324
1260.0	0.0005138	68.5469999313
1260.0	0.0005138	68.5939998627
1260.0	0.000514	68.6410000324
1260.0	0.0005138	68.6719999313
1260.0	0.0005138	68.7189998627
1260.0	0.000514	68.75
1260.0	0.000514	68.7969999313
1260.0	0.0005143	68.8439998627
1260.0	0.0005145	68.875
1260.0	0.0005143	68.9219999313
1260.0	0.0005143	68.9689998627
1260.0	0.0005143	69.0
1260.0	0.0005143	69.0469999313
1260.0	0.0005143	69.0780000687
1260.0	0.000514	69.125
1260.0	0.0005143	69.1719999313
1260.0	0.0005143	69.2030000687
1260.0	0.0005143	69.25
1260.0	0.0005145	69.2969999313
1260.0	0.0005143	69.3280000687
1260.0	0.0005143	69.375
1260.0	0.000514	69.4219999313
1260.0	0.000514	69.4530000687
1260.0	0.000514	69.5
1260.0	0.000514	69.5309998989
1260.0	0.000514	69.5780000687
1260.0	0.0005143	69.625
1260.0	0.0005143	69.6870000362
1260.0	0.000515	69.7339999676
1260.0	0.000515	69.7660000324
1270.0	0.000518	70.0309998989
1270.0	0.000519	70.0780000687
1270.0	0.00052	70.125
1270.0	0.0005208	70.1559998989
1270.0	0.0005213	70.2030000687
1270.0	0.0005213	70.25
1270.0	0.0005215	70.2809998989
1270.0	0.0005218	70.3280000687
1270.0	0.000522	70.375
1270.0	0.0005225	70.4059998989
1270.0	0.0005228	70.4530000687
1270.0	0.0005228	70.4839999676
1270.0	0.0005225	70.5309998989
1270.0	0.0005225	70.5780000687
1270.0	0.0005225	70.6089999676
1270.0	0.000522	70.6559998989
1270.0	0.0005218	70.7030000687
1270.0	0.0005213	70.7339999676
1270.0	0.0005208	70.7809998989
1270.0	0.0005213	70.8120000362
1270.0	0.0005215	70.8589999676
1270.0	0.0005215	70.9059998989
1270.0	0.0005215	70.9370000362
1270.0	0.0005218	70.9839999676
1270.0	0.000522	71.0309998989
1270.0	0.0005225	71.0620000362
1270.0	0.0005228	71.1089999676
1270.0	0.0005228	71.1410000324
1270.0	0.0005228	71.1870000362
1270.0	0.0005228	71.2339999676
1270.0	0.000523	71.2660000324
1270.0	0.0005233	71.3120000362
1270.0	0.000523	71.3589999676
1270.0	0.000523	71.3910000324
1270.0	0.000523	71.4370000362
1270.0	0.0005228	71.4839999676
1270.0	0.0005228	71.5160000324
1280.0	0.0005258	71.7809998989
1280.0	0.0005265	71.8280000687
1280.0	0.0005268	71.8589999676
1280.0	0.0005275	71.9059998989
1280.0	0.0005275	71.9530000687
1280.0	0.000528	71.9839999676
1280.0	0.0005288	72.0309998989
1280.0	0.0005288	72.0780000687
1280.0	0.0005288	72.1089999676
1280.0	0.0005283	72.1559998989
1280.0	0.0005283	72.2030000687
1280.0	0.000528	72.2339999676
1280.0	0.0005278	72.2809998989
1280.0	0.0005275	72.3280000687
1280.0	0.0005275	72.3589999676
1280.0	0.0005278	72.4059998989
1280.0	0.000528	72.4530000687
1280.0	0.0005283	72.4839999676
1280.0	0.0005288	72.5309998989
1280.0	0.0005293	72.5620000362
1280.0	0.0005293	72.6089999676
1280.0	0.0005295	72.6559998989
1280.0	0.0005295	72.6870000362
1280.0	0.0005295	72.7339999676
1280.0	0.0005293	72.7809998989
1280.0	0.0005293	72.8120000362
1280.0	0.0005288	72.8589999676
1280.0	0.0005283	72.8910000324
1280.0	0.000528	72.9370000362
1280.0	0.000528	72.9839999676
1280.0	0.000528	73.0309998989
1280.0	0.000528	73.0620000362
1280.0	0.0005288	73.1089999676
1280.0	0.0005288	73.1410000324
1280.0	0.0005288	73.1870000362
1280.0	0.0005288	73.2339999676
1280.0	0.0005288	73.2660000324
1290.0	0.0005295	73.5309998989
1290.0	0.0005305	73.5780000687
1290.0	0.0005313	73.625
1290.0	0.0005313	73.6559998989
1290.0	0.0005315	73.7030000687
1290.0	0.0005313	73.75
1290.0	0.0005308	73.7809998989
1290.0	0.0005303	73.8280000687
1290.0	0.00053	73.8589999676
1290.0	0.00053	73.9059998989
1290.0	0.00053	73.9530000687
1290.0	0.00053	73.9839999676
1290.0	0.00053	74.0309998989
1290.0	0.00053	74.0780000687
1290.0	0.00053	74.1089999676
1290.0	0.0005303	74.1559998989
1290.0	0.0005305	74.2030000687
1290.0	0.0005308	74.2339999676
1290.0	0.0005308	74.2809998989
1290.0	0.0005313	74.3120000362
1290.0	0.0005308	74.3589999676
1290.0	0.0005305	74.4059998989
1290.0	0.0005305	74.4370000362
1290.0	0.0005303	74.4839999676
1290.0	0.0005305	74.5309998989
1290.0	0.0005305	74.5620000362
1290.0	0.0005305	74.6089999676
1290.0	0.0005305	74.6410000324
1290.0	0.0005308	74.6870000362
1290.0	0.0005305	74.7339999676
1290.0	0.0005303	74.7660000324
1290.0	0.0005303	74.8120000362
1290.0	0.0005303	74.8589999676
1290.0	0.0005303	74.8910000324
1290.0	0.0005303	74.9370000362
1290.0	0.0005305	74.9689998627
1290.0	0.0005303	75.0160000324
1300.0	0.0005303	75.2809998989
1300.0	0.00053	75.3280000687
1300.0	0.0005295	75.3589999676
1300.0	0.0005293	75.4059998989
1300.0	0.0005293	75.4530000687
1300.0	0.0005293	75.4839999676
1300.0	0.000529	75.5309998989
1300.0	0.000529	75.5780000687
1300.0	0.000529	75.6089999676
1300.0	0.0005288	75.6559998989
1300.0	0.0005288	75.6870000362
1300.0	0.0005288	75.7339999676
1300.0	0.0005288	75.7809998989
1300.0	0.0005288	75.8120000362
1300.0	0.0005283	75.8589999676
1300.0	0.0005283	75.9059998989
1300.0	0.000528	75.9370000362
1300.0	0.0005283	75.9839999676
1300.0	0.0005283	76.0160000324
1300.0	0.000528	76.0620000362
1300.0	0.000528	76.1089999676
1300.0	0.0005283	76.1410000324
1300.0	0.0005283	76.1870000362
1300.0	0.000528	76.2339999676
1300.0	0.0005283	76.2660000324
1300.0	0.0005283	76.3120000362
1300.0	0.0005288	76.3589999676
1300.0	0.000529	76.3910000324
1300.0	0.0005293	76.4370000362
1300.0	0.0005293	76.4689998627
1300.0	0.000529	76.5160000324
1300.0	0.0005288	76.5620000362
1300.0	0.000529	76.5939998627
1300.0	0.000529	76.6410000324
1300.0	0.000529	76.6719999313
1300.0	0.0005293	76.7189998627
1300.0	0.0005293	76.7660000324
1310.0	0.0005275	77.0309998989
1310.0	0.0005268	77.0780000687
1310.0	0.0005258	77.1089999676
1310.0	0.0005253	77.1559998989
1310.0	0.0005253	77.2030000687
1310.0	0.0005253	77.2339999676
1310.0	0.0005255	77.2809998989
1310.0	0.0005255	77.3280000687
1310.0	0.0005255	77.3589999676
1310.0	0.0005255	77.4059998989
1310.0	0.0005255	77.4370000362
1310.0	0.0005253	77.4839999676
1310.0	0.000525	77.5309998989
1310.0	0.0005245	77.5620000362
1310.0	0.0005253	77.6089999676
1310.0	0.0005253	77.6559998989
1310.0	0.0005253	77.6870000362
1310.0	0.0005255	77.7339999676
1310.0	0.0005255	77.7660000324
1310.0	0.0005253	77.8120000362
1310.0	0.0005255	77.8589999676
1310.0	0.0005253	77.8910000324
1310.0	0.000525	77.9370000362
1310.0	0.000525	77.9839999676
1310.0	0.000525	78.0160000324
1310.0	0.0005245	78.0620000362
1310.0	0.0005245	78.1089999676
1310.0	0.000525	78.1410000324
1310.0	0.0005253	78.1870000362
1310.0	0.0005253	78.2189998627
1310.0	0.0005253	78.2660000324
1310.0	0.000525	78.3120000362
1310.0	0.000525	78.3439998627
1310.0	0.000525	78.3910000324
1310.0	0.000525	78.4370000362
1310.0	0.0005245	78.4689998627
1310.0	0.000525	78.5160000324
1320.0	0.0005215	78.7809998989
1320.0	0.0005195	78.8280000687
1320.0	0.000518	78.875
1320.0	0.0005168	78.9059998989
1320.0	0.0005158	78.9530000687
1320.0	0.0005153	79.0
1320.0	0.0005145	79.0309998989
1320.0	0.000514	79.0780000687
1320.0	0.0005138	79.1089999676
1320.0	0.000513	79.1559998989
1320.0	0.000513	79.2030000687
1320.0	0.000513	79.2339999676
1320.0	0.0005128	79.2809998989
1320.0	0.000513	79.3280000687
1320.0	0.000513	79.3589999676
1320.0	0.000513	79.4059998989
1320.0	0.0005133	79.4370000362
1320.0	0.000513	79.4839999676
1320.0	0.0005128	79.5309998989
1320.0	0.0005125	79.5620000362
1320.0	0.0005128	79.6089999676
1320.0	0.0005128	79.6559998989
1320.0	0.0005128	79.6870000362
1320.0	0.0005128	79.7339999676
1320.0	0.0005125	79.7660000324
1320.0	0.0005125	79.8120000362
1320.0	0.0005125	79.8589999676
1320.0	0.000512	79.8910000324
1320.0	0.000512	79.9370000362
1320.0	0.0005125	79.9839999676
1320.0	0.0005125	80.0160000324
1320.0	0.0005125	80.0620000362
1320.0	0.0005125	80.1089999676
1320.0	0.0005125	80.1410000324
1320.0	0.0005125	80.1870000362
1320.0	0.0005125	80.2189998627
1320.0	0.0005125	80.2660000324
1330.0	0.0005068	80.5309998989
1330.0	0.0005043	80.5780000687
1330.0	0.0005028	80.625
1330.0	0.0005015	80.6559998989
1330.0	0.0005005	80.7030000687
1330.0	0.0004993	80.75
1330.0	0.0004988	80.7809998989
1330.0	0.0004978	80.8280000687
1330.0	0.000497	80.8589999676
1330.0	0.000497	80.9059998989
1330.0	0.0004968	80.9530000687
1330.0	0.000497	80.9839999676
1330.0	0.0004975	81.0309998989
1330.0	0.0004978	81.0780000687
1330.0	0.0004978	81.1089999676
1330.0	0.0004978	81.1559998989
1330.0	0.000498	81.1870000362
1330.0	0.000498	81.2339999676
1330.0	0.000498	81.2809998989
1330.0	0.0004988	81.3120000362
1330.0	0.000499	81.3589999676
1330.0	0.0004993	81.4059998989
1330.0	0.0004988	81.4370000362
1330.0	0.000498	81.4839999676
1330.0	0.0004978	81.5160000324
1330.0	0.000498	81.5620000362
1330.0	0.0004983	81.6089999676
1330.0	0.0004988	81.6410000324
1330.0	0.0004988	81.6870000362
1330.0	0.000499	81.7339999676
1330.0	0.0004988	81.7660000324
1330.0	0.000499	81.8120000362
1330.0	0.000499	81.8439998627
1330.0	0.0004993	81.8910000324
1330.0	0.0004993	81.9370000362
1330.0	0.0004993	81.9689998627
1330.0	0.000499	82.0160000324
1340.0	0.0004913	82.2809998989
1340.0	0.000488	82.3280000687
1340.0	0.0004858	82.375
1340.0	0.000484	82.4059998989
1340.0	0.0004825	82.4530000687
1340.0	0.0004813	82.5
1340.0	0.00048	82.5309998989
1340.0	0.0004788	82.5780000687
1340.0	0.000478	82.6089999676
1340.0	0.0004778	82.6559998989
1340.0	0.0004775	82.7030000687
1340.0	0.000477	82.7339999676
1340.0	0.000477	82.7809998989
1340.0	0.0004765	82.8280000687
1340.0	0.0004765	82.8589999676
1340.0	0.0004765	82.9059998989
1340.0	0.0004765	82.9370000362
1340.0	0.0004765	82.9839999676
1340.0	0.0004765	83.0309998989
1340.0	0.0004765	83.0620000362
1340.0	0.0004765	83.1089999676
1340.0	0.0004768	83.1559998989
1340.0	0.0004768	83.1870000362
1340.0	0.0004765	83.2339999676
1340.0	0.0004765	83.2660000324
1340.0	0.0004763	83.3120000362
1340.0	0.0004763	83.3589999676
1340.0	0.0004763	83.3910000324
1340.0	0.0004765	83.4370000362
1340.0	0.0004765	83.4839999676
1340.0	0.0004763	83.5160000324
1340.0	0.0004755	83.5620000362
1340.0	0.0004755	83.5939998627
1340.0	0.0004753	83.6410000324
1340.0	0.0004753	83.6870000362
1340.0	0.0004753	83.7189998627
1340.0	0.000475	83.7660000324
1350.0	0.0004658	84.0309998989
1350.0	0.0004628	84.0780000687
1350.0	0.0004603	84.125
1350.0	0.0004578	84.1559998989
1350.0	0.0004563	84.2030000687
1350.0	0.000455	84.2339999676
1350.0	0.000454	84.2809998989
1350.0	0.000453	84.3280000687
1350.0	0.000452	84.375
1350.0	0.0004518	84.4059998989
1350.0	0.0004515	84.4530000687
1350.0	0.0004515	84.5
1350.0	0.0004513	84.5309998989
1350.0	0.0004508	84.5780000687
1350.0	0.0004508	84.6089999676
1350.0	0.0004508	84.6559998989
1350.0	0.0004513	84.7030000687
1350.0	0.0004513	84.7339999676
1350.0	0.0004515	84.7809998989
1350.0	0.0004518	84.8280000687
1350.0	0.0004518	84.8589999676
1350.0	0.0004518	84.9059998989
1350.0	0.000452	84.9370000362
1350.0	0.000452	84.9839999676
1350.0	0.0004518	85.0309998989
1350.0	0.0004515	85.0620000362
1350.0	0.0004515	85.1089999676
1350.0	0.0004515	85.1559998989
1350.0	0.0004515	85.1870000362
1350.0	0.0004513	85.2339999676
1350.0	0.0004513	85.2660000324
1350.0	0.0004515	85.3120000362
1350.0	0.0004515	85.3589999676
1350.0	0.0004513	85.3910000324
1350.0	0.0004515	85.4370000362
1350.0	0.0004515	85.4839999676
1350.0	0.0004518	85.5160000324
1360.0	0.0004433	85.7809998989
1360.0	0.00044	85.8280000687
1360.0	0.0004375	85.875
1360.0	0.0004355	85.9059998989
1360.0	0.0004338	85.9530000687
1360.0	0.0004325	85.9839999676
1360.0	0.0004315	86.0309998989
1360.0	0.0004308	86.0780000687
1360.0	0.00043	86.1089999676
1360.0	0.0004293	86.1559998989
1360.0	0.000429	86.2030000687
1360.0	0.0004288	86.2339999676
1360.0	0.0004283	86.2809998989
1360.0	0.000428	86.3120000362
1360.0	0.0004278	86.3589999676
1360.0	0.0004275	86.4059998989
1360.0	0.0004275	86.4370000362
1360.0	0.0004275	86.4839999676
1360.0	0.000427	86.5309998989
1360.0	0.0004275	86.5620000362
1360.0	0.0004275	86.6089999676
1360.0	0.0004278	86.6410000324
1360.0	0.0004278	86.6870000362
1360.0	0.0004278	86.7339999676
1360.0	0.0004278	86.7660000324
1360.0	0.0004275	86.8120000362
1360.0	0.000427	86.8589999676
1360.0	0.000427	86.8910000324
1360.0	0.0004268	86.9370000362
1360.0	0.000427	86.9839999676
1360.0	0.0004268	87.0160000324
1360.0	0.000427	87.0620000362
1360.0	0.0004268	87.0939998627
1360.0	0.0004275	87.1410000324
1360.0	0.0004275	87.1870000362
1360.0	0.000427	87.2189998627
1360.0	0.000427	87.2660000324
1370.0	0.0004178	87.5309998989
1370.0	0.0004145	87.5780000687
1370.0	0.000412	87.6089999676
1370.0	0.00041	87.6559998989
1370.0	0.000408	87.7030000687
1370.0	0.0004068	87.7339999676
1370.0	0.0004055	87.7809998989
1370.0	0.000405	87.8120000362
1370.0	0.0004045	87.8589999676
1370.0	0.0004045	87.9059998989
1370.0	0.0004043	87.9370000362
1370.0	0.0004043	87.9839999676
1370.0	0.0004043	88.0309998989
1370.0	0.0004043	88.0620000362
1370.0	0.0004043	88.1089999676
1370.0	0.0004045	88.1410000324
1370.0	0.0004043	88.1870000362
1370.0	0.0004043	88.2339999676
1370.0	0.000404	88.2660000324
1370.0	0.0004038	88.3120000362
1370.0	0.0004038	88.3589999676
1370.0	0.0004038	88.3910000324
1370.0	0.0004038	88.4370000362
1370.0	0.000404	88.4689998627
1370.0	0.000404	88.5160000324
1370.0	0.000404	88.5620000362
1370.0	0.000404	88.6089999676
1370.0	0.0004043	88.6410000324
1370.0	0.0004043	88.6870000362
1370.0	0.0004045	88.7339999676
1370.0	0.000405	88.7660000324
1370.0	0.0004045	88.8120000362
1370.0	0.0004045	88.8439998627
1370.0	0.0004045	88.8910000324
1370.0	0.0004043	88.9370000362
1370.0	0.0004043	88.9839999676
1380.0	0.0003955	89.25
1380.0	0.000392	89.2809998989
1380.0	0.00039	89.3280000687
1380.0	0.000388	89.375
1380.0	0.0003865	89.4059998989
1380.0	0.0003853	89.4530000687
1380.0	0.0003838	89.4839999676
1380.0	0.000383	89.5309998989
1380.0	0.0003828	89.5780000687
1380.0	0.000382	89.6089999676
1380.0	0.000382	89.6559998989
1380.0	0.0003818	89.7030000687
1380.0	0.0003815	89.7339999676
1380.0	0.0003813	89.7809998989
1380.0	0.0003808	89.8120000362
1380.0	0.0003805	89.8589999676
1380.0	0.0003805	89.9059998989
1380.0	0.0003808	89.9370000362
1380.0	0.0003813	89.9839999676
1380.0	0.0003813	90.0309998989
1380.0	0.0003813	90.0620000362
1380.0	0.0003808	90.1089999676
1380.0	0.0003808	90.1410000324
1380.0	0.0003808	90.1870000362
1380.0	0.0003805	90.2339999676
1380.0	0.0003803	90.2660000324
1380.0	0.0003805	90.3120000362
1380.0	0.0003808	90.3589999676
1380.0	0.0003808	90.3910000324
1380.0	0.0003813	90.4370000362
1380.0	0.0003808	90.4839999676
1380.0	0.0003808	90.5160000324
1380.0	0.0003805	90.5620000362
1380.0	0.0003805	90.5939998627
1380.0	0.0003803	90.6410000324
1380.0	0.0003805	90.6870000362
1380.0	0.0003805	90.7189998627
1390.0	0.0003738	90.9839999676
1390.0	0.0003708	91.0309998989
1390.0	0.0003688	91.0780000687
1390.0	0.0003668	91.1089999676
1390.0	0.0003655	91.1559998989
1390.0	0.0003643	91.2030000687
1390.0	0.000364	91.2339999676
1390.0	0.0003638	91.2809998989
1390.0	0.000363	91.3280000687
1390.0	0.000363	91.3589999676
1390.0	0.000363	91.4059998989
1390.0	0.000363	91.4530000687
1390.0	0.0003633	91.4839999676
1390.0	0.0003633	91.5309998989
1390.0	0.0003633	91.5620000362
1390.0	0.0003633	91.6089999676
1390.0	0.0003633	91.6559998989
1390.0	0.000363	91.6870000362
1390.0	0.0003628	91.7339999676
1390.0	0.0003628	91.7809998989
1390.0	0.0003628	91.8120000362
1390.0	0.0003628	91.8589999676
1390.0	0.0003628	91.8910000324
1390.0	0.0003628	91.9370000362
1390.0	0.0003628	91.9839999676
1390.0	0.0003628	92.0160000324
1390.0	0.000363	92.0620000362
1390.0	0.0003633	92.1089999676
1390.0	0.0003633	92.1410000324
1390.0	0.0003638	92.1870000362
1390.0	0.0003633	92.2339999676
1390.0	0.000363	92.2660000324
1390.0	0.0003633	92.3120000362
1390.0	0.0003638	92.3439998627
1390.0	0.0003638	92.3910000324
1390.0	0.0003638	92.4370000362
1390.0	0.000364	92.4839999676
1400.0	0.0003563	92.75
1400.0	0.0003538	92.7809998989
1400.0	0.000352	92.8280000687
1400.0	0.0003508	92.8589999676
1400.0	0.00035	92.9059998989
1400.0	0.0003493	92.9530000687
1400.0	0.0003488	92.9839999676
1400.0	0.0003483	93.0309998989
1400.0	0.0003478	93.0780000687
1400.0	0.0003475	93.1089999676
1400.0	0.000347	93.1559998989
1400.0	0.0003468	93.2030000687
1400.0	0.0003465	93.2339999676
1400.0	0.0003465	93.2809998989
1400.0	0.0003463	93.3120000362
1400.0	0.0003463	93.3589999676
1400.0	0.0003463	93.4059998989
1400.0	0.0003458	93.4370000362
1400.0	0.0003458	93.4839999676
1400.0	0.0003455	93.5309998989
1400.0	0.0003453	93.5620000362
1400.0	0.0003455	93.6089999676
1400.0	0.0003453	93.6410000324
1400.0	0.000345	93.6870000362
1400.0	0.000345	93.7339999676
1400.0	0.0003453	93.7660000324
1400.0	0.0003453	93.8120000362
1400.0	0.0003453	93.8589999676
1400.0	0.0003453	93.8910000324
1400.0	0.0003455	93.9370000362
1400.0	0.0003458	93.9689998627
1400.0	0.0003458	94.0160000324
1400.0	0.0003458	94.0620000362
1400.0	0.0003463	94.0939998627
1400.0	0.0003463	94.1410000324
1400.0	0.0003465	94.1870000362
1400.0	0.0003465	94.2189998627
1410.0	0.0003428	94.4839999676
1410.0	0.0003413	94.5309998989
1410.0	0.0003395	94.5780000687
1410.0	0.000339	94.6089999676
1410.0	0.0003383	94.6559998989
1410.0	0.0003378	94.6870000362
1410.0	0.0003378	94.7339999676
1410.0	0.0003378	94.7809998989
1410.0	0.0003378	94.8120000362
1410.0	0.0003375	94.8589999676
1410.0	0.000337	94.9059998989
1410.0	0.0003365	94.9370000362
1410.0	0.0003365	94.9839999676
1410.0	0.0003365	95.0309998989
1410.0	0.0003365	95.0620000362
1410.0	0.0003363	95.1089999676
1410.0	0.0003363	95.1410000324
1410.0	0.0003365	95.1870000362
1410.0	0.0003365	95.2339999676
1410.0	0.0003365	95.2660000324
1410.0	0.0003368	95.3120000362
1410.0	0.0003365	95.3589999676
1410.0	0.0003365	95.3910000324
1410.0	0.0003365	95.4370000362
1410.0	0.0003365	95.4689998627
1410.0	0.0003365	95.5160000324
1410.0	0.0003365	95.5620000362
1410.0	0.0003365	95.5939998627
1410.0	0.0003363	95.6410000324
1410.0	0.0003363	95.6870000362
1410.0	0.0003358	95.7189998627
1410.0	0.0003363	95.7660000324
1410.0	0.0003363	95.7969999313
1410.0	0.0003363	95.8439998627
1410.0	0.0003365	95.8910000324
1410.0	0.0003363	95.9219999313
1410.0	0.0003365	95.9689998627
1420.0	0.000333	96.2339999676
1420.0	0.000332	96.2809998989
1420.0	0.0003315	96.3280000687
1420.0	0.0003308	96.3589999676
1420.0	0.0003305	96.4059998989
1420.0	0.0003303	96.4370000362
1420.0	0.0003303	96.4839999676
1420.0	0.0003303	96.5309998989
1420.0	0.0003303	96.5620000362
1420.0	0.0003303	96.6089999676
1420.0	0.0003305	96.6559998989
1420.0	0.0003303	96.6870000362
1420.0	0.0003303	96.7339999676
1420.0	0.0003305	96.7660000324
1420.0	0.0003305	96.8120000362
1420.0	0.0003303	96.8589999676
1420.0	0.00033	96.8910000324
1420.0	0.0003293	96.9370000362
1420.0	0.000329	96.9839999676
1420.0	0.000329	97.0160000324
1420.0	0.0003288	97.0620000362
1420.0	0.0003288	97.1089999676
1420.0	0.000329	97.1410000324
1420.0	0.0003293	97.1870000362
1420.0	0.0003293	97.2189998627
1420.0	0.0003293	97.2660000324
1420.0	0.0003293	97.3120000362
1420.0	0.0003293	97.3439998627
1420.0	0.000329	97.3910000324
1420.0	0.000329	97.4370000362
1420.0	0.000329	97.4689998627
1420.0	0.000329	97.5160000324
1420.0	0.000329	97.5620000362
1420.0	0.0003288	97.5939998627
1420.0	0.0003288	97.6410000324
1420.0	0.0003288	97.6719999313
1430.0	0.0003293	97.9530000687
1430.0	0.0003293	98.0
1430.0	0.0003293	98.0309998989
1430.0	0.0003293	98.0780000687
1430.0	0.0003293	98.1089999676
1430.0	0.0003293	98.1559998989
1430.0	0.0003293	98.2030000687
1430.0	0.0003293	98.2339999676
1430.0	0.0003293	98.2809998989
1430.0	0.0003293	98.3280000687
1430.0	0.0003293	98.3589999676
1430.0	0.000329	98.4059998989
1430.0	0.0003293	98.4370000362
1430.0	0.0003293	98.4839999676
1430.0	0.0003293	98.5309998989
1430.0	0.0003293	98.5620000362
1430.0	0.0003293	98.6089999676
1430.0	0.0003295	98.6559998989
1430.0	0.0003295	98.6870000362
1430.0	0.00033	98.7339999676
1430.0	0.0003303	98.7809998989
1430.0	0.0003305	98.8120000362
1430.0	0.0003303	98.8589999676
1430.0	0.0003305	98.8910000324
1430.0	0.0003305	98.9370000362
1430.0	0.0003305	98.9839999676
1430.0	0.0003303	99.0160000324
1430.0	0.0003305	99.0620000362
1430.0	0.0003308	99.1089999676
1430.0	0.0003313	99.1410000324
1430.0	0.0003313	99.1870000362
1430.0	0.0003313	99.2189998627
1430.0	0.0003313	99.2660000324
1430.0	0.0003313	99.3120000362
1430.0	0.0003313	99.3439998627
1430.0	0.0003308	99.3910000324
1430.0	0.0003308	99.4219999313
1440.0	0.000332	99.7030000687
1440.0	0.0003328	99.7339999676
1440.0	0.000333	99.7809998989
1440.0	0.0003338	99.8120000362
1440.0	0.000334	99.8589999676
1440.0	0.0003343	99.9059998989
1440.0	0.0003343	99.9370000362
1440.0	0.0003343	99.9839999676
1440.0	0.0003343	100.030999899
1440.0	0.0003345	100.062000036
1440.0	0.000335	100.108999968
1440.0	0.000335	100.155999899
1440.0	0.0003355	100.187000036
1440.0	0.0003355	100.233999968
1440.0	0.0003355	100.266000032
1440.0	0.0003355	100.312000036
1440.0	0.0003355	100.358999968
1440.0	0.0003353	100.391000032
1440.0	0.000335	100.437000036
1440.0	0.000335	100.483999968
1440.0	0.000335	100.516000032
1440.0	0.000335	100.562000036
1440.0	0.000335	100.608999968
1440.0	0.000335	100.641000032
1440.0	0.0003355	100.687000036
1440.0	0.0003358	100.718999863
1440.0	0.0003358	100.766000032
1440.0	0.0003363	100.812000036
1440.0	0.0003363	100.858999968
1440.0	0.0003363	100.891000032
1440.0	0.0003363	100.937000036
1440.0	0.0003363	100.968999863
1440.0	0.0003363	101.016000032
1440.0	0.0003358	101.062000036
1440.0	0.0003355	101.093999863
1440.0	0.0003355	101.141000032
1440.0	0.0003358	101.171999931
1450.0	0.0003375	101.453000069
1450.0	0.000338	101.5
1450.0	0.0003393	101.530999899
1450.0	0.00034	101.578000069
1450.0	0.0003403	101.625
1450.0	0.0003405	101.655999899
1450.0	0.0003405	101.703000069
1450.0	0.0003408	101.75
1450.0	0.0003408	101.780999899
1450.0	0.0003413	101.828000069
1450.0	0.0003415	101.858999968
1450.0	0.0003418	101.905999899
1450.0	0.0003415	101.953000069
1450.0	0.0003418	101.983999968
1450.0	0.0003418	102.030999899
1450.0	0.0003415	102.078000069
1450.0	0.0003415	102.108999968
1450.0	0.0003415	102.155999899
1450.0	0.0003415	102.187000036
1450.0	0.0003418	102.233999968
1450.0	0.0003418	102.280999899
1450.0	0.0003418	102.312000036
1450.0	0.0003418	102.358999968
1450.0	0.0003418	102.405999899
1450.0	0.0003415	102.437000036
1450.0	0.0003415	102.483999968
1450.0	0.0003418	102.516000032
1450.0	0.0003418	102.562000036
1450.0	0.0003418	102.608999968
1450.0	0.0003418	102.641000032
1450.0	0.0003418	102.687000036
1450.0	0.0003418	102.733999968
1450.0	0.0003418	102.766000032
1450.0	0.0003418	102.812000036
1450.0	0.000342	102.843999863
1450.0	0.000342	102.891000032
1450.0	0.000342	102.937000036
1460.0	0.000345	103.203000069
1460.0	0.0003463	103.233999968
1460.0	0.0003478	103.280999899
1460.0	0.0003488	103.328000069
1460.0	0.000349	103.358999968
1460.0	0.0003495	103.405999899
1460.0	0.0003503	103.453000069
1460.0	0.0003505	103.483999968
1460.0	0.0003505	103.530999899
1460.0	0.0003508	103.562000036
1460.0	0.0003508	103.608999968
1460.0	0.0003505	103.655999899
1460.0	0.0003508	103.687000036
1460.0	0.0003505	103.733999968
1460.0	0.0003505	103.780999899
1460.0	0.0003505	103.828000069
1460.0	0.0003513	103.858999968
1460.0	0.0003513	103.905999899
1460.0	0.0003513	103.937000036
1460.0	0.0003513	103.983999968
1460.0	0.0003505	104.030999899
1460.0	0.0003505	104.062000036
1460.0	0.0003505	104.108999968
1460.0	0.0003505	104.155999899
1460.0	0.0003505	104.187000036
1460.0	0.0003503	104.233999968
1460.0	0.0003505	104.266000032
1460.0	0.0003508	104.312000036
1460.0	0.0003508	104.358999968
1460.0	0.0003508	104.391000032
1460.0	0.0003513	104.437000036
1460.0	0.0003513	104.483999968
1460.0	0.0003513	104.516000032
1460.0	0.0003508	104.562000036
1460.0	0.0003505	104.608999968
1460.0	0.0003505	104.641000032
1460.0	0.0003505	104.687000036
1470.0	0.0003528	104.953000069
1470.0	0.000354	105.0
1470.0	0.000355	105.030999899
1470.0	0.0003558	105.078000069
1470.0	0.0003568	105.125
1470.0	0.0003578	105.155999899
1470.0	0.0003583	105.203000069
1470.0	0.000359	105.233999968
1470.0	0.000359	105.280999899
1470.0	0.000359	105.328000069
1470.0	0.000359	105.358999968
1470.0	0.0003593	105.405999899
1470.0	0.0003593	105.453000069
1470.0	0.0003593	105.483999968
1470.0	0.0003595	105.530999899
1470.0	0.0003595	105.578000069
1470.0	0.0003595	105.608999968
1470.0	0.00036	105.655999899
1470.0	0.00036	105.687000036
1470.0	0.0003603	105.733999968
1470.0	0.00036	105.780999899
1470.0	0.00036	105.812000036
1470.0	0.00036	105.858999968
1470.0	0.00036	105.905999899
1470.0	0.00036	105.937000036
1470.0	0.0003603	105.983999968
1470.0	0.0003603	106.016000032
1470.0	0.0003603	106.062000036
1470.0	0.0003603	106.108999968
1470.0	0.00036	106.141000032
1470.0	0.00036	106.187000036
1470.0	0.00036	106.233999968
1470.0	0.0003603	106.266000032
1470.0	0.0003603	106.312000036
1470.0	0.0003603	106.358999968
1470.0	0.0003603	106.391000032
1470.0	0.0003603	106.437000036
1480.0	0.0003618	106.703000069
1480.0	0.0003628	106.733999968
1480.0	0.0003633	106.780999899
1480.0	0.0003638	106.828000069
1480.0	0.000364	106.858999968
1480.0	0.0003643	106.905999899
1480.0	0.0003643	106.953000069
1480.0	0.000364	106.983999968
1480.0	0.0003643	107.030999899
1480.0	0.0003643	107.062000036
1480.0	0.0003645	107.108999968
1480.0	0.0003645	107.155999899
1480.0	0.000365	107.187000036
1480.0	0.000365	107.233999968
1480.0	0.000365	107.280999899
1480.0	0.000365	107.312000036
1480.0	0.0003653	107.358999968
1480.0	0.0003655	107.391000032
1480.0	0.0003655	107.437000036
1480.0	0.0003655	107.483999968
1480.0	0.0003653	107.516000032
1480.0	0.0003653	107.562000036
1480.0	0.0003653	107.608999968
1480.0	0.000365	107.641000032
1480.0	0.0003645	107.687000036
1480.0	0.0003645	107.733999968
1480.0	0.0003645	107.766000032
1480.0	0.0003645	107.812000036
1480.0	0.0003645	107.843999863
1480.0	0.0003645	107.891000032
1480.0	0.0003645	107.937000036
1480.0	0.0003645	107.968999863
1480.0	0.0003645	108.016000032
1480.0	0.0003645	108.062000036
1480.0	0.0003645	108.093999863
1480.0	0.0003645	108.141000032
1480.0	0.0003643	108.171999931
1490.0	0.0003653	108.453000069
1490.0	0.0003658	108.483999968
1490.0	0.0003663	108.530999899
1490.0	0.0003668	108.578000069
1490.0	0.000367	108.608999968
1490.0	0.0003675	108.655999899
1490.0	0.0003675	108.703000069
1490.0	0.000367	108.733999968
1490.0	0.0003675	108.780999899
1490.0	0.0003678	108.812000036
1490.0	0.0003675	108.858999968
1490.0	0.0003678	108.905999899
1490.0	0.0003678	108.937000036
1490.0	0.0003675	108.983999968
1490.0	0.0003678	109.030999899
1490.0	0.000368	109.062000036
1490.0	0.000368	109.108999968
1490.0	0.000368	109.141000032
1490.0	0.000368	109.187000036
1490.0	0.0003683	109.233999968
1490.0	0.0003683	109.266000032
1490.0	0.000369	109.312000036
1490.0	0.000369	109.358999968
1490.0	0.0003693	109.391000032
1490.0	0.000369	109.437000036
1490.0	0.000369	109.483999968
1490.0	0.0003688	109.516000032
1490.0	0.0003688	109.562000036
1490.0	0.0003683	109.593999863
1490.0	0.0003683	109.641000032
1490.0	0.0003683	109.687000036
1490.0	0.0003683	109.718999863
1490.0	0.0003683	109.766000032
1490.0	0.0003683	109.796999931
1490.0	0.0003683	109.843999863
1490.0	0.0003683	109.891000032
1490.0	0.0003688	109.937000036
1500.0	0.000369	110.203000069
1500.0	0.0003695	110.25
1500.0	0.0003703	110.280999899
1500.0	0.0003708	110.328000069
1500.0	0.0003715	110.375
1500.0	0.0003713	110.405999899
1500.0	0.0003713	110.453000069
1500.0	0.0003708	110.483999968
1500.0	0.0003713	110.530999899
1500.0	0.0003713	110.578000069
1500.0	0.0003713	110.608999968
1500.0	0.0003715	110.655999899
1500.0	0.0003713	110.703000069
1500.0	0.0003715	110.733999968
1500.0	0.0003715	110.780999899
1500.0	0.0003713	110.812000036
1500.0	0.0003713	110.858999968
1500.0	0.0003715	110.905999899
1500.0	0.0003715	110.937000036
1500.0	0.0003718	110.983999968
1500.0	0.0003718	111.030999899
1500.0	0.0003718	111.062000036
1500.0	0.0003715	111.108999968
1500.0	0.0003718	111.155999899
1500.0	0.0003718	111.187000036
1500.0	0.0003715	111.233999968
1500.0	0.0003715	111.266000032
1500.0	0.0003713	111.312000036
1500.0	0.0003708	111.358999968
1500.0	0.0003705	111.391000032
1500.0	0.0003705	111.437000036
1500.0	0.0003708	111.483999968
1500.0	0.0003713	111.516000032
1500.0	0.0003708	111.562000036
1500.0	0.0003713	111.593999863
1500.0	0.0003713	111.641000032
1500.0	0.0003713	111.687000036
1510.0	0.0003715	111.953000069
1510.0	0.0003718	112.0
1510.0	0.000372	112.046999931
1510.0	0.0003725	112.078000069
1510.0	0.0003728	112.125
1510.0	0.000373	112.155999899
1510.0	0.000373	112.203000069
1510.0	0.000373	112.25
1510.0	0.000373	112.280999899
1510.0	0.000373	112.328000069
1510.0	0.000373	112.375
1510.0	0.0003733	112.405999899
1510.0	0.0003738	112.453000069
1510.0	0.0003738	112.483999968
1510.0	0.0003738	112.530999899
1510.0	0.0003733	112.578000069
1510.0	0.000373	112.608999968
1510.0	0.0003728	112.655999899
1510.0	0.000373	112.703000069
1510.0	0.0003728	112.733999968
1510.0	0.000373	112.780999899
1510.0	0.000373	112.812000036
1510.0	0.0003728	112.858999968
1510.0	0.0003725	112.905999899
1510.0	0.0003725	112.937000036
1510.0	0.0003728	112.983999968
1510.0	0.0003728	113.030999899
1510.0	0.000373	113.062000036
1510.0	0.0003728	113.108999968
1510.0	0.000373	113.155999899
1510.0	0.000373	113.187000036
1510.0	0.000373	113.233999968
1510.0	0.000373	113.266000032
1510.0	0.0003733	113.312000036
1510.0	0.0003733	113.358999968
1510.0	0.000373	113.391000032
1510.0	0.000373	113.437000036
1520.0	0.0003728	113.703000069
1520.0	0.000373	113.75
1520.0	0.0003728	113.796999931
1520.0	0.0003728	113.828000069
1520.0	0.000373	113.875
1520.0	0.000373	113.921999931
1520.0	0.000373	113.953000069
1520.0	0.000373	114.0
1520.0	0.0003733	114.046999931
1520.0	0.0003738	114.078000069
1520.0	0.000374	114.125
1520.0	0.0003743	114.155999899
1520.0	0.0003743	114.203000069
1520.0	0.000374	114.25
1520.0	0.0003743	114.280999899
1520.0	0.000374	114.328000069
1520.0	0.0003738	114.375
1520.0	0.0003738	114.405999899
1520.0	0.0003733	114.453000069
1520.0	0.0003733	114.483999968
1520.0	0.000373	114.530999899
1520.0	0.0003733	114.578000069
1520.0	0.0003738	114.608999968
1520.0	0.0003738	114.655999899
1520.0	0.0003733	114.703000069
1520.0	0.0003733	114.733999968
1520.0	0.0003733	114.780999899
1520.0	0.0003738	114.828000069
1520.0	0.0003738	114.858999968
1520.0	0.0003738	114.905999899
1520.0	0.0003738	114.937000036
1520.0	0.0003738	114.983999968
1520.0	0.0003738	115.030999899
1520.0	0.0003738	115.062000036
1520.0	0.0003738	115.108999968
1520.0	0.000374	115.155999899
1520.0	0.000374	115.187000036
1530.0	0.000374	115.468999863
1530.0	0.0003733	115.5
1530.0	0.0003733	115.546999931
1530.0	0.0003733	115.593999863
1530.0	0.0003738	115.625
1530.0	0.0003738	115.671999931
1530.0	0.000374	115.703000069
1530.0	0.000374	115.75
1530.0	0.0003738	115.796999931
1530.0	0.0003738	115.828000069
1530.0	0.0003733	115.875
1530.0	0.0003738	115.921999931
1530.0	0.0003733	115.953000069
1530.0	0.0003738	116.0
1530.0	0.0003738	116.046999931
1530.0	0.000374	116.078000069
1530.0	0.0003738	116.125
1530.0	0.0003738	116.155999899
1530.0	0.0003738	116.203000069
1530.0	0.0003738	116.25
1530.0	0.0003738	116.280999899
1530.0	0.0003733	116.328000069
1530.0	0.0003733	116.375
1530.0	0.000373	116.405999899
1530.0	0.0003728	116.453000069
1530.0	0.0003725	116.483999968
1530.0	0.0003728	116.530999899
1530.0	0.000373	116.578000069
1530.0	0.000373	116.608999968
1530.0	0.000373	116.655999899
1530.0	0.000373	116.703000069
1530.0	0.0003733	116.733999968
1530.0	0.0003738	116.780999899
1530.0	0.0003738	116.828000069
1530.0	0.000374	116.858999968
1530.0	0.000374	116.905999899
1530.0	0.000374	116.937000036
1540.0	0.0003718	117.218999863
1540.0	0.0003718	117.266000032
1540.0	0.0003718	117.296999931
1540.0	0.000372	117.343999863
1540.0	0.000372	117.375
1540.0	0.000372	117.421999931
1540.0	0.0003725	117.468999863
1540.0	0.0003725	117.5
1540.0	0.0003725	117.546999931
1540.0	0.000372	117.593999863
1540.0	0.0003718	117.625
1540.0	0.000372	117.671999931
1540.0	0.0003718	117.703000069
1540.0	0.000372	117.75
1540.0	0.000372	117.796999931
1540.0	0.000372	117.828000069
1540.0	0.000372	117.875
1540.0	0.0003725	117.921999931
1540.0	0.000372	117.953000069
1540.0	0.0003725	118.0
1540.0	0.0003725	118.046999931
1540.0	0.0003718	118.078000069
1540.0	0.0003715	118.125
1540.0	0.0003715	118.155999899
1540.0	0.0003713	118.203000069
1540.0	0.0003708	118.25
1540.0	0.0003705	118.280999899
1540.0	0.0003708	118.328000069
1540.0	0.0003708	118.375
1540.0	0.0003705	118.405999899
1540.0	0.00037	118.453000069
1540.0	0.0003695	118.483999968
1540.0	0.0003693	118.530999899
1540.0	0.0003693	118.578000069
1540.0	0.00037	118.608999968
1540.0	0.0003708	118.655999899
1540.0	0.0003713	118.703000069
1550.0	0.0003695	118.968999863
1550.0	0.000369	119.016000032
1550.0	0.0003683	119.046999931
1550.0	0.000368	119.093999863
1550.0	0.000368	119.141000032
1550.0	0.0003678	119.171999931
1550.0	0.0003678	119.218999863
1550.0	0.0003675	119.266000032
1550.0	0.0003675	119.296999931
1550.0	0.0003675	119.343999863
1550.0	0.0003675	119.375
1550.0	0.0003668	119.421999931
1550.0	0.0003668	119.468999863
1550.0	0.0003668	119.5
1550.0	0.0003665	119.546999931
1550.0	0.0003663	119.593999863
1550.0	0.0003663	119.641000032
1550.0	0.0003663	119.671999931
1550.0	0.0003665	119.718999863
1550.0	0.0003665	119.75
1550.0	0.0003665	119.796999931
1550.0	0.0003665	119.843999863
1550.0	0.0003663	119.875
1550.0	0.0003658	119.921999931
1550.0	0.0003655	119.968999863
1550.0	0.0003653	120.0
1550.0	0.0003653	120.046999931
1550.0	0.0003653	120.078000069
1550.0	0.0003658	120.125
1550.0	0.0003658	120.171999931
1550.0	0.0003658	120.203000069
1550.0	0.0003658	120.25
1550.0	0.0003663	120.296999931
1550.0	0.0003658	120.328000069
1550.0	0.0003658	120.375
1550.0	0.0003655	120.405999899
1550.0	0.0003655	120.453000069
1560.0	0.0003628	120.733999968
1560.0	0.0003615	120.766000032
1560.0	0.0003603	120.812000036
1560.0	0.00036	120.858999968
1560.0	0.0003593	120.891000032
1560.0	0.0003593	120.937000036
1560.0	0.0003588	120.983999968
1560.0	0.0003588	121.016000032
1560.0	0.000358	121.062000036
1560.0	0.0003575	121.093999863
1560.0	0.0003575	121.141000032
1560.0	0.0003575	121.187000036
1560.0	0.0003578	121.218999863
1560.0	0.0003578	121.266000032
1560.0	0.0003575	121.312000036
1560.0	0.000357	121.343999863
1560.0	0.0003568	121.391000032
1560.0	0.0003565	121.421999931
1560.0	0.0003565	121.468999863
1560.0	0.0003565	121.516000032
1560.0	0.0003568	121.546999931
1560.0	0.0003568	121.593999863
1560.0	0.0003575	121.641000032
1560.0	0.0003578	121.671999931
1560.0	0.0003578	121.718999863
1560.0	0.000358	121.75
1560.0	0.000358	121.796999931
1560.0	0.0003578	121.843999863
1560.0	0.0003575	121.875
1560.0	0.0003575	121.921999931
1560.0	0.000357	121.968999863
1560.0	0.000357	122.0
1560.0	0.0003568	122.046999931
1560.0	0.0003568	122.078000069
1560.0	0.0003568	122.125
1560.0	0.0003565	122.171999931
1560.0	0.0003565	122.203000069
1570.0	0.000352	122.483999968
1570.0	0.0003505	122.530999899
1570.0	0.000349	122.562000036
1570.0	0.000348	122.608999968
1570.0	0.0003475	122.641000032
1570.0	0.0003468	122.687000036
1570.0	0.0003465	122.733999968
1570.0	0.0003465	122.766000032
1570.0	0.0003463	122.812000036
1570.0	0.0003463	122.858999968
1570.0	0.0003458	122.891000032
1570.0	0.0003458	122.937000036
1570.0	0.0003463	122.983999968
1570.0	0.0003463	123.016000032
1570.0	0.0003465	123.062000036
1570.0	0.0003465	123.093999863
1570.0	0.0003465	123.141000032
1570.0	0.0003465	123.187000036
1570.0	0.0003465	123.218999863
1570.0	0.0003468	123.266000032
1570.0	0.0003465	123.312000036
1570.0	0.0003465	123.343999863
1570.0	0.0003468	123.391000032
1570.0	0.0003468	123.421999931
1570.0	0.0003465	123.468999863
1570.0	0.0003465	123.516000032
1570.0	0.0003465	123.546999931
1570.0	0.0003463	123.593999863
1570.0	0.0003463	123.641000032
1570.0	0.0003465	123.671999931
1570.0	0.0003465	123.718999863
1570.0	0.0003465	123.75
1570.0	0.0003465	123.796999931
1570.0	0.0003465	123.843999863
1570.0	0.0003463	123.875
1570.0	0.0003463	123.921999931
1570.0	0.0003465	123.968999863
1580.0	0.0003413	124.233999968
1580.0	0.0003393	124.280999899
1580.0	0.0003375	124.312000036
1580.0	0.0003363	124.358999968
1580.0	0.000335	124.405999899
1580.0	0.000334	124.437000036
1580.0	0.0003333	124.483999968
1580.0	0.000333	124.530999899
1580.0	0.0003328	124.562000036
1580.0	0.0003328	124.608999968
1580.0	0.0003328	124.655999899
1580.0	0.0003328	124.687000036
1580.0	0.0003328	124.733999968
1580.0	0.000333	124.766000032
1580.0	0.000333	124.812000036
1580.0	0.000333	124.858999968
1580.0	0.0003328	124.891000032
1580.0	0.000333	124.937000036
1580.0	0.000333	124.983999968
1580.0	0.0003333	125.016000032
1580.0	0.0003333	125.062000036
1580.0	0.000333	125.093999863
1580.0	0.0003325	125.141000032
1580.0	0.0003325	125.187000036
1580.0	0.0003325	125.218999863
1580.0	0.0003325	125.266000032
1580.0	0.0003328	125.312000036
1580.0	0.0003325	125.343999863
1580.0	0.0003325	125.391000032
1580.0	0.0003325	125.421999931
1580.0	0.0003328	125.468999863
1580.0	0.000333	125.516000032
1580.0	0.000333	125.546999931
1580.0	0.0003333	125.593999863
1580.0	0.0003333	125.641000032
1580.0	0.0003338	125.671999931
1590.0	0.0003258	125.953000069
1590.0	0.0003238	126.0
1590.0	0.0003218	126.030999899
1590.0	0.0003195	126.078000069
1590.0	0.0003188	126.125
1590.0	0.0003175	126.155999899
1590.0	0.0003165	126.203000069
1590.0	0.0003163	126.25
1590.0	0.0003158	126.280999899
1590.0	0.0003158	126.328000069
1590.0	0.0003155	126.358999968
1590.0	0.0003155	126.405999899
1590.0	0.0003155	126.453000069
1590.0	0.0003155	126.483999968
1590.0	0.0003155	126.530999899
1590.0	0.0003158	126.578000069
1590.0	0.0003155	126.608999968
1590.0	0.000315	126.655999899
1590.0	0.000315	126.687000036
1590.0	0.000315	126.733999968
1590.0	0.000315	126.780999899
1590.0	0.000315	126.812000036
1590.0	0.0003145	126.858999968
1590.0	0.0003145	126.905999899
1590.0	0.0003145	126.937000036
1590.0	0.0003143	126.983999968
1590.0	0.0003143	127.016000032
1590.0	0.0003143	127.062000036
1590.0	0.000314	127.108999968
1590.0	0.000314	127.141000032
1590.0	0.0003138	127.187000036
1590.0	0.0003138	127.233999968
1590.0	0.0003133	127.266000032
1590.0	0.0003133	127.312000036
1590.0	0.0003138	127.343999863
1590.0	0.000314	127.391000032
1590.0	0.0003143	127.437000036
1600.0	0.0003063	127.703000069
1600.0	0.0003033	127.75
1600.0	0.0003013	127.796999931
1600.0	0.0002993	127.828000069
1600.0	0.0002978	127.875
1600.0	0.0002965	127.905999899
1600.0	0.0002955	127.953000069
1600.0	0.000295	128.0
1600.0	0.0002945	128.030999899
1600.0	0.0002945	128.078000069
1600.0	0.0002943	128.125
1600.0	0.0002938	128.155999899
1600.0	0.0002938	128.203000069
1600.0	0.0002938	128.25
1600.0	0.0002933	128.280999899
1600.0	0.0002933	128.328000069
1600.0	0.0002933	128.358999968
1600.0	0.000293	128.405999899
1600.0	0.000293	128.453000069
1600.0	0.0002928	128.483999968
1600.0	0.000293	128.530999899
1600.0	0.000293	128.578000069
1600.0	0.000293	128.608999968
1600.0	0.000293	128.655999899
1600.0	0.000293	128.687000036
1600.0	0.0002928	128.733999968
1600.0	0.0002925	128.780999899
1600.0	0.0002928	128.812000036
1600.0	0.0002928	128.858999968
1600.0	0.000293	128.905999899
1600.0	0.0002928	128.937000036
1600.0	0.0002928	128.983999968
1600.0	0.0002928	129.016000032
1600.0	0.0002925	129.062000036
1600.0	0.0002925	129.108999968
1600.0	0.0002925	129.141000032
1600.0	0.0002925	129.187000036
1610.0	0.0002845	129.468999863
1610.0	0.0002818	129.5
1610.0	0.0002793	129.546999931
1610.0	0.0002768	129.593999863
1610.0	0.000275	129.625
1610.0	0.0002733	129.671999931
1610.0	0.0002725	129.718999863
1610.0	0.0002718	129.75
1610.0	0.0002713	129.796999931
1610.0	0.0002708	129.828000069
1610.0	0.0002708	129.875
1610.0	0.0002708	129.921999931
1610.0	0.0002713	129.953000069
1610.0	0.0002708	130.0
1610.0	0.0002705	130.046999931
1610.0	0.0002708	130.078000069
1610.0	0.0002705	130.125
1610.0	0.0002713	130.171999931
1610.0	0.0002713	130.203000069
1610.0	0.0002713	130.25
1610.0	0.0002715	130.280999899
1610.0	0.0002713	130.328000069
1610.0	0.0002713	130.375
1610.0	0.0002708	130.421999931
1610.0	0.0002713	130.453000069
1610.0	0.0002715	130.5
1610.0	0.0002713	130.546999931
1610.0	0.0002713	130.593999863
1610.0	0.0002713	130.625
1610.0	0.0002708	130.671999931
1610.0	0.0002708	130.718999863
1610.0	0.0002705	130.75
1610.0	0.0002708	130.796999931
1610.0	0.0002708	130.843999863
1610.0	0.0002713	130.875
1610.0	0.0002718	130.921999931
1620.0	0.0002628	131.203000069
1620.0	0.0002595	131.233999968
1620.0	0.0002568	131.280999899
1620.0	0.000255	131.328000069
1620.0	0.000253	131.358999968
1620.0	0.0002515	131.405999899
1620.0	0.0002503	131.453000069
1620.0	0.0002495	131.483999968
1620.0	0.0002493	131.530999899
1620.0	0.000249	131.562000036
1620.0	0.0002488	131.608999968
1620.0	0.0002488	131.655999899
1620.0	0.0002488	131.687000036
1620.0	0.0002483	131.733999968
1620.0	0.0002483	131.780999899
1620.0	0.000248	131.812000036
1620.0	0.000248	131.858999968
1620.0	0.000248	131.891000032
1620.0	0.0002478	131.937000036
1620.0	0.0002478	131.983999968
1620.0	0.0002475	132.016000032
1620.0	0.0002478	132.062000036
1620.0	0.000248	132.108999968
1620.0	0.000248	132.141000032
1620.0	0.000248	132.187000036
1620.0	0.000248	132.233999968
1620.0	0.000248	132.266000032
1620.0	0.0002478	132.312000036
1620.0	0.0002478	132.343999863
1620.0	0.0002475	132.391000032
1620.0	0.0002478	132.437000036
1620.0	0.0002478	132.468999863
1620.0	0.000248	132.516000032
1620.0	0.0002483	132.562000036
1620.0	0.0002488	132.593999863
1620.0	0.0002483	132.641000032
1620.0	0.0002483	132.671999931
1630.0	0.000239	132.953000069
1630.0	0.0002358	133.0
1630.0	0.000233	133.046999931
1630.0	0.0002308	133.078000069
1630.0	0.0002293	133.125
1630.0	0.000228	133.155999899
1630.0	0.000227	133.203000069
1630.0	0.0002263	133.25
1630.0	0.0002255	133.280999899
1630.0	0.000225	133.328000069
1630.0	0.0002243	133.375
1630.0	0.000224	133.405999899
1630.0	0.0002238	133.453000069
1630.0	0.0002238	133.483999968
1630.0	0.0002238	133.530999899
1630.0	0.0002233	133.578000069
1630.0	0.0002233	133.608999968
1630.0	0.000223	133.655999899
1630.0	0.000223	133.703000069
1630.0	0.0002233	133.733999968
1630.0	0.000223	133.780999899
1630.0	0.0002228	133.812000036
1630.0	0.000223	133.858999968
1630.0	0.000223	133.905999899
1630.0	0.000223	133.937000036
1630.0	0.000223	133.983999968
1630.0	0.000223	134.030999899
1630.0	0.000223	134.062000036
1630.0	0.000223	134.108999968
1630.0	0.0002233	134.155999899
1630.0	0.0002233	134.187000036
1630.0	0.0002233	134.233999968
1630.0	0.000223	134.266000032
1630.0	0.000223	134.312000036
1630.0	0.0002228	134.358999968
1630.0	0.0002225	134.391000032
1630.0	0.0002225	134.437000036
1640.0	0.0002138	134.718999863
1640.0	0.0002103	134.766000032
1640.0	0.0002075	134.796999931
1640.0	0.0002053	134.843999863
1640.0	0.0002038	134.891000032
1640.0	0.000202	134.921999931
1640.0	0.0002008	134.968999863
1640.0	0.0002003	135.0
1640.0	0.0002003	135.046999931
1640.0	0.0002003	135.093999863
1640.0	0.0002	135.125
1640.0	0.0001995	135.171999931
1640.0	0.000199	135.218999863
1640.0	0.0001983	135.25
1640.0	0.000198	135.296999931
1640.0	0.0001978	135.328000069
1640.0	0.0001978	135.375
1640.0	0.0001983	135.421999931
1640.0	0.0001983	135.453000069
1640.0	0.0001988	135.5
1640.0	0.0001988	135.546999931
1640.0	0.0001988	135.578000069
1640.0	0.0001988	135.625
1640.0	0.000199	135.671999931
1640.0	0.000199	135.703000069
1640.0	0.0001988	135.75
1640.0	0.0001988	135.780999899
1640.0	0.0001983	135.828000069
1640.0	0.0001983	135.875
1640.0	0.0001983	135.905999899
1640.0	0.0001983	135.953000069
1640.0	0.0001983	136.0
1640.0	0.0001983	136.030999899
1640.0	0.0001988	136.078000069
1640.0	0.0001988	136.108999968
1640.0	0.0001988	136.155999899
1640.0	0.0001988	136.203000069
1650.0	0.0001908	136.483999968
1650.0	0.000188	136.516000032
1650.0	0.0001858	136.562000036
1650.0	0.000184	136.608999968
1650.0	0.0001825	136.641000032
1650.0	0.0001813	136.687000036
1650.0	0.00018	136.733999968
1650.0	0.0001793	136.766000032
1650.0	0.0001788	136.812000036
1650.0	0.000178	136.843999863
1650.0	0.000178	136.891000032
1650.0	0.000178	136.937000036
1650.0	0.0001778	136.968999863
1650.0	0.0001778	137.016000032
1650.0	0.0001778	137.062000036
1650.0	0.0001778	137.093999863
1650.0	0.0001778	137.141000032
1650.0	0.0001778	137.171999931
1650.0	0.0001778	137.218999863
1650.0	0.000178	137.266000032
1650.0	0.000178	137.296999931
1650.0	0.000178	137.343999863
1650.0	0.0001778	137.391000032
1650.0	0.0001775	137.421999931
1650.0	0.0001775	137.468999863
1650.0	0.0001775	137.516000032
1650.0	0.0001775	137.546999931
1650.0	0.0001775	137.593999863
1650.0	0.0001775	137.625
1650.0	0.0001778	137.671999931
1650.0	0.0001778	137.718999863
1650.0	0.0001778	137.75
1650.0	0.0001775	137.796999931
1650.0	0.0001775	137.843999863
1650.0	0.0001778	137.875
1650.0	0.000178	137.921999931
1650.0	0.000178	137.953000069
1660.0	0.0001693	138.25
1660.0	0.000167	138.280999899
1660.0	0.0001653	138.328000069
1660.0	0.000164	138.358999968
1660.0	0.0001628	138.405999899
1660.0	0.0001618	138.453000069
1660.0	0.0001613	138.483999968
1660.0	0.0001603	138.530999899
1660.0	0.0001595	138.578000069
1660.0	0.000159	138.608999968
1660.0	0.0001588	138.655999899
1660.0	0.0001583	138.703000069
1660.0	0.0001583	138.733999968
1660.0	0.0001578	138.780999899
1660.0	0.0001575	138.828000069
1660.0	0.000157	138.858999968
1660.0	0.0001568	138.905999899
1660.0	0.000157	138.953000069
1660.0	0.000157	138.983999968
1660.0	0.0001568	139.030999899
1660.0	0.0001568	139.062000036
1660.0	0.0001568	139.108999968
1660.0	0.000157	139.155999899
1660.0	0.0001575	139.187000036
1660.0	0.0001575	139.233999968
1660.0	0.0001578	139.280999899
1660.0	0.0001578	139.312000036
1660.0	0.0001575	139.358999968
1660.0	0.0001575	139.391000032
1660.0	0.0001578	139.437000036
1660.0	0.0001578	139.483999968
1660.0	0.0001575	139.516000032
1660.0	0.0001575	139.562000036
1660.0	0.0001575	139.608999968
1660.0	0.0001578	139.641000032
1660.0	0.0001578	139.687000036
1660.0	0.0001578	139.718999863
1670.0	0.000149	140.016000032
1670.0	0.0001468	140.046999931
1670.0	0.000145	140.093999863
1670.0	0.0001438	140.125
1670.0	0.000142	140.171999931
1670.0	0.0001413	140.218999863
1670.0	0.0001405	140.25
1670.0	0.00014	140.296999931
1670.0	0.0001395	140.343999863
1670.0	0.0001393	140.375
1670.0	0.0001393	140.421999931
1670.0	0.0001393	140.453000069
1670.0	0.0001395	140.5
1670.0	0.0001393	140.546999931
1670.0	0.000139	140.578000069
1670.0	0.000139	140.625
1670.0	0.0001388	140.671999931
1670.0	0.0001388	140.703000069
1670.0	0.0001388	140.75
1670.0	0.0001388	140.796999931
1670.0	0.0001388	140.828000069
1670.0	0.0001388	140.875
1670.0	0.0001388	140.905999899
1670.0	0.000139	140.953000069
1670.0	0.000139	141.0
1670.0	0.0001388	141.030999899
1670.0	0.0001383	141.078000069
1670.0	0.0001388	141.125
1670.0	0.0001388	141.155999899
1670.0	0.000139	141.203000069
1670.0	0.000139	141.233999968
1670.0	0.000139	141.280999899
1670.0	0.000139	141.328000069
1670.0	0.0001393	141.358999968
1670.0	0.0001395	141.405999899
1670.0	0.00014	141.453000069
1670.0	0.00014	141.5
1680.0	0.000134	141.780999899
1680.0	0.0001325	141.828000069
1680.0	0.0001305	141.858999968
1680.0	0.000129	141.905999899
1680.0	0.000128	141.953000069
1680.0	0.000127	141.983999968
1680.0	0.0001265	142.030999899
1680.0	0.0001258	142.078000069
1680.0	0.0001255	142.108999968
1680.0	0.000125	142.155999899
1680.0	0.000125	142.187000036
1680.0	0.000125	142.233999968
1680.0	0.0001255	142.280999899
1680.0	0.0001263	142.312000036
1680.0	0.0001265	142.358999968
1680.0	0.0001263	142.405999899
1680.0	0.0001263	142.437000036
1680.0	0.0001258	142.483999968
1680.0	0.0001258	142.516000032
1680.0	0.0001258	142.562000036
1680.0	0.0001255	142.608999968
1680.0	0.0001255	142.641000032
1680.0	0.0001253	142.687000036
1680.0	0.0001253	142.733999968
1680.0	0.0001253	142.766000032
1680.0	0.000125	142.812000036
1680.0	0.000125	142.858999968
1680.0	0.0001245	142.891000032
1680.0	0.0001245	142.937000036
1680.0	0.0001243	142.983999968
1680.0	0.0001243	143.016000032
1680.0	0.000124	143.062000036
1680.0	0.000124	143.108999968
1680.0	0.000124	143.141000032
1680.0	0.0001243	143.187000036
1680.0	0.0001245	143.218999863
1680.0	0.0001243	143.266000032
1690.0	0.0001188	143.546999931
1690.0	0.000117	143.593999863
1690.0	0.0001155	143.641000032
1690.0	0.0001145	143.671999931
1690.0	0.0001138	143.718999863
1690.0	0.000113	143.766000032
1690.0	0.0001125	143.796999931
1690.0	0.000112	143.843999863
1690.0	0.0001118	143.875
1690.0	0.0001115	143.921999931
1690.0	0.0001113	143.968999863
1690.0	0.0001113	144.0
1690.0	0.0001108	144.046999931
1690.0	0.0001105	144.093999863
1690.0	0.0001103	144.125
1690.0	0.00011	144.171999931
1690.0	0.0001095	144.203000069
1690.0	0.0001093	144.25
1690.0	0.0001093	144.296999931
1690.0	0.0001093	144.328000069
1690.0	0.000109	144.375
1690.0	0.000109	144.421999931
1690.0	0.0001093	144.453000069
1690.0	0.0001095	144.5
1690.0	0.0001093	144.546999931
1690.0	0.0001093	144.578000069
1690.0	0.0001093	144.625
1690.0	0.0001093	144.655999899
1690.0	0.0001095	144.703000069
1690.0	0.0001095	144.75
1690.0	0.0001093	144.780999899
1690.0	0.0001093	144.828000069
1690.0	0.0001093	144.875
1690.0	0.0001095	144.905999899
1690.0	0.0001095	144.953000069
1690.0	0.0001095	144.983999968
1690.0	0.0001095	145.030999899
1700.0	0.0001063	145.328000069
1700.0	0.0001045	145.358999968
1700.0	0.0001013	145.5
1700.0	0.0001005	145.530999899
1700.0	0.0001	145.578000069
1700.0	9.95e-05	145.608999968
1700.0	9.93e-05	145.655999899
1700.0	9.9e-05	145.703000069
1700.0	9.88e-05	145.733999968
1700.0	9.9e-05	145.780999899
1700.0	9.9e-05	145.828000069
1700.0	9.9e-05	145.858999968
1700.0	9.9e-05	145.905999899
1700.0	9.88e-05	145.937000036
1700.0	9.83e-05	145.983999968
1700.0	9.8e-05	146.030999899
1700.0	9.78e-05	146.062000036
1700.0	9.78e-05	146.108999968
1700.0	9.75e-05	146.155999899
1700.0	9.75e-05	146.187000036
1700.0	9.78e-05	146.233999968
1700.0	9.8e-05	146.266000032
1700.0	9.83e-05	146.312000036
1700.0	9.83e-05	146.358999968
1700.0	9.8e-05	146.391000032
1700.0	9.8e-05	146.437000036
1700.0	9.8e-05	146.483999968
1700.0	9.83e-05	146.530999899
1700.0	9.88e-05	146.562000036
1700.0	9.88e-05	146.608999968
1700.0	9.93e-05	146.641000032
1700.0	9.93e-05	146.687000036
1700.0	9.93e-05	146.733999968
1700.0	9.93e-05	146.766000032
1700.0	9.93e-05	146.812000036
1710.0	9.43e-05	147.108999968
1710.0	9.3e-05	147.141000032
1710.0	9.18e-05	147.187000036
1710.0	9.13e-05	147.233999968
1710.0	9.03e-05	147.266000032
1710.0	8.95e-05	147.312000036
1710.0	8.93e-05	147.343999863
1710.0	8.9e-05	147.391000032
1710.0	8.9e-05	147.437000036
1710.0	8.88e-05	147.468999863
1710.0	8.83e-05	147.516000032
1710.0	8.8e-05	147.546999931
1710.0	8.78e-05	147.593999863
1710.0	8.75e-05	147.641000032
1710.0	8.75e-05	147.671999931
1710.0	8.75e-05	147.718999863
1710.0	8.75e-05	147.766000032
1710.0	8.7e-05	147.796999931
1710.0	8.7e-05	147.843999863
1710.0	8.68e-05	147.875
1710.0	8.68e-05	147.921999931
1710.0	8.68e-05	147.968999863
1710.0	8.7e-05	148.0
1710.0	8.7e-05	148.046999931
1710.0	8.75e-05	148.093999863
1710.0	8.75e-05	148.125
1710.0	8.75e-05	148.171999931
1710.0	8.78e-05	148.218999863
1710.0	8.8e-05	148.25
1710.0	8.83e-05	148.296999931
1710.0	8.83e-05	148.328000069
1710.0	8.8e-05	148.375
1710.0	8.83e-05	148.421999931
1710.0	8.83e-05	148.453000069
1710.0	8.83e-05	148.5
1710.0	8.8e-05	148.546999931
1710.0	8.8e-05	148.578000069
1720.0	8.55e-05	148.875
1720.0	8.43e-05	148.905999899
1720.0	8.33e-05	148.953000069
1720.0	8.25e-05	149.0
1720.0	8.2e-05	149.030999899
1720.0	8.15e-05	149.078000069
1720.0	8.13e-05	149.125
1720.0	8.13e-05	149.155999899
1720.0	8.13e-05	149.203000069
1720.0	8.13e-05	149.25
1720.0	8.13e-05	149.280999899
1720.0	8.08e-05	149.328000069
1720.0	8.03e-05	149.358999968
1720.0	8e-05	149.405999899
1720.0	8e-05	149.453000069
1720.0	8e-05	149.483999968
1720.0	7.95e-05	149.530999899
1720.0	7.95e-05	149.578000069
1720.0	7.95e-05	149.608999968
1720.0	7.95e-05	149.655999899
1720.0	7.95e-05	149.687000036
1720.0	8e-05	149.733999968
1720.0	8.03e-05	149.780999899
1720.0	8.05e-05	149.812000036
1720.0	8.05e-05	149.858999968
1720.0	8.03e-05	149.905999899
1720.0	7.95e-05	149.953000069
1720.0	7.93e-05	149.983999968
1720.0	7.93e-05	150.030999899
1720.0	7.93e-05	150.062000036
1720.0	7.95e-05	150.108999968
1720.0	7.95e-05	150.155999899
1720.0	8e-05	150.187000036
1720.0	8e-05	150.233999968
1720.0	8.03e-05	150.280999899
1720.0	8.03e-05	150.312000036
1720.0	8.03e-05	150.358999968
1730.0	7.55e-05	150.641000032
1730.0	7.43e-05	150.687000036
1730.0	7.38e-05	150.718999863
1730.0	7.3e-05	150.766000032
1730.0	7.25e-05	150.812000036
1730.0	7.18e-05	150.843999863
1730.0	7.15e-05	150.891000032
1730.0	7.13e-05	150.937000036
1730.0	7.13e-05	150.968999863
1730.0	7.13e-05	151.016000032
1730.0	7.13e-05	151.046999931
1730.0	7.13e-05	151.093999863
1730.0	7.15e-05	151.141000032
1730.0	7.13e-05	151.171999931
1730.0	7.15e-05	151.218999863
1730.0	7.18e-05	151.266000032
1730.0	7.18e-05	151.296999931
1730.0	7.18e-05	151.343999863
1730.0	7.25e-05	151.375
1730.0	7.25e-05	151.421999931
1730.0	7.25e-05	151.468999863
1730.0	7.2e-05	151.5
1730.0	7.18e-05	151.546999931
1730.0	7.18e-05	151.593999863
1730.0	7.18e-05	151.625
1730.0	7.18e-05	151.671999931
1730.0	7.18e-05	151.718999863
1730.0	7.2e-05	151.75
1730.0	7.2e-05	151.796999931
1730.0	7.28e-05	151.828000069
1730.0	7.28e-05	151.875
1730.0	7.28e-05	151.921999931
1730.0	7.28e-05	151.968999863
1730.0	7.28e-05	152.0
1730.0	7.28e-05	152.046999931
1730.0	7.28e-05	152.078000069
1730.0	7.28e-05	152.125
1740.0	7.05e-05	152.405999899
1740.0	7e-05	152.453000069
1740.0	6.93e-05	152.5
1740.0	6.9e-05	152.546999931
1740.0	6.83e-05	152.578000069
1740.0	6.78e-05	152.625
1740.0	6.7e-05	152.655999899
1740.0	6.68e-05	152.703000069
1740.0	6.65e-05	152.75
1740.0	6.63e-05	152.780999899
1740.0	6.55e-05	152.828000069
1740.0	6.58e-05	152.875
1740.0	6.58e-05	152.905999899
1740.0	6.63e-05	152.953000069
1740.0	6.63e-05	152.983999968
1740.0	6.63e-05	153.030999899
1740.0	6.55e-05	153.078000069
1740.0	6.55e-05	153.108999968
1740.0	6.55e-05	153.155999899
1740.0	6.55e-05	153.203000069
1740.0	6.53e-05	153.233999968
1740.0	6.53e-05	153.280999899
1740.0	6.53e-05	153.328000069
1740.0	6.53e-05	153.358999968
1740.0	6.55e-05	153.405999899
1740.0	6.55e-05	153.437000036
1740.0	6.55e-05	153.483999968
1740.0	6.55e-05	153.530999899
1740.0	6.55e-05	153.562000036
1740.0	6.58e-05	153.608999968
1740.0	6.55e-05	153.655999899
1740.0	6.5e-05	153.687000036
1740.0	6.45e-05	153.733999968
1740.0	6.43e-05	153.766000032
1740.0	6.43e-05	153.812000036
1740.0	6.43e-05	153.858999968
1740.0	6.45e-05	153.891000032
1750.0	6.25e-05	154.187000036
1750.0	6.18e-05	154.218999863
1750.0	6.15e-05	154.266000032
1750.0	6.13e-05	154.312000036
1750.0	6.13e-05	154.343999863
1750.0	6.13e-05	154.391000032
1750.0	6.03e-05	154.437000036
1750.0	5.95e-05	154.468999863
1750.0	5.93e-05	154.516000032
1750.0	5.95e-05	154.562000036
1750.0	5.95e-05	154.593999863
1750.0	5.95e-05	154.641000032
1750.0	5.95e-05	154.687000036
1750.0	5.95e-05	154.718999863
1750.0	5.93e-05	154.766000032
1750.0	5.95e-05	154.796999931
1750.0	5.95e-05	154.843999863
1750.0	5.95e-05	154.891000032
1750.0	6e-05	154.921999931
1750.0	6.03e-05	154.968999863
1750.0	6.03e-05	155.016000032
1750.0	6.03e-05	155.046999931
1750.0	6e-05	155.093999863
1750.0	6e-05	155.125
1750.0	6e-05	155.171999931
1750.0	6e-05	155.218999863
1750.0	6.03e-05	155.25
1750.0	6.03e-05	155.296999931
1750.0	6.05e-05	155.343999863
1750.0	6e-05	155.375
1750.0	5.95e-05	155.421999931
1750.0	5.95e-05	155.453000069
1750.0	6e-05	155.5
1750.0	6e-05	155.546999931
1750.0	6e-05	155.578000069
1750.0	6e-05	155.625
1750.0	6.03e-05	155.671999931
1760.0	5.83e-05	155.953000069
1760.0	5.75e-05	156.0
1760.0	5.7e-05	156.030999899
1760.0	5.65e-05	156.078000069
1760.0	5.63e-05	156.125
1760.0	5.55e-05	156.155999899
1760.0	5.53e-05	156.203000069
1760.0	5.5e-05	156.233999968
1760.0	5.5e-05	156.280999899
1760.0	5.43e-05	156.328000069
1760.0	5.4e-05	156.358999968
1760.0	5.4e-05	156.405999899
1760.0	5.4e-05	156.453000069
1760.0	5.4e-05	156.483999968
1760.0	5.4e-05	156.530999899
1760.0	5.43e-05	156.562000036
1760.0	5.43e-05	156.608999968
1760.0	5.43e-05	156.655999899
1760.0	5.4e-05	156.687000036
1760.0	5.38e-05	156.733999968
1760.0	5.33e-05	156.780999899
1760.0	5.3e-05	156.812000036
1760.0	5.3e-05	156.858999968
1760.0	5.28e-05	156.891000032
1760.0	5.3e-05	156.937000036
1760.0	5.28e-05	156.983999968
1760.0	5.3e-05	157.016000032
1760.0	5.33e-05	157.062000036
1760.0	5.3e-05	157.108999968
1760.0	5.3e-05	157.141000032
1760.0	5.3e-05	157.187000036
1760.0	5.33e-05	157.233999968
1760.0	5.38e-05	157.266000032
1760.0	5.38e-05	157.312000036
1760.0	5.38e-05	157.343999863
1760.0	5.33e-05	157.391000032
1760.0	5.33e-05	157.437000036
1770.0	5.2e-05	157.718999863
1770.0	5.13e-05	157.766000032
1770.0	5.05e-05	157.812000036
1770.0	5e-05	157.843999863
1770.0	5e-05	157.891000032
1770.0	4.93e-05	157.921999931
1770.0	4.88e-05	157.968999863
1770.0	4.83e-05	158.016000032
1770.0	4.8e-05	158.046999931
1770.0	4.8e-05	158.093999863
1770.0	4.78e-05	158.141000032
1770.0	4.8e-05	158.171999931
1770.0	4.83e-05	158.218999863
1770.0	4.88e-05	158.266000032
1770.0	4.88e-05	158.296999931
1770.0	4.88e-05	158.343999863
1770.0	4.9e-05	158.391000032
1770.0	4.9e-05	158.421999931
1770.0	4.9e-05	158.468999863
1770.0	4.88e-05	158.516000032
1770.0	4.88e-05	158.546999931
1770.0	4.83e-05	158.593999863
1770.0	4.88e-05	158.625
1770.0	4.88e-05	158.671999931
1770.0	4.88e-05	158.718999863
1770.0	4.83e-05	158.75
1770.0	4.8e-05	158.796999931
1770.0	4.83e-05	158.843999863
1770.0	4.9e-05	158.875
1770.0	4.93e-05	158.921999931
1770.0	5e-05	158.953000069
1770.0	5.03e-05	159.0
1770.0	5.05e-05	159.046999931
1770.0	5.03e-05	159.078000069
1770.0	5e-05	159.125
1770.0	4.95e-05	159.171999931
1780.0	4.7e-05	159.453000069
1780.0	4.68e-05	159.5
1780.0	4.63e-05	159.530999899
1780.0	4.63e-05	159.578000069
1780.0	4.58e-05	159.625
1780.0	4.55e-05	159.655999899
1780.0	4.53e-05	159.703000069
1780.0	4.53e-05	159.733999968
1780.0	4.53e-05	159.780999899
1780.0	4.45e-05	159.828000069
1780.0	4.43e-05	159.858999968
1780.0	4.43e-05	159.905999899
1780.0	4.43e-05	159.953000069
1780.0	4.45e-05	159.983999968
1780.0	4.45e-05	160.030999899
1780.0	4.5e-05	160.062000036
1780.0	4.53e-05	160.108999968
1780.0	4.53e-05	160.155999899
1780.0	4.53e-05	160.187000036
1780.0	4.53e-05	160.233999968
1780.0	4.53e-05	160.280999899
1780.0	4.53e-05	160.312000036
1780.0	4.53e-05	160.358999968
1780.0	4.5e-05	160.391000032
1780.0	4.5e-05	160.437000036
1780.0	4.5e-05	160.483999968
1780.0	4.53e-05	160.516000032
1780.0	4.5e-05	160.562000036
1780.0	4.53e-05	160.608999968
1780.0	4.5e-05	160.641000032
1780.0	4.45e-05	160.687000036
1780.0	4.43e-05	160.733999968
1780.0	4.43e-05	160.766000032
1780.0	4.43e-05	160.812000036
1780.0	4.43e-05	160.843999863
1780.0	4.43e-05	160.891000032
1780.0	4.43e-05	160.937000036
1790.0	4.3e-05	161.218999863
1790.0	4.2e-05	161.266000032
1790.0	4.15e-05	161.312000036
1790.0	4.13e-05	161.343999863
1790.0	4.08e-05	161.391000032
1790.0	4.05e-05	161.421999931
1790.0	4e-05	161.468999863
1790.0	3.95e-05	161.516000032
1790.0	3.95e-05	161.546999931
1790.0	3.93e-05	161.593999863
1790.0	3.93e-05	161.641000032
1790.0	3.9e-05	161.671999931
1790.0	3.9e-05	161.718999863
1790.0	3.93e-05	161.75
1790.0	3.95e-05	161.796999931
1790.0	3.95e-05	161.843999863
1790.0	3.95e-05	161.875
1790.0	3.95e-05	161.921999931
1790.0	3.95e-05	161.968999863
1790.0	3.93e-05	162.0
1790.0	3.95e-05	162.046999931
1790.0	3.95e-05	162.078000069
1790.0	3.95e-05	162.125
1790.0	4e-05	162.171999931
1790.0	3.95e-05	162.203000069
1790.0	3.95e-05	162.25
1790.0	3.93e-05	162.296999931
1790.0	3.95e-05	162.328000069
1790.0	4e-05	162.375
1790.0	4e-05	162.421999931
1790.0	4e-05	162.453000069
1790.0	3.93e-05	162.5
1790.0	3.9e-05	162.530999899
1790.0	3.88e-05	162.578000069
1790.0	3.88e-05	162.625
1790.0	3.88e-05	162.655999899
1790.0	3.83e-05	162.703000069
1800.0	3.8e-05	163.0
1800.0	3.75e-05	163.030999899
1800.0	3.7e-05	163.078000069
1800.0	3.68e-05	163.108999968
1800.0	3.65e-05	163.155999899
1800.0	3.63e-05	163.203000069
1800.0	3.58e-05	163.233999968
1800.0	3.53e-05	163.280999899
1800.0	3.53e-05	163.328000069
1800.0	3.53e-05	163.358999968
1800.0	3.53e-05	163.405999899
1800.0	3.53e-05	163.453000069
1800.0	3.53e-05	163.483999968
1800.0	3.5e-05	163.530999899
1800.0	3.53e-05	163.578000069
1800.0	3.5e-05	163.608999968
1800.0	3.5e-05	163.655999899
1800.0	3.5e-05	163.703000069
1800.0	3.5e-05	163.733999968
1800.0	3.55e-05	163.780999899
1800.0	3.55e-05	163.812000036
1800.0	3.58e-05	163.858999968
1800.0	3.58e-05	163.905999899
1800.0	3.58e-05	163.937000036
1800.0	3.58e-05	163.983999968
1800.0	3.58e-05	164.030999899
1800.0	3.58e-05	164.062000036
1800.0	3.55e-05	164.108999968
1800.0	3.55e-05	164.141000032
1800.0	3.55e-05	164.187000036
1800.0	3.53e-05	164.233999968
1800.0	3.55e-05	164.266000032
1800.0	3.55e-05	164.312000036
1800.0	3.58e-05	164.358999968
1800.0	3.58e-05	164.391000032
1800.0	3.58e-05	164.437000036
1800.0	3.58e-05	164.468999863
