Your edit line - do NOT delete this line
Wavelength [nm], Voltage [V], Elapsed time [s]
900.0	0.0001168	14.0160000324
900.0	0.0001145	14.0620000362
900.0	0.0001125	14.1089999676
900.0	0.0001113	14.1410000324
900.0	0.00011	14.1870000362
900.0	0.000109	14.2189998627
900.0	0.0001083	14.2660000324
900.0	0.0001075	14.3120000362
900.0	0.000107	14.3439998627
900.0	0.0001068	14.3910000324
900.0	0.0001063	14.4370000362
900.0	0.0001058	14.4689998627
900.0	0.0001058	14.5160000324
900.0	0.0001058	14.5469999313
900.0	0.0001058	14.5939998627
900.0	0.0001058	14.6410000324
900.0	0.0001058	14.6719999313
900.0	0.0001063	14.7189998627
900.0	0.0001063	14.7660000324
900.0	0.0001063	14.7969999313
900.0	0.0001063	14.8439998627
900.0	0.0001065	14.875
900.0	0.0001065	14.9219999313
900.0	0.0001063	14.9689998627
900.0	0.0001065	15.0
900.0	0.0001068	15.0469999313
900.0	0.000107	15.0939998627
900.0	0.0001075	15.125
900.0	0.0001075	15.1719999313
900.0	0.0001075	15.2189998627
900.0	0.0001075	15.25
900.0	0.0001075	15.2969999313
900.0	0.0001075	15.3280000687
900.0	0.000107	15.375
900.0	0.0001068	15.4219999313
900.0	0.0001065	15.4530000687
900.0	0.0001065	15.5
910.0	0.000112	15.8120000362
910.0	0.0001138	15.8439998627
910.0	0.0001145	15.8910000324
910.0	0.000115	15.9370000362
910.0	0.0001155	15.9689998627
910.0	0.0001155	16.0160000324
910.0	0.0001158	16.0469999313
910.0	0.0001165	16.0939998627
910.0	0.0001168	16.1410000324
910.0	0.000117	16.1719999313
910.0	0.0001175	16.2189998627
910.0	0.0001175	16.2660000324
910.0	0.0001178	16.2969999313
910.0	0.0001175	16.3439998627
910.0	0.000117	16.375
910.0	0.0001175	16.4219999313
910.0	0.000117	16.4689998627
910.0	0.000117	16.5
910.0	0.000117	16.5469999313
910.0	0.0001175	16.5939998627
910.0	0.0001178	16.625
910.0	0.000118	16.6719999313
910.0	0.0001183	16.7030000687
910.0	0.0001183	16.75
910.0	0.0001183	16.7969999313
910.0	0.000118	16.8280000687
910.0	0.000118	16.875
910.0	0.0001178	16.9219999313
910.0	0.0001178	16.9530000687
910.0	0.0001178	17.0
910.0	0.0001178	17.0309998989
910.0	0.0001178	17.0780000687
910.0	0.000118	17.125
910.0	0.000118	17.1559998989
910.0	0.0001183	17.2030000687
910.0	0.0001183	17.25
910.0	0.000118	17.2809998989
920.0	0.000124	17.5939998627
920.0	0.0001255	17.625
920.0	0.0001268	17.6719999313
920.0	0.000128	17.7189998627
920.0	0.0001293	17.75
920.0	0.00013	17.7969999313
920.0	0.0001305	17.8280000687
920.0	0.0001313	17.875
920.0	0.0001313	17.9219999313
920.0	0.0001315	17.9530000687
920.0	0.0001315	18.0
920.0	0.0001315	18.0469999313
920.0	0.0001315	18.0780000687
920.0	0.0001315	18.125
920.0	0.0001315	18.1559998989
920.0	0.0001313	18.2030000687
920.0	0.0001315	18.25
920.0	0.0001318	18.2809998989
920.0	0.0001318	18.3280000687
920.0	0.0001318	18.375
920.0	0.000132	18.4059998989
920.0	0.000132	18.4530000687
920.0	0.0001318	18.5
920.0	0.0001318	18.5309998989
920.0	0.0001318	18.5780000687
920.0	0.0001318	18.6089999676
920.0	0.0001318	18.6559998989
920.0	0.0001318	18.7030000687
920.0	0.0001315	18.7339999676
920.0	0.0001313	18.7809998989
920.0	0.0001313	18.8280000687
920.0	0.0001313	18.8589999676
920.0	0.0001308	18.9059998989
920.0	0.0001305	18.9370000362
920.0	0.0001305	18.9839999676
920.0	0.0001308	19.0309998989
920.0	0.0001313	19.0620000362
930.0	0.0001378	19.375
930.0	0.0001393	19.4059998989
930.0	0.0001408	19.4530000687
930.0	0.000142	19.4839999676
930.0	0.0001433	19.5309998989
930.0	0.0001443	19.5780000687
930.0	0.0001445	19.6089999676
930.0	0.0001453	19.6559998989
930.0	0.0001458	19.7030000687
930.0	0.0001455	19.7339999676
930.0	0.0001455	19.7809998989
930.0	0.0001455	19.8120000362
930.0	0.0001458	19.8589999676
930.0	0.0001458	19.9059998989
930.0	0.0001458	19.9370000362
930.0	0.0001458	19.9839999676
930.0	0.0001463	20.0309998989
930.0	0.0001463	20.0620000362
930.0	0.0001458	20.1089999676
930.0	0.0001455	20.1559998989
930.0	0.0001455	20.1870000362
930.0	0.0001455	20.2339999676
930.0	0.0001455	20.2660000324
930.0	0.0001455	20.3120000362
930.0	0.0001458	20.3589999676
930.0	0.0001455	20.3910000324
930.0	0.0001455	20.4370000362
930.0	0.0001455	20.4839999676
930.0	0.0001458	20.5160000324
930.0	0.0001458	20.5620000362
930.0	0.0001455	20.5939998627
930.0	0.0001453	20.6410000324
930.0	0.0001445	20.6870000362
930.0	0.0001445	20.7189998627
930.0	0.000145	20.7660000324
930.0	0.000145	20.8120000362
930.0	0.000145	20.8439998627
940.0	0.0001518	21.1410000324
940.0	0.0001538	21.1870000362
940.0	0.0001545	21.2339999676
940.0	0.0001558	21.2660000324
940.0	0.000157	21.3120000362
940.0	0.0001583	21.3589999676
940.0	0.000159	21.3910000324
940.0	0.0001593	21.4370000362
940.0	0.00016	21.4689998627
940.0	0.0001605	21.5160000324
940.0	0.0001605	21.5620000362
940.0	0.0001605	21.5939998627
940.0	0.0001603	21.6410000324
940.0	0.0001608	21.6870000362
940.0	0.0001608	21.7189998627
940.0	0.0001613	21.7660000324
940.0	0.0001615	21.7969999313
940.0	0.0001613	21.8439998627
940.0	0.0001613	21.8910000324
940.0	0.0001613	21.9219999313
940.0	0.0001613	21.9689998627
940.0	0.0001615	22.0160000324
940.0	0.0001613	22.0469999313
940.0	0.0001613	22.0939998627
940.0	0.0001608	22.1410000324
940.0	0.0001608	22.1719999313
940.0	0.0001608	22.2189998627
940.0	0.0001608	22.2660000324
940.0	0.0001605	22.2969999313
940.0	0.0001605	22.3439998627
940.0	0.0001608	22.375
940.0	0.0001613	22.4219999313
940.0	0.0001613	22.4689998627
940.0	0.0001615	22.5
940.0	0.0001615	22.5469999313
940.0	0.0001608	22.5939998627
940.0	0.0001608	22.625
950.0	0.0001683	22.9219999313
950.0	0.00017	22.9689998627
950.0	0.0001715	23.0
950.0	0.0001725	23.0469999313
950.0	0.0001733	23.0780000687
950.0	0.0001743	23.125
950.0	0.000175	23.1719999313
950.0	0.0001755	23.2030000687
950.0	0.0001763	23.25
950.0	0.0001763	23.2969999313
950.0	0.0001763	23.3280000687
950.0	0.0001765	23.375
950.0	0.0001763	23.4059998989
950.0	0.0001763	23.4530000687
950.0	0.0001763	23.5
950.0	0.0001765	23.5309998989
950.0	0.0001768	23.5780000687
950.0	0.0001768	23.625
950.0	0.0001768	23.6559998989
950.0	0.0001768	23.7030000687
950.0	0.000177	23.7339999676
950.0	0.0001775	23.7809998989
950.0	0.0001775	23.8280000687
950.0	0.0001775	23.875
950.0	0.000177	23.9059998989
950.0	0.000177	23.9530000687
950.0	0.000177	24.0
950.0	0.000177	24.0309998989
950.0	0.000177	24.0780000687
950.0	0.000177	24.1089999676
950.0	0.0001775	24.1559998989
950.0	0.0001775	24.2030000687
950.0	0.0001775	24.2339999676
950.0	0.000177	24.2809998989
950.0	0.000177	24.3280000687
950.0	0.000177	24.3589999676
950.0	0.0001768	24.4059998989
960.0	0.0001838	24.6870000362
960.0	0.0001858	24.7339999676
960.0	0.0001878	24.7660000324
960.0	0.000189	24.8120000362
960.0	0.00019	24.8589999676
960.0	0.0001905	24.8910000324
960.0	0.0001913	24.9370000362
960.0	0.0001918	24.9839999676
960.0	0.0001925	25.0160000324
960.0	0.0001925	25.0620000362
960.0	0.0001925	25.1089999676
960.0	0.0001925	25.1410000324
960.0	0.000192	25.1870000362
960.0	0.0001918	25.2189998627
960.0	0.000192	25.2660000324
960.0	0.000192	25.3120000362
960.0	0.000192	25.3439998627
960.0	0.000192	25.3910000324
960.0	0.0001925	25.4370000362
960.0	0.0001928	25.4689998627
960.0	0.000193	25.5160000324
960.0	0.000193	25.5469999313
960.0	0.0001933	25.5939998627
960.0	0.000193	25.6410000324
960.0	0.000193	25.6719999313
960.0	0.0001933	25.7189998627
960.0	0.0001933	25.7660000324
960.0	0.000193	25.7969999313
960.0	0.000193	25.8439998627
960.0	0.000193	25.875
960.0	0.0001933	25.9219999313
960.0	0.0001933	25.9689998627
960.0	0.0001938	26.0
960.0	0.0001938	26.0469999313
960.0	0.0001933	26.0939998627
960.0	0.000193	26.125
960.0	0.000193	26.1719999313
970.0	0.0001995	26.4530000687
970.0	0.0002018	26.5
970.0	0.0002033	26.5309998989
970.0	0.0002045	26.5780000687
970.0	0.0002058	26.6089999676
970.0	0.0002068	26.6559998989
970.0	0.0002078	26.7030000687
970.0	0.000208	26.7339999676
970.0	0.0002083	26.7809998989
970.0	0.000209	26.8280000687
970.0	0.000209	26.8589999676
970.0	0.0002093	26.9059998989
970.0	0.0002095	26.9530000687
970.0	0.0002093	26.9839999676
970.0	0.000209	27.0309998989
970.0	0.0002093	27.0620000362
970.0	0.000209	27.1089999676
970.0	0.0002088	27.1559998989
970.0	0.0002088	27.1870000362
970.0	0.0002088	27.2339999676
970.0	0.0002088	27.2809998989
970.0	0.000209	27.3120000362
970.0	0.000209	27.3589999676
970.0	0.0002093	27.3910000324
970.0	0.0002095	27.4370000362
970.0	0.0002095	27.4839999676
970.0	0.0002095	27.5160000324
970.0	0.0002093	27.5620000362
970.0	0.0002093	27.6089999676
970.0	0.0002093	27.6410000324
970.0	0.0002095	27.6870000362
970.0	0.00021	27.7339999676
970.0	0.0002103	27.7660000324
970.0	0.0002103	27.8120000362
970.0	0.0002103	27.8589999676
970.0	0.00021	27.8910000324
970.0	0.00021	27.9370000362
980.0	0.000215	28.2189998627
980.0	0.0002168	28.25
980.0	0.0002188	28.2969999313
980.0	0.0002205	28.3439998627
980.0	0.0002218	28.375
980.0	0.0002225	28.4219999313
980.0	0.000223	28.4689998627
980.0	0.000223	28.5
980.0	0.0002233	28.5469999313
980.0	0.0002233	28.5780000687
980.0	0.0002238	28.625
980.0	0.0002238	28.6719999313
980.0	0.0002243	28.7030000687
980.0	0.000225	28.75
980.0	0.000225	28.7969999313
980.0	0.0002253	28.8280000687
980.0	0.0002253	28.875
980.0	0.0002253	28.9059998989
980.0	0.0002253	28.9530000687
980.0	0.0002253	29.0
980.0	0.0002253	29.0309998989
980.0	0.000225	29.0780000687
980.0	0.0002253	29.125
980.0	0.000225	29.1559998989
980.0	0.000225	29.2030000687
980.0	0.0002245	29.25
980.0	0.000225	29.2809998989
980.0	0.0002253	29.3280000687
980.0	0.0002253	29.375
980.0	0.0002255	29.4059998989
980.0	0.0002255	29.4530000687
980.0	0.0002255	29.4839999676
980.0	0.0002258	29.5309998989
980.0	0.0002263	29.5780000687
980.0	0.0002263	29.6089999676
980.0	0.0002263	29.6559998989
980.0	0.0002263	29.7030000687
990.0	0.0002318	29.9839999676
990.0	0.0002338	30.0160000324
990.0	0.0002355	30.0620000362
990.0	0.0002368	30.0939998627
990.0	0.000238	30.1410000324
990.0	0.0002393	30.1870000362
990.0	0.0002405	30.2189998627
990.0	0.0002413	30.2660000324
990.0	0.0002418	30.3120000362
990.0	0.0002418	30.3439998627
990.0	0.0002415	30.3910000324
990.0	0.0002415	30.4219999313
990.0	0.0002415	30.4689998627
990.0	0.0002415	30.5160000324
990.0	0.0002418	30.5469999313
990.0	0.0002418	30.5939998627
990.0	0.0002415	30.6410000324
990.0	0.0002413	30.6719999313
990.0	0.0002408	30.7189998627
990.0	0.0002408	30.75
990.0	0.0002408	30.7969999313
990.0	0.0002405	30.8439998627
990.0	0.0002405	30.875
990.0	0.0002403	30.9219999313
990.0	0.0002405	30.9689998627
990.0	0.0002408	31.0
990.0	0.0002408	31.0469999313
990.0	0.0002408	31.0780000687
990.0	0.0002405	31.125
990.0	0.0002408	31.1719999313
990.0	0.0002408	31.2030000687
990.0	0.0002405	31.25
990.0	0.0002408	31.2969999313
990.0	0.0002408	31.3280000687
990.0	0.0002408	31.375
990.0	0.0002408	31.4219999313
990.0	0.0002413	31.4530000687
1000.0	0.0002475	31.7339999676
1000.0	0.0002495	31.7809998989
1000.0	0.0002515	31.8120000362
1000.0	0.0002528	31.8589999676
1000.0	0.000254	31.9059998989
1000.0	0.0002545	31.9370000362
1000.0	0.0002553	31.9839999676
1000.0	0.0002558	32.0160000324
1000.0	0.0002563	32.0620000362
1000.0	0.0002563	32.1089999676
1000.0	0.0002565	32.1410000324
1000.0	0.0002565	32.1870000362
1000.0	0.0002568	32.2339999676
1000.0	0.0002568	32.2660000324
1000.0	0.000257	32.3120000362
1000.0	0.000257	32.3439998627
1000.0	0.0002568	32.3910000324
1000.0	0.0002565	32.4370000362
1000.0	0.0002565	32.4689998627
1000.0	0.0002565	32.5160000324
1000.0	0.0002565	32.5620000362
1000.0	0.0002563	32.5939998627
1000.0	0.0002563	32.6410000324
1000.0	0.0002563	32.6870000362
1000.0	0.0002563	32.7189998627
1000.0	0.0002565	32.7660000324
1000.0	0.0002565	32.7969999313
1000.0	0.0002568	32.8439998627
1000.0	0.000257	32.8910000324
1000.0	0.000257	32.9219999313
1000.0	0.000257	32.9689998627
1000.0	0.0002568	33.0
1000.0	0.0002565	33.0469999313
1000.0	0.0002565	33.0939998627
1000.0	0.0002563	33.125
1000.0	0.0002563	33.1719999313
1000.0	0.0002558	33.2189998627
1010.0	0.000262	33.5
1010.0	0.0002643	33.5309998989
1010.0	0.0002655	33.5780000687
1010.0	0.0002675	33.6089999676
1010.0	0.0002688	33.6559998989
1010.0	0.00027	33.7030000687
1010.0	0.0002705	33.7339999676
1010.0	0.0002713	33.7809998989
1010.0	0.0002715	33.8280000687
1010.0	0.0002715	33.8589999676
1010.0	0.0002715	33.9059998989
1010.0	0.0002715	33.9370000362
1010.0	0.0002713	33.9839999676
1010.0	0.0002715	34.0309998989
1010.0	0.0002715	34.0620000362
1010.0	0.0002718	34.1089999676
1010.0	0.0002718	34.1559998989
1010.0	0.0002718	34.1870000362
1010.0	0.0002718	34.2339999676
1010.0	0.0002715	34.2660000324
1010.0	0.0002708	34.3120000362
1010.0	0.0002713	34.3589999676
1010.0	0.0002715	34.3910000324
1010.0	0.0002715	34.4370000362
1010.0	0.0002718	34.4839999676
1010.0	0.000272	34.5160000324
1010.0	0.000272	34.5620000362
1010.0	0.000272	34.6089999676
1010.0	0.000272	34.6410000324
1010.0	0.000272	34.6870000362
1010.0	0.0002715	34.7339999676
1010.0	0.0002715	34.7660000324
1010.0	0.0002715	34.8120000362
1010.0	0.0002718	34.8589999676
1010.0	0.0002718	34.8910000324
1010.0	0.0002718	34.9370000362
1010.0	0.000272	34.9689998627
1020.0	0.000278	35.25
1020.0	0.00028	35.2969999313
1020.0	0.0002815	35.3439998627
1020.0	0.000283	35.375
1020.0	0.0002843	35.4219999313
1020.0	0.0002853	35.4530000687
1020.0	0.0002863	35.5
1020.0	0.0002865	35.5469999313
1020.0	0.000287	35.5780000687
1020.0	0.0002875	35.625
1020.0	0.0002878	35.6719999313
1020.0	0.000288	35.7030000687
1020.0	0.000288	35.75
1020.0	0.0002883	35.7809998989
1020.0	0.000288	35.8280000687
1020.0	0.000288	35.875
1020.0	0.000288	35.9059998989
1020.0	0.000288	35.9530000687
1020.0	0.000288	36.0
1020.0	0.000288	36.0309998989
1020.0	0.000288	36.0780000687
1020.0	0.000288	36.1089999676
1020.0	0.000288	36.1559998989
1020.0	0.000288	36.2030000687
1020.0	0.000288	36.2339999676
1020.0	0.000288	36.2809998989
1020.0	0.0002878	36.3280000687
1020.0	0.000288	36.3589999676
1020.0	0.000288	36.4059998989
1020.0	0.0002875	36.4530000687
1020.0	0.0002875	36.4839999676
1020.0	0.0002875	36.5309998989
1020.0	0.000287	36.5620000362
1020.0	0.000287	36.6089999676
1020.0	0.0002868	36.6559998989
1020.0	0.0002868	36.6870000362
1020.0	0.0002865	36.7339999676
1030.0	0.0002938	37.0160000324
1030.0	0.0002958	37.0620000362
1030.0	0.0002978	37.0939998627
1030.0	0.0002993	37.1410000324
1030.0	0.0003005	37.1870000362
1030.0	0.0003015	37.2189998627
1030.0	0.000302	37.2660000324
1030.0	0.0003025	37.3120000362
1030.0	0.000303	37.3439998627
1030.0	0.0003038	37.3910000324
1030.0	0.0003033	37.4219999313
1030.0	0.0003038	37.4689998627
1030.0	0.0003033	37.5160000324
1030.0	0.000303	37.5620000362
1030.0	0.000303	37.5939998627
1030.0	0.000303	37.6410000324
1030.0	0.000303	37.6719999313
1030.0	0.0003038	37.7189998627
1030.0	0.000304	37.7660000324
1030.0	0.000304	37.7969999313
1030.0	0.0003043	37.8439998627
1030.0	0.0003043	37.8910000324
1030.0	0.0003043	37.9219999313
1030.0	0.0003043	37.9689998627
1030.0	0.0003043	38.0
1030.0	0.0003043	38.0469999313
1030.0	0.0003043	38.0939998627
1030.0	0.0003045	38.125
1030.0	0.0003043	38.1719999313
1030.0	0.0003043	38.2189998627
1030.0	0.0003043	38.25
1030.0	0.0003045	38.2969999313
1030.0	0.0003045	38.3280000687
1030.0	0.0003043	38.375
1030.0	0.0003043	38.4219999313
1030.0	0.000304	38.4530000687
1030.0	0.000304	38.5
1040.0	0.0003108	38.7809998989
1040.0	0.0003133	38.8280000687
1040.0	0.0003153	38.8589999676
1040.0	0.0003168	38.9059998989
1040.0	0.000318	38.9530000687
1040.0	0.0003188	39.0
1040.0	0.0003193	39.0309998989
1040.0	0.0003195	39.0780000687
1040.0	0.0003195	39.1089999676
1040.0	0.0003195	39.1559998989
1040.0	0.0003195	39.2030000687
1040.0	0.00032	39.2339999676
1040.0	0.0003203	39.2809998989
1040.0	0.0003203	39.3280000687
1040.0	0.0003203	39.3589999676
1040.0	0.0003205	39.4059998989
1040.0	0.0003203	39.4370000362
1040.0	0.0003205	39.4839999676
1040.0	0.0003205	39.5309998989
1040.0	0.0003208	39.5620000362
1040.0	0.0003208	39.6089999676
1040.0	0.0003213	39.6559998989
1040.0	0.0003208	39.6870000362
1040.0	0.0003213	39.7339999676
1040.0	0.0003208	39.7660000324
1040.0	0.0003208	39.8120000362
1040.0	0.0003208	39.8589999676
1040.0	0.0003205	39.8910000324
1040.0	0.0003203	39.9370000362
1040.0	0.0003203	39.9839999676
1040.0	0.0003203	40.0160000324
1040.0	0.0003208	40.0620000362
1040.0	0.0003213	40.1089999676
1040.0	0.0003213	40.1410000324
1040.0	0.0003208	40.1870000362
1040.0	0.0003205	40.2189998627
1040.0	0.0003203	40.2660000324
1050.0	0.000327	40.5469999313
1050.0	0.0003293	40.5780000687
1050.0	0.0003315	40.625
1050.0	0.000333	40.6719999313
1050.0	0.0003343	40.7189998627
1050.0	0.000335	40.75
1050.0	0.0003355	40.7969999313
1050.0	0.0003363	40.8439998627
1050.0	0.0003365	40.875
1050.0	0.000337	40.9219999313
1050.0	0.0003375	40.9530000687
1050.0	0.0003375	41.0
1050.0	0.0003378	41.0469999313
1050.0	0.0003375	41.0780000687
1050.0	0.0003375	41.125
1050.0	0.0003375	41.1719999313
1050.0	0.0003378	41.2030000687
1050.0	0.0003375	41.25
1050.0	0.0003375	41.2809998989
1050.0	0.0003375	41.3280000687
1050.0	0.0003375	41.375
1050.0	0.000337	41.4059998989
1050.0	0.000337	41.4530000687
1050.0	0.0003375	41.5
1050.0	0.0003378	41.5309998989
1050.0	0.0003375	41.5780000687
1050.0	0.0003378	41.6089999676
1050.0	0.000338	41.6559998989
1050.0	0.000338	41.7030000687
1050.0	0.000338	41.75
1050.0	0.000338	41.7809998989
1050.0	0.0003383	41.8280000687
1050.0	0.0003383	41.875
1050.0	0.0003383	41.9059998989
1050.0	0.000338	41.9530000687
1050.0	0.0003378	41.9839999676
1050.0	0.0003378	42.0309998989
1060.0	0.0003443	42.3120000362
1060.0	0.0003465	42.3589999676
1060.0	0.000348	42.3910000324
1060.0	0.0003493	42.4370000362
1060.0	0.0003505	42.4689998627
1060.0	0.0003513	42.5160000324
1060.0	0.000352	42.5620000362
1060.0	0.0003525	42.5939998627
1060.0	0.000353	42.6410000324
1060.0	0.0003533	42.6870000362
1060.0	0.0003538	42.7189998627
1060.0	0.0003538	42.7660000324
1060.0	0.0003533	42.7969999313
1060.0	0.0003538	42.8439998627
1060.0	0.0003538	42.8910000324
1060.0	0.000354	42.9219999313
1060.0	0.000354	42.9689998627
1060.0	0.0003543	43.0160000324
1060.0	0.000354	43.0469999313
1060.0	0.000354	43.0939998627
1060.0	0.0003543	43.125
1060.0	0.0003543	43.1719999313
1060.0	0.0003543	43.2189998627
1060.0	0.0003543	43.25
1060.0	0.0003543	43.2969999313
1060.0	0.0003543	43.3439998627
1060.0	0.0003545	43.375
1060.0	0.0003543	43.4219999313
1060.0	0.000354	43.4530000687
1060.0	0.0003538	43.5
1060.0	0.0003538	43.5469999313
1060.0	0.0003538	43.5780000687
1060.0	0.0003533	43.625
1060.0	0.000353	43.6719999313
1060.0	0.000353	43.7030000687
1060.0	0.0003533	43.75
1060.0	0.0003538	43.7969999313
1070.0	0.0003605	44.0620000362
1070.0	0.0003625	44.1089999676
1070.0	0.000364	44.1559998989
1070.0	0.0003653	44.1870000362
1070.0	0.0003663	44.2339999676
1070.0	0.000367	44.2809998989
1070.0	0.0003675	44.3120000362
1070.0	0.000368	44.3589999676
1070.0	0.0003683	44.3910000324
1070.0	0.000369	44.4370000362
1070.0	0.0003693	44.4839999676
1070.0	0.0003695	44.5160000324
1070.0	0.00037	44.5620000362
1070.0	0.00037	44.6089999676
1070.0	0.0003695	44.6410000324
1070.0	0.000369	44.6870000362
1070.0	0.0003688	44.7189998627
1070.0	0.000369	44.7660000324
1070.0	0.000369	44.8120000362
1070.0	0.0003693	44.8439998627
1070.0	0.0003695	44.8910000324
1070.0	0.00037	44.9370000362
1070.0	0.00037	44.9839999676
1070.0	0.0003703	45.0160000324
1070.0	0.00037	45.0620000362
1070.0	0.00037	45.0939998627
1070.0	0.00037	45.1410000324
1070.0	0.00037	45.1870000362
1070.0	0.0003703	45.2189998627
1070.0	0.0003703	45.2660000324
1070.0	0.0003703	45.3120000362
1070.0	0.0003705	45.3439998627
1070.0	0.0003703	45.3910000324
1070.0	0.0003703	45.4219999313
1070.0	0.0003703	45.4689998627
1070.0	0.0003703	45.5160000324
1070.0	0.0003703	45.5469999313
1080.0	0.0003755	45.8280000687
1080.0	0.0003775	45.875
1080.0	0.000379	45.9059998989
1080.0	0.00038	45.9530000687
1080.0	0.0003808	46.0
1080.0	0.000382	46.0309998989
1080.0	0.000383	46.0780000687
1080.0	0.0003838	46.125
1080.0	0.000384	46.1559998989
1080.0	0.0003843	46.2030000687
1080.0	0.0003845	46.2339999676
1080.0	0.0003845	46.2809998989
1080.0	0.000385	46.3280000687
1080.0	0.000385	46.3589999676
1080.0	0.0003845	46.4059998989
1080.0	0.000385	46.4530000687
1080.0	0.000385	46.4839999676
1080.0	0.000385	46.5309998989
1080.0	0.000385	46.5620000362
1080.0	0.000385	46.6089999676
1080.0	0.000385	46.6559998989
1080.0	0.0003853	46.6870000362
1080.0	0.0003853	46.7339999676
1080.0	0.0003853	46.7809998989
1080.0	0.0003855	46.8120000362
1080.0	0.0003853	46.8589999676
1080.0	0.0003853	46.9059998989
1080.0	0.000385	46.9370000362
1080.0	0.0003853	46.9839999676
1080.0	0.0003855	47.0160000324
1080.0	0.0003855	47.0620000362
1080.0	0.0003855	47.1089999676
1080.0	0.0003855	47.1410000324
1080.0	0.0003853	47.1870000362
1080.0	0.0003853	47.2339999676
1080.0	0.0003853	47.2660000324
1080.0	0.000385	47.3120000362
1090.0	0.00039	47.5780000687
1090.0	0.0003915	47.625
1090.0	0.0003933	47.6719999313
1090.0	0.0003943	47.7030000687
1090.0	0.0003953	47.75
1090.0	0.0003955	47.7969999313
1090.0	0.0003963	47.8280000687
1090.0	0.0003968	47.875
1090.0	0.000397	47.9059998989
1090.0	0.000397	47.9530000687
1090.0	0.0003968	48.0
1090.0	0.0003968	48.0469999313
1090.0	0.0003968	48.0780000687
1090.0	0.000397	48.125
1090.0	0.000397	48.1559998989
1090.0	0.000397	48.2030000687
1090.0	0.000397	48.25
1090.0	0.000397	48.2809998989
1090.0	0.0003975	48.3280000687
1090.0	0.0003978	48.375
1090.0	0.0003978	48.4059998989
1090.0	0.0003975	48.4530000687
1090.0	0.0003978	48.4839999676
1090.0	0.0003978	48.5309998989
1090.0	0.000398	48.5780000687
1090.0	0.0003978	48.625
1090.0	0.0003978	48.6559998989
1090.0	0.0003978	48.7030000687
1090.0	0.0003978	48.75
1090.0	0.0003978	48.7809998989
1090.0	0.000398	48.8280000687
1090.0	0.000398	48.8589999676
1090.0	0.0003978	48.9059998989
1090.0	0.0003983	48.9530000687
1090.0	0.0003988	48.9839999676
1090.0	0.0003988	49.0309998989
1090.0	0.000399	49.0780000687
1100.0	0.000402	49.3439998627
1100.0	0.0004038	49.3910000324
1100.0	0.000405	49.4219999313
1100.0	0.0004058	49.4689998627
1100.0	0.0004063	49.5160000324
1100.0	0.0004065	49.5469999313
1100.0	0.000407	49.5939998627
1100.0	0.0004075	49.6410000324
1100.0	0.0004078	49.6719999313
1100.0	0.000408	49.7189998627
1100.0	0.0004083	49.75
1100.0	0.0004088	49.7969999313
1100.0	0.0004088	49.8439998627
1100.0	0.000409	49.875
1100.0	0.000409	49.9219999313
1100.0	0.0004093	49.9689998627
1100.0	0.0004093	50.0
1100.0	0.0004095	50.0469999313
1100.0	0.0004095	50.0780000687
1100.0	0.00041	50.125
1100.0	0.00041	50.1719999313
1100.0	0.00041	50.2030000687
1100.0	0.0004095	50.25
1100.0	0.0004093	50.2969999313
1100.0	0.0004095	50.3280000687
1100.0	0.00041	50.375
1100.0	0.00041	50.4219999313
1100.0	0.00041	50.4530000687
1100.0	0.00041	50.5
1100.0	0.00041	50.5309998989
1100.0	0.0004103	50.5780000687
1100.0	0.0004103	50.625
1100.0	0.00041	50.6559998989
1100.0	0.00041	50.7030000687
1100.0	0.0004095	50.75
1100.0	0.0004093	50.7809998989
1100.0	0.0004093	50.8280000687
1110.0	0.0004128	51.0939998627
1110.0	0.0004138	51.1410000324
1110.0	0.0004143	51.1719999313
1110.0	0.0004153	51.2189998627
1110.0	0.0004155	51.2660000324
1110.0	0.0004158	51.2969999313
1110.0	0.0004163	51.3439998627
1110.0	0.0004163	51.3910000324
1110.0	0.0004165	51.4219999313
1110.0	0.0004168	51.4689998627
1110.0	0.000417	51.5
1110.0	0.0004175	51.5469999313
1110.0	0.0004178	51.5939998627
1110.0	0.0004178	51.625
1110.0	0.000418	51.6719999313
1110.0	0.000418	51.7189998627
1110.0	0.000418	51.75
1110.0	0.000418	51.7969999313
1110.0	0.0004178	51.8280000687
1110.0	0.0004178	51.875
1110.0	0.0004178	51.9219999313
1110.0	0.000418	51.9530000687
1110.0	0.000418	52.0
1110.0	0.0004178	52.0469999313
1110.0	0.000418	52.0780000687
1110.0	0.000418	52.125
1110.0	0.0004188	52.1559998989
1110.0	0.000418	52.2030000687
1110.0	0.0004178	52.25
1110.0	0.0004178	52.2809998989
1110.0	0.0004178	52.3280000687
1110.0	0.0004178	52.375
1110.0	0.0004178	52.4059998989
1110.0	0.0004178	52.4530000687
1110.0	0.000418	52.5
1110.0	0.000418	52.5309998989
1110.0	0.0004188	52.5780000687
1120.0	0.0004208	52.8439998627
1120.0	0.0004218	52.8910000324
1120.0	0.0004225	52.9219999313
1120.0	0.000423	52.9689998627
1120.0	0.000423	53.0160000324
1120.0	0.0004233	53.0469999313
1120.0	0.0004238	53.0939998627
1120.0	0.0004238	53.1410000324
1120.0	0.0004238	53.1719999313
1120.0	0.0004238	53.2189998627
1120.0	0.0004238	53.25
1120.0	0.000424	53.2969999313
1120.0	0.0004243	53.3439998627
1120.0	0.0004245	53.375
1120.0	0.0004245	53.4219999313
1120.0	0.0004245	53.4689998627
1120.0	0.0004243	53.5
1120.0	0.0004243	53.5469999313
1120.0	0.0004243	53.5780000687
1120.0	0.0004243	53.625
1120.0	0.000424	53.6719999313
1120.0	0.000424	53.7030000687
1120.0	0.000424	53.75
1120.0	0.000424	53.7969999313
1120.0	0.0004243	53.8280000687
1120.0	0.0004243	53.875
1120.0	0.0004243	53.9219999313
1120.0	0.0004243	53.9530000687
1120.0	0.000424	54.0
1120.0	0.000424	54.0469999313
1120.0	0.0004243	54.0780000687
1120.0	0.000424	54.125
1120.0	0.000424	54.1719999313
1120.0	0.000424	54.2030000687
1120.0	0.0004238	54.25
1120.0	0.0004233	54.2809998989
1120.0	0.0004238	54.3280000687
1130.0	0.0004255	54.5939998627
1130.0	0.0004258	54.625
1130.0	0.0004258	54.6719999313
1130.0	0.0004263	54.7189998627
1130.0	0.0004265	54.75
1130.0	0.0004268	54.7969999313
1130.0	0.000427	54.8439998627
1130.0	0.0004275	54.875
1130.0	0.0004275	54.9219999313
1130.0	0.0004275	54.9689998627
1130.0	0.0004278	55.0
1130.0	0.0004278	55.0469999313
1130.0	0.0004278	55.0780000687
1130.0	0.0004278	55.125
1130.0	0.0004278	55.1719999313
1130.0	0.0004278	55.2030000687
1130.0	0.0004278	55.25
1130.0	0.0004278	55.2969999313
1130.0	0.0004278	55.3280000687
1130.0	0.0004275	55.375
1130.0	0.0004275	55.4059998989
1130.0	0.0004275	55.4530000687
1130.0	0.0004275	55.5
1130.0	0.0004275	55.5309998989
1130.0	0.0004275	55.5780000687
1130.0	0.0004275	55.625
1130.0	0.0004278	55.6559998989
1130.0	0.0004278	55.7030000687
1130.0	0.000428	55.7339999676
1130.0	0.000428	55.7809998989
1130.0	0.0004278	55.8280000687
1130.0	0.0004275	55.8589999676
1130.0	0.0004275	55.9059998989
1130.0	0.0004275	55.9530000687
1130.0	0.000427	55.9839999676
1130.0	0.000427	56.0309998989
1130.0	0.0004268	56.0620000362
1140.0	0.0004268	56.3439998627
1140.0	0.0004275	56.375
1140.0	0.0004278	56.4219999313
1140.0	0.000428	56.4530000687
1140.0	0.000428	56.5
1140.0	0.0004283	56.5469999313
1140.0	0.0004288	56.5780000687
1140.0	0.0004283	56.625
1140.0	0.0004283	56.6719999313
1140.0	0.000428	56.7030000687
1140.0	0.000428	56.75
1140.0	0.0004278	56.7809998989
1140.0	0.0004275	56.8280000687
1140.0	0.0004275	56.875
1140.0	0.000428	56.9059998989
1140.0	0.0004288	56.9530000687
1140.0	0.000429	57.0
1140.0	0.0004293	57.0309998989
1140.0	0.000429	57.0780000687
1140.0	0.000429	57.125
1140.0	0.0004288	57.1559998989
1140.0	0.0004288	57.2030000687
1140.0	0.000428	57.2339999676
1140.0	0.0004278	57.2809998989
1140.0	0.0004278	57.3280000687
1140.0	0.000428	57.3589999676
1140.0	0.0004278	57.4059998989
1140.0	0.0004275	57.4530000687
1140.0	0.0004278	57.4839999676
1140.0	0.0004278	57.5309998989
1140.0	0.000428	57.5620000362
1140.0	0.0004278	57.6089999676
1140.0	0.0004278	57.6559998989
1140.0	0.000428	57.6870000362
1140.0	0.000428	57.7339999676
1140.0	0.0004278	57.7809998989
1140.0	0.0004278	57.8120000362
1150.0	0.0004268	58.0939998627
1150.0	0.0004265	58.125
1150.0	0.0004268	58.1719999313
1150.0	0.000427	58.2030000687
1150.0	0.000427	58.25
1150.0	0.000427	58.2969999313
1150.0	0.0004275	58.3280000687
1150.0	0.0004278	58.375
1150.0	0.0004275	58.4219999313
1150.0	0.0004278	58.4530000687
1150.0	0.0004278	58.5
1150.0	0.0004275	58.5309998989
1150.0	0.0004275	58.5780000687
1150.0	0.0004275	58.625
1150.0	0.0004275	58.6559998989
1150.0	0.0004275	58.7030000687
1150.0	0.0004275	58.75
1150.0	0.000427	58.7809998989
1150.0	0.000427	58.8280000687
1150.0	0.000427	58.8589999676
1150.0	0.0004275	58.9059998989
1150.0	0.000427	58.9530000687
1150.0	0.000427	58.9839999676
1150.0	0.000427	59.0309998989
1150.0	0.0004268	59.0780000687
1150.0	0.000427	59.1089999676
1150.0	0.000427	59.1559998989
1150.0	0.000427	59.2030000687
1150.0	0.000427	59.2339999676
1150.0	0.000427	59.2809998989
1150.0	0.0004268	59.3120000362
1150.0	0.0004268	59.3589999676
1150.0	0.0004268	59.4059998989
1150.0	0.000427	59.4370000362
1150.0	0.0004275	59.4839999676
1150.0	0.0004275	59.5309998989
1150.0	0.0004275	59.5620000362
1160.0	0.0004258	59.8280000687
1160.0	0.0004263	59.875
1160.0	0.0004263	59.9219999313
1160.0	0.0004263	59.9530000687
1160.0	0.0004258	60.0
1160.0	0.0004258	60.0469999313
1160.0	0.0004258	60.0780000687
1160.0	0.0004258	60.125
1160.0	0.0004255	60.1719999313
1160.0	0.0004255	60.2030000687
1160.0	0.0004255	60.25
1160.0	0.0004255	60.2809998989
1160.0	0.0004255	60.3280000687
1160.0	0.0004255	60.375
1160.0	0.0004253	60.4059998989
1160.0	0.0004253	60.4530000687
1160.0	0.0004255	60.5
1160.0	0.0004255	60.5309998989
1160.0	0.0004255	60.5780000687
1160.0	0.0004255	60.6089999676
1160.0	0.0004255	60.6559998989
1160.0	0.0004258	60.7030000687
1160.0	0.0004255	60.7339999676
1160.0	0.0004258	60.7809998989
1160.0	0.0004263	60.8280000687
1160.0	0.0004263	60.8589999676
1160.0	0.0004265	60.9059998989
1160.0	0.0004265	60.9370000362
1160.0	0.0004258	60.9839999676
1160.0	0.0004258	61.0309998989
1160.0	0.0004255	61.0620000362
1160.0	0.000425	61.1089999676
1160.0	0.000425	61.1559998989
1160.0	0.000425	61.2030000687
1160.0	0.0004253	61.2339999676
1160.0	0.000425	61.2809998989
1160.0	0.0004245	61.3120000362
1170.0	0.000425	61.5780000687
1170.0	0.0004245	61.625
1170.0	0.0004245	61.6719999313
1170.0	0.0004245	61.7030000687
1170.0	0.0004243	61.75
1170.0	0.0004243	61.7969999313
1170.0	0.0004243	61.8280000687
1170.0	0.0004243	61.875
1170.0	0.0004243	61.9219999313
1170.0	0.0004243	61.9530000687
1170.0	0.0004245	62.0
1170.0	0.0004245	62.0309998989
1170.0	0.0004245	62.0780000687
1170.0	0.0004245	62.125
1170.0	0.0004243	62.1559998989
1170.0	0.000424	62.2030000687
1170.0	0.000424	62.25
1170.0	0.000424	62.2809998989
1170.0	0.000424	62.3280000687
1170.0	0.0004243	62.3589999676
1170.0	0.0004243	62.4059998989
1170.0	0.0004243	62.4530000687
1170.0	0.0004245	62.4839999676
1170.0	0.000425	62.5309998989
1170.0	0.0004253	62.5780000687
1170.0	0.0004245	62.6089999676
1170.0	0.0004245	62.6559998989
1170.0	0.0004243	62.7030000687
1170.0	0.0004245	62.7339999676
1170.0	0.0004253	62.7809998989
1170.0	0.0004255	62.8120000362
1170.0	0.0004255	62.8589999676
1170.0	0.0004255	62.9059998989
1170.0	0.0004255	62.9370000362
1170.0	0.0004255	62.9839999676
1170.0	0.0004253	63.0309998989
1170.0	0.000425	63.0620000362
1180.0	0.0004243	63.3280000687
1180.0	0.0004243	63.375
1180.0	0.0004243	63.4219999313
1180.0	0.000424	63.4530000687
1180.0	0.0004243	63.5
1180.0	0.000424	63.5469999313
1180.0	0.000424	63.5780000687
1180.0	0.000424	63.625
1180.0	0.0004238	63.6719999313
1180.0	0.000424	63.7030000687
1180.0	0.000424	63.75
1180.0	0.000424	63.7809998989
1180.0	0.0004243	63.8280000687
1180.0	0.0004243	63.875
1180.0	0.0004238	63.9059998989
1180.0	0.0004238	63.9530000687
1180.0	0.0004238	64.0
1180.0	0.0004238	64.0309998989
1180.0	0.000424	64.0780000687
1180.0	0.000424	64.1089999676
1180.0	0.000424	64.1559998989
1180.0	0.000424	64.2030000687
1180.0	0.0004243	64.2339999676
1180.0	0.0004243	64.2809998989
1180.0	0.000424	64.3280000687
1180.0	0.000424	64.3589999676
1180.0	0.000424	64.4059998989
1180.0	0.0004238	64.4370000362
1180.0	0.0004238	64.4839999676
1180.0	0.0004233	64.5309998989
1180.0	0.000423	64.5620000362
1180.0	0.000423	64.6089999676
1180.0	0.000423	64.6559998989
1180.0	0.000423	64.6870000362
1180.0	0.0004238	64.7339999676
1180.0	0.0004238	64.7809998989
1180.0	0.000424	64.8120000362
1190.0	0.0004245	65.0780000687
1190.0	0.000424	65.125
1190.0	0.000424	65.1719999313
1190.0	0.000424	65.2030000687
1190.0	0.0004238	65.25
1190.0	0.0004238	65.2969999313
1190.0	0.000424	65.3280000687
1190.0	0.0004243	65.375
1190.0	0.0004245	65.4059998989
1190.0	0.0004245	65.4530000687
1190.0	0.000425	65.5
1190.0	0.000425	65.5309998989
1190.0	0.000425	65.5780000687
1190.0	0.0004245	65.625
1190.0	0.000425	65.6719999313
1190.0	0.0004245	65.7030000687
1190.0	0.0004243	65.75
1190.0	0.0004243	65.7809998989
1190.0	0.0004243	65.8280000687
1190.0	0.000424	65.875
1190.0	0.0004238	65.9059998989
1190.0	0.000424	65.9530000687
1190.0	0.000424	66.0
1190.0	0.0004243	66.0309998989
1190.0	0.0004245	66.0780000687
1190.0	0.000425	66.1089999676
1190.0	0.000425	66.1559998989
1190.0	0.0004243	66.2030000687
1190.0	0.0004243	66.2339999676
1190.0	0.000424	66.2809998989
1190.0	0.0004243	66.3280000687
1190.0	0.0004243	66.3589999676
1190.0	0.0004243	66.4059998989
1190.0	0.0004243	66.4530000687
1190.0	0.0004243	66.4839999676
1190.0	0.0004243	66.5309998989
1190.0	0.0004243	66.5620000362
1200.0	0.0004258	66.8439998627
1200.0	0.0004258	66.875
1200.0	0.0004263	66.9219999313
1200.0	0.0004263	66.9689998627
1200.0	0.0004265	67.0
1200.0	0.0004268	67.0469999313
1200.0	0.0004268	67.0780000687
1200.0	0.0004268	67.125
1200.0	0.000427	67.1719999313
1200.0	0.0004275	67.2030000687
1200.0	0.0004275	67.25
1200.0	0.000427	67.2969999313
1200.0	0.0004268	67.3280000687
1200.0	0.0004268	67.375
1200.0	0.0004268	67.4059998989
1200.0	0.0004268	67.4530000687
1200.0	0.0004268	67.5
1200.0	0.000427	67.5309998989
1200.0	0.000427	67.5780000687
1200.0	0.000427	67.625
1200.0	0.0004268	67.6559998989
1200.0	0.0004265	67.7030000687
1200.0	0.0004268	67.75
1200.0	0.0004268	67.7809998989
1200.0	0.000427	67.8280000687
1200.0	0.0004275	67.8589999676
1200.0	0.000427	67.9059998989
1200.0	0.0004268	67.9530000687
1200.0	0.0004268	67.9839999676
1200.0	0.0004265	68.0309998989
1200.0	0.0004268	68.0780000687
1200.0	0.0004268	68.1089999676
1200.0	0.0004268	68.1559998989
1200.0	0.0004268	68.1870000362
1200.0	0.0004265	68.2339999676
1200.0	0.0004263	68.2809998989
1200.0	0.0004265	68.3120000362
1210.0	0.0004268	68.5780000687
1210.0	0.0004275	68.625
1210.0	0.0004278	68.6719999313
1210.0	0.000428	68.7030000687
1210.0	0.000429	68.75
1210.0	0.0004295	68.7969999313
1210.0	0.00043	68.8280000687
1210.0	0.0004303	68.875
1210.0	0.0004305	68.9059998989
1210.0	0.0004303	68.9530000687
1210.0	0.00043	69.0
1210.0	0.0004303	69.0309998989
1210.0	0.0004305	69.0780000687
1210.0	0.0004305	69.125
1210.0	0.0004305	69.1559998989
1210.0	0.0004305	69.2030000687
1210.0	0.0004303	69.2339999676
1210.0	0.0004303	69.2809998989
1210.0	0.0004303	69.3280000687
1210.0	0.0004303	69.3589999676
1210.0	0.0004303	69.4059998989
1210.0	0.00043	69.4530000687
1210.0	0.00043	69.4839999676
1210.0	0.00043	69.5309998989
1210.0	0.00043	69.5780000687
1210.0	0.0004303	69.6089999676
1210.0	0.0004303	69.6559998989
1210.0	0.0004305	69.6870000362
1210.0	0.0004303	69.7339999676
1210.0	0.0004305	69.7809998989
1210.0	0.0004303	69.8120000362
1210.0	0.0004305	69.8589999676
1210.0	0.0004305	69.9059998989
1210.0	0.0004305	69.9370000362
1210.0	0.0004303	69.9839999676
1210.0	0.0004303	70.0160000324
1210.0	0.00043	70.0620000362
1220.0	0.0004308	70.3280000687
1220.0	0.0004315	70.375
1220.0	0.0004318	70.4059998989
1220.0	0.0004325	70.4530000687
1220.0	0.000433	70.5
1220.0	0.0004338	70.5309998989
1220.0	0.000434	70.5780000687
1220.0	0.0004343	70.625
1220.0	0.0004343	70.6559998989
1220.0	0.0004345	70.7030000687
1220.0	0.0004345	70.7339999676
1220.0	0.0004345	70.7809998989
1220.0	0.000435	70.8280000687
1220.0	0.000435	70.8589999676
1220.0	0.000435	70.9059998989
1220.0	0.0004345	70.9530000687
1220.0	0.0004345	70.9839999676
1220.0	0.0004343	71.0309998989
1220.0	0.0004345	71.0620000362
1220.0	0.0004345	71.1089999676
1220.0	0.000435	71.1559998989
1220.0	0.000435	71.1870000362
1220.0	0.000435	71.2339999676
1220.0	0.000435	71.2809998989
1220.0	0.000435	71.3120000362
1220.0	0.000435	71.3589999676
1220.0	0.000435	71.3910000324
1220.0	0.0004353	71.4370000362
1220.0	0.0004355	71.4839999676
1220.0	0.0004355	71.5160000324
1220.0	0.0004353	71.5620000362
1220.0	0.000435	71.6089999676
1220.0	0.000435	71.6410000324
1220.0	0.000435	71.6870000362
1220.0	0.000435	71.7339999676
1220.0	0.000435	71.7660000324
1220.0	0.000435	71.8120000362
1230.0	0.0004368	72.0780000687
1230.0	0.0004378	72.1089999676
1230.0	0.0004388	72.1559998989
1230.0	0.0004393	72.2030000687
1230.0	0.00044	72.2339999676
1230.0	0.0004403	72.2809998989
1230.0	0.0004405	72.3280000687
1230.0	0.0004408	72.3589999676
1230.0	0.0004415	72.4059998989
1230.0	0.0004415	72.4530000687
1230.0	0.0004415	72.4839999676
1230.0	0.0004413	72.5309998989
1230.0	0.0004415	72.5620000362
1230.0	0.0004418	72.6089999676
1230.0	0.0004415	72.6559998989
1230.0	0.0004415	72.6870000362
1230.0	0.0004415	72.7339999676
1230.0	0.0004413	72.7809998989
1230.0	0.0004415	72.8120000362
1230.0	0.0004413	72.8589999676
1230.0	0.0004408	72.8910000324
1230.0	0.0004413	72.9370000362
1230.0	0.0004408	72.9839999676
1230.0	0.0004413	73.0160000324
1230.0	0.0004415	73.0620000362
1230.0	0.0004418	73.1089999676
1230.0	0.000442	73.1410000324
1230.0	0.000442	73.1870000362
1230.0	0.000442	73.2189998627
1230.0	0.000442	73.2660000324
1230.0	0.0004425	73.3120000362
1230.0	0.000442	73.3439998627
1230.0	0.0004418	73.3910000324
1230.0	0.0004415	73.4370000362
1230.0	0.0004415	73.4689998627
1230.0	0.0004418	73.5160000324
1230.0	0.0004415	73.5469999313
1240.0	0.0004445	73.8280000687
1240.0	0.0004458	73.8589999676
1240.0	0.000447	73.9059998989
1240.0	0.0004478	73.9370000362
1240.0	0.0004483	73.9839999676
1240.0	0.000449	74.0309998989
1240.0	0.0004493	74.0780000687
1240.0	0.0004495	74.1089999676
1240.0	0.00045	74.1559998989
1240.0	0.00045	74.2030000687
1240.0	0.0004495	74.2339999676
1240.0	0.0004495	74.2809998989
1240.0	0.0004493	74.3120000362
1240.0	0.00045	74.3589999676
1240.0	0.00045	74.4059998989
1240.0	0.00045	74.4370000362
1240.0	0.0004503	74.4839999676
1240.0	0.0004505	74.5309998989
1240.0	0.0004505	74.5620000362
1240.0	0.0004508	74.6089999676
1240.0	0.0004513	74.6410000324
1240.0	0.0004515	74.6870000362
1240.0	0.0004513	74.7339999676
1240.0	0.0004505	74.7660000324
1240.0	0.0004505	74.8120000362
1240.0	0.0004503	74.8589999676
1240.0	0.00045	74.8910000324
1240.0	0.00045	74.9370000362
1240.0	0.00045	74.9689998627
1240.0	0.0004503	75.0160000324
1240.0	0.0004505	75.0620000362
1240.0	0.0004508	75.0939998627
1240.0	0.0004508	75.1410000324
1240.0	0.0004505	75.1870000362
1240.0	0.0004505	75.2189998627
1240.0	0.0004505	75.2660000324
1240.0	0.0004505	75.2969999313
1250.0	0.0004543	75.5780000687
1250.0	0.0004553	75.6089999676
1250.0	0.0004563	75.6559998989
1250.0	0.0004568	75.6870000362
1250.0	0.0004578	75.7339999676
1250.0	0.000458	75.7809998989
1250.0	0.0004588	75.8120000362
1250.0	0.000459	75.8589999676
1250.0	0.0004593	75.9059998989
1250.0	0.0004595	75.9370000362
1250.0	0.0004593	75.9839999676
1250.0	0.0004593	76.0309998989
1250.0	0.0004595	76.0620000362
1250.0	0.0004593	76.1089999676
1250.0	0.0004593	76.1410000324
1250.0	0.0004593	76.1870000362
1250.0	0.0004595	76.2339999676
1250.0	0.0004593	76.2660000324
1250.0	0.0004593	76.3120000362
1250.0	0.0004593	76.3589999676
1250.0	0.000459	76.3910000324
1250.0	0.0004593	76.4370000362
1250.0	0.0004593	76.4839999676
1250.0	0.0004595	76.5160000324
1250.0	0.00046	76.5620000362
1250.0	0.00046	76.6089999676
1250.0	0.00046	76.6410000324
1250.0	0.00046	76.6870000362
1250.0	0.0004603	76.7189998627
1250.0	0.0004605	76.7660000324
1250.0	0.0004605	76.8120000362
1250.0	0.0004605	76.8439998627
1250.0	0.0004608	76.8910000324
1250.0	0.0004613	76.9370000362
1250.0	0.0004613	76.9689998627
1250.0	0.0004608	77.0160000324
1250.0	0.0004608	77.0469999313
1260.0	0.0004625	77.3280000687
1260.0	0.0004638	77.3589999676
1260.0	0.0004643	77.4059998989
1260.0	0.0004653	77.4370000362
1260.0	0.0004663	77.4839999676
1260.0	0.0004665	77.5309998989
1260.0	0.000467	77.5780000687
1260.0	0.0004675	77.6089999676
1260.0	0.0004675	77.6559998989
1260.0	0.0004678	77.6870000362
1260.0	0.0004678	77.7339999676
1260.0	0.0004678	77.7809998989
1260.0	0.0004678	77.8120000362
1260.0	0.0004678	77.8589999676
1260.0	0.0004678	77.9059998989
1260.0	0.0004675	77.9370000362
1260.0	0.000468	77.9839999676
1260.0	0.000468	78.0160000324
1260.0	0.0004678	78.0620000362
1260.0	0.0004675	78.1089999676
1260.0	0.000467	78.1410000324
1260.0	0.0004675	78.1870000362
1260.0	0.000467	78.2339999676
1260.0	0.0004675	78.2660000324
1260.0	0.0004678	78.3120000362
1260.0	0.0004678	78.3589999676
1260.0	0.000468	78.3910000324
1260.0	0.000468	78.4370000362
1260.0	0.000468	78.4689998627
1260.0	0.0004683	78.5160000324
1260.0	0.0004683	78.5620000362
1260.0	0.000468	78.5939998627
1260.0	0.000468	78.6410000324
1260.0	0.000468	78.6870000362
1260.0	0.000468	78.7189998627
1260.0	0.0004678	78.7660000324
1260.0	0.0004678	78.8120000362
1270.0	0.0004703	79.0780000687
1270.0	0.0004715	79.1089999676
1270.0	0.000472	79.1559998989
1270.0	0.0004728	79.2030000687
1270.0	0.0004728	79.25
1270.0	0.000473	79.2809998989
1270.0	0.000473	79.3280000687
1270.0	0.000473	79.3589999676
1270.0	0.0004733	79.4059998989
1270.0	0.0004738	79.4530000687
1270.0	0.000474	79.4839999676
1270.0	0.000474	79.5309998989
1270.0	0.0004743	79.5780000687
1270.0	0.0004743	79.6089999676
1270.0	0.0004745	79.6559998989
1270.0	0.0004743	79.6870000362
1270.0	0.0004743	79.7339999676
1270.0	0.0004743	79.7809998989
1270.0	0.0004745	79.8120000362
1270.0	0.0004745	79.8589999676
1270.0	0.0004743	79.9059998989
1270.0	0.0004743	79.9370000362
1270.0	0.0004743	79.9839999676
1270.0	0.0004743	80.0160000324
1270.0	0.000474	80.0620000362
1270.0	0.0004738	80.1089999676
1270.0	0.0004738	80.1410000324
1270.0	0.0004738	80.1870000362
1270.0	0.000474	80.2339999676
1270.0	0.000474	80.2660000324
1270.0	0.0004738	80.3120000362
1270.0	0.0004733	80.3589999676
1270.0	0.000473	80.3910000324
1270.0	0.0004733	80.4370000362
1270.0	0.0004733	80.4689998627
1270.0	0.0004738	80.5160000324
1270.0	0.0004738	80.5620000362
1280.0	0.0004755	80.8280000687
1280.0	0.0004763	80.8589999676
1280.0	0.000477	80.9059998989
1280.0	0.0004775	80.9530000687
1280.0	0.000478	80.9839999676
1280.0	0.0004788	81.0309998989
1280.0	0.0004788	81.0780000687
1280.0	0.0004788	81.1089999676
1280.0	0.0004788	81.1559998989
1280.0	0.0004788	81.1870000362
1280.0	0.0004788	81.2339999676
1280.0	0.000479	81.2809998989
1280.0	0.000479	81.3120000362
1280.0	0.000479	81.3589999676
1280.0	0.0004788	81.4059998989
1280.0	0.0004788	81.4370000362
1280.0	0.0004783	81.4839999676
1280.0	0.0004783	81.5160000324
1280.0	0.0004783	81.5620000362
1280.0	0.000478	81.6089999676
1280.0	0.000478	81.6410000324
1280.0	0.000478	81.6870000362
1280.0	0.000478	81.7339999676
1280.0	0.0004788	81.7660000324
1280.0	0.0004788	81.8120000362
1280.0	0.000479	81.8439998627
1280.0	0.000479	81.8910000324
1280.0	0.0004793	81.9370000362
1280.0	0.0004793	81.9689998627
1280.0	0.0004793	82.0160000324
1280.0	0.000479	82.0620000362
1280.0	0.000479	82.0939998627
1280.0	0.0004788	82.1410000324
1280.0	0.000478	82.1870000362
1280.0	0.0004783	82.2189998627
1280.0	0.0004783	82.2660000324
1280.0	0.0004783	82.2969999313
1290.0	0.0004805	82.5620000362
1290.0	0.0004813	82.6089999676
1290.0	0.0004813	82.6559998989
1290.0	0.0004818	82.6870000362
1290.0	0.000482	82.7339999676
1290.0	0.0004825	82.7809998989
1290.0	0.0004825	82.8120000362
1290.0	0.000482	82.8589999676
1290.0	0.000482	82.9059998989
1290.0	0.000482	82.9370000362
1290.0	0.0004825	82.9839999676
1290.0	0.0004825	83.0160000324
1290.0	0.0004825	83.0620000362
1290.0	0.0004825	83.1089999676
1290.0	0.0004825	83.1410000324
1290.0	0.0004825	83.1870000362
1290.0	0.0004828	83.2339999676
1290.0	0.0004825	83.2660000324
1290.0	0.000482	83.3120000362
1290.0	0.000482	83.3439998627
1290.0	0.000482	83.3910000324
1290.0	0.000482	83.4370000362
1290.0	0.0004825	83.4689998627
1290.0	0.0004828	83.5160000324
1290.0	0.000483	83.5620000362
1290.0	0.0004833	83.5939998627
1290.0	0.0004833	83.6410000324
1290.0	0.0004833	83.6719999313
1290.0	0.000483	83.7189998627
1290.0	0.000483	83.7660000324
1290.0	0.000483	83.7969999313
1290.0	0.000483	83.8439998627
1290.0	0.000483	83.8910000324
1290.0	0.000483	83.9219999313
1290.0	0.000483	83.9689998627
1290.0	0.0004828	84.0160000324
1290.0	0.0004828	84.0469999313
1300.0	0.0004833	84.3120000362
1300.0	0.0004838	84.3589999676
1300.0	0.0004838	84.4059998989
1300.0	0.000484	84.4370000362
1300.0	0.0004843	84.4839999676
1300.0	0.0004843	84.5309998989
1300.0	0.0004843	84.5620000362
1300.0	0.000484	84.6089999676
1300.0	0.0004843	84.6410000324
1300.0	0.0004843	84.6870000362
1300.0	0.0004838	84.7339999676
1300.0	0.0004838	84.7660000324
1300.0	0.0004838	84.8120000362
1300.0	0.0004838	84.8589999676
1300.0	0.0004838	84.8910000324
1300.0	0.0004833	84.9370000362
1300.0	0.0004838	84.9839999676
1300.0	0.0004838	85.0160000324
1300.0	0.000484	85.0620000362
1300.0	0.000484	85.0939998627
1300.0	0.0004838	85.1410000324
1300.0	0.0004833	85.1870000362
1300.0	0.0004838	85.2339999676
1300.0	0.000484	85.2660000324
1300.0	0.000484	85.3120000362
1300.0	0.000484	85.3439998627
1300.0	0.0004838	85.3910000324
1300.0	0.0004838	85.4370000362
1300.0	0.000484	85.4689998627
1300.0	0.000484	85.5160000324
1300.0	0.0004843	85.5620000362
1300.0	0.000484	85.5939998627
1300.0	0.0004833	85.6410000324
1300.0	0.0004833	85.6719999313
1300.0	0.0004833	85.7189998627
1300.0	0.0004833	85.7660000324
1300.0	0.0004833	85.7969999313
1310.0	0.000482	86.0780000687
1310.0	0.0004813	86.1089999676
1310.0	0.0004808	86.1559998989
1310.0	0.0004805	86.2030000687
1310.0	0.0004803	86.2339999676
1310.0	0.00048	86.2809998989
1310.0	0.00048	86.3120000362
1310.0	0.00048	86.3589999676
1310.0	0.00048	86.4059998989
1310.0	0.0004803	86.4370000362
1310.0	0.0004803	86.4839999676
1310.0	0.00048	86.5309998989
1310.0	0.0004795	86.5620000362
1310.0	0.0004793	86.6089999676
1310.0	0.000479	86.6559998989
1310.0	0.000479	86.6870000362
1310.0	0.000479	86.7339999676
1310.0	0.000479	86.7660000324
1310.0	0.0004793	86.8120000362
1310.0	0.0004793	86.8589999676
1310.0	0.0004788	86.8910000324
1310.0	0.0004788	86.9370000362
1310.0	0.0004788	86.9839999676
1310.0	0.0004788	87.0160000324
1310.0	0.0004788	87.0620000362
1310.0	0.0004788	87.0939998627
1310.0	0.000478	87.1410000324
1310.0	0.000478	87.1870000362
1310.0	0.000478	87.2189998627
1310.0	0.000478	87.2660000324
1310.0	0.0004778	87.3120000362
1310.0	0.0004778	87.3439998627
1310.0	0.000478	87.3910000324
1310.0	0.0004783	87.4219999313
1310.0	0.0004783	87.4689998627
1310.0	0.0004783	87.5160000324
1310.0	0.0004788	87.5469999313
1320.0	0.0004758	87.8280000687
1320.0	0.0004745	87.8589999676
1320.0	0.0004733	87.9059998989
1320.0	0.0004725	87.9530000687
1320.0	0.0004718	87.9839999676
1320.0	0.0004713	88.0309998989
1320.0	0.0004705	88.0620000362
1320.0	0.0004703	88.1089999676
1320.0	0.00047	88.1559998989
1320.0	0.0004695	88.1870000362
1320.0	0.0004693	88.2339999676
1320.0	0.0004693	88.2809998989
1320.0	0.000469	88.3120000362
1320.0	0.0004693	88.3589999676
1320.0	0.00047	88.3910000324
1320.0	0.0004695	88.4370000362
1320.0	0.0004695	88.4839999676
1320.0	0.00047	88.5160000324
1320.0	0.0004695	88.5620000362
1320.0	0.00047	88.6089999676
1320.0	0.0004695	88.6410000324
1320.0	0.0004695	88.6870000362
1320.0	0.0004695	88.7339999676
1320.0	0.0004693	88.7660000324
1320.0	0.0004695	88.8120000362
1320.0	0.0004695	88.8439998627
1320.0	0.0004695	88.8910000324
1320.0	0.0004695	88.9370000362
1320.0	0.00047	88.9689998627
1320.0	0.00047	89.0160000324
1320.0	0.00047	89.0469999313
1320.0	0.0004695	89.0939998627
1320.0	0.0004695	89.1410000324
1320.0	0.0004693	89.1719999313
1320.0	0.0004693	89.2189998627
1320.0	0.0004693	89.2660000324
1320.0	0.0004695	89.2969999313
1330.0	0.0004668	89.5780000687
1330.0	0.0004645	89.6089999676
1330.0	0.0004628	89.6559998989
1330.0	0.0004613	89.7030000687
1330.0	0.0004603	89.7339999676
1330.0	0.0004593	89.7809998989
1330.0	0.000459	89.8280000687
1330.0	0.0004583	89.8589999676
1330.0	0.000458	89.9059998989
1330.0	0.000458	89.9530000687
1330.0	0.0004578	89.9839999676
1330.0	0.0004578	90.0309998989
1330.0	0.0004575	90.0620000362
1330.0	0.0004578	90.1089999676
1330.0	0.000458	90.1559998989
1330.0	0.0004583	90.1870000362
1330.0	0.0004583	90.2339999676
1330.0	0.0004583	90.2809998989
1330.0	0.0004583	90.3120000362
1330.0	0.0004588	90.3589999676
1330.0	0.0004583	90.3910000324
1330.0	0.0004583	90.4370000362
1330.0	0.000458	90.4839999676
1330.0	0.0004578	90.5160000324
1330.0	0.0004575	90.5620000362
1330.0	0.0004578	90.6089999676
1330.0	0.000458	90.6410000324
1330.0	0.000458	90.6870000362
1330.0	0.0004583	90.7339999676
1330.0	0.0004588	90.7660000324
1330.0	0.000459	90.8120000362
1330.0	0.000459	90.8439998627
1330.0	0.0004588	90.8910000324
1330.0	0.0004588	90.9370000362
1330.0	0.0004588	90.9839999676
1330.0	0.0004588	91.0160000324
1330.0	0.000459	91.0620000362
1340.0	0.0004513	91.3280000687
1340.0	0.0004488	91.375
1340.0	0.0004468	91.4059998989
1340.0	0.000445	91.4530000687
1340.0	0.0004433	91.5
1340.0	0.000442	91.5309998989
1340.0	0.0004413	91.5780000687
1340.0	0.0004403	91.625
1340.0	0.0004395	91.6559998989
1340.0	0.000439	91.7030000687
1340.0	0.000439	91.7339999676
1340.0	0.000439	91.7809998989
1340.0	0.000439	91.8280000687
1340.0	0.000439	91.8589999676
1340.0	0.0004388	91.9059998989
1340.0	0.0004383	91.9530000687
1340.0	0.0004383	91.9839999676
1340.0	0.000438	92.0309998989
1340.0	0.000438	92.0620000362
1340.0	0.0004375	92.1089999676
1340.0	0.0004375	92.1559998989
1340.0	0.0004375	92.1870000362
1340.0	0.0004378	92.2339999676
1340.0	0.0004378	92.2809998989
1340.0	0.0004378	92.3120000362
1340.0	0.0004375	92.3589999676
1340.0	0.0004375	92.4059998989
1340.0	0.000437	92.4370000362
1340.0	0.0004368	92.4839999676
1340.0	0.0004365	92.5160000324
1340.0	0.0004363	92.5620000362
1340.0	0.0004363	92.6089999676
1340.0	0.0004358	92.6410000324
1340.0	0.0004358	92.6870000362
1340.0	0.0004358	92.7339999676
1340.0	0.0004363	92.7660000324
1340.0	0.0004363	92.8120000362
1350.0	0.0004288	93.0780000687
1350.0	0.0004263	93.125
1350.0	0.0004243	93.1559998989
1350.0	0.000422	93.2030000687
1350.0	0.0004205	93.25
1350.0	0.0004193	93.2809998989
1350.0	0.000418	93.3280000687
1350.0	0.000417	93.375
1350.0	0.0004168	93.4059998989
1350.0	0.0004165	93.4530000687
1350.0	0.0004165	93.4839999676
1350.0	0.0004165	93.5309998989
1350.0	0.0004165	93.5780000687
1350.0	0.0004165	93.6089999676
1350.0	0.0004165	93.6559998989
1350.0	0.0004165	93.7030000687
1350.0	0.0004168	93.7339999676
1350.0	0.0004168	93.7809998989
1350.0	0.0004168	93.8120000362
1350.0	0.0004168	93.8589999676
1350.0	0.0004165	93.9059998989
1350.0	0.0004165	93.9370000362
1350.0	0.0004168	93.9839999676
1350.0	0.000417	94.0309998989
1350.0	0.0004175	94.0620000362
1350.0	0.0004175	94.1089999676
1350.0	0.0004175	94.1410000324
1350.0	0.0004175	94.1870000362
1350.0	0.0004175	94.2339999676
1350.0	0.0004175	94.2660000324
1350.0	0.0004175	94.3120000362
1350.0	0.0004178	94.3589999676
1350.0	0.000418	94.4059998989
1350.0	0.000418	94.4370000362
1350.0	0.000418	94.4839999676
1350.0	0.000418	94.5309998989
1360.0	0.00041	94.7969999313
1360.0	0.0004068	94.8280000687
1360.0	0.0004045	94.875
1360.0	0.0004028	94.9219999313
1360.0	0.0004013	94.9530000687
1360.0	0.0004	95.0
1360.0	0.0003988	95.0469999313
1360.0	0.0003975	95.0780000687
1360.0	0.0003975	95.125
1360.0	0.000397	95.1559998989
1360.0	0.000397	95.2030000687
1360.0	0.0003963	95.25
1360.0	0.0003958	95.2809998989
1360.0	0.0003958	95.3280000687
1360.0	0.0003958	95.375
1360.0	0.0003955	95.4059998989
1360.0	0.0003953	95.4530000687
1360.0	0.000395	95.4839999676
1360.0	0.0003945	95.5309998989
1360.0	0.0003945	95.5780000687
1360.0	0.0003943	95.6089999676
1360.0	0.0003945	95.6559998989
1360.0	0.0003945	95.7030000687
1360.0	0.0003943	95.7339999676
1360.0	0.0003943	95.7809998989
1360.0	0.0003943	95.8120000362
1360.0	0.0003943	95.8589999676
1360.0	0.000394	95.9059998989
1360.0	0.000394	95.9370000362
1360.0	0.0003938	95.9839999676
1360.0	0.0003938	96.0309998989
1360.0	0.0003933	96.0620000362
1360.0	0.0003938	96.1089999676
1360.0	0.0003933	96.1559998989
1360.0	0.0003938	96.1870000362
1360.0	0.000394	96.2339999676
1360.0	0.000394	96.2809998989
1370.0	0.0003853	96.5469999313
1370.0	0.000382	96.5780000687
1370.0	0.0003795	96.625
1370.0	0.0003778	96.6719999313
1370.0	0.0003763	96.7030000687
1370.0	0.000375	96.75
1370.0	0.0003743	96.7969999313
1370.0	0.0003733	96.8280000687
1370.0	0.000373	96.875
1370.0	0.0003728	96.9059998989
1370.0	0.0003728	96.9530000687
1370.0	0.0003725	97.0
1370.0	0.000372	97.0309998989
1370.0	0.0003718	97.0780000687
1370.0	0.0003718	97.125
1370.0	0.000372	97.1559998989
1370.0	0.0003718	97.2030000687
1370.0	0.0003718	97.2339999676
1370.0	0.0003718	97.2809998989
1370.0	0.0003718	97.3280000687
1370.0	0.0003718	97.3589999676
1370.0	0.0003718	97.4059998989
1370.0	0.0003718	97.4530000687
1370.0	0.0003718	97.4839999676
1370.0	0.0003715	97.5309998989
1370.0	0.0003715	97.5620000362
1370.0	0.0003715	97.6089999676
1370.0	0.0003715	97.6559998989
1370.0	0.0003718	97.6870000362
1370.0	0.0003718	97.7339999676
1370.0	0.000372	97.7809998989
1370.0	0.0003725	97.8120000362
1370.0	0.0003725	97.8589999676
1370.0	0.0003728	97.8910000324
1370.0	0.0003728	97.9370000362
1370.0	0.000373	97.9839999676
1370.0	0.000373	98.0160000324
1380.0	0.0003643	98.2809998989
1380.0	0.0003615	98.3280000687
1380.0	0.0003593	98.375
1380.0	0.0003578	98.4059998989
1380.0	0.0003563	98.4530000687
1380.0	0.0003553	98.5
1380.0	0.0003543	98.5309998989
1380.0	0.0003533	98.5780000687
1380.0	0.000353	98.6089999676
1380.0	0.0003528	98.6559998989
1380.0	0.000353	98.7030000687
1380.0	0.000353	98.7339999676
1380.0	0.0003528	98.7809998989
1380.0	0.0003528	98.8280000687
1380.0	0.0003525	98.8589999676
1380.0	0.0003525	98.9059998989
1380.0	0.000352	98.9530000687
1380.0	0.000352	98.9839999676
1380.0	0.0003525	99.0309998989
1380.0	0.0003525	99.0620000362
1380.0	0.000352	99.1089999676
1380.0	0.0003518	99.1559998989
1380.0	0.0003515	99.1870000362
1380.0	0.0003515	99.2339999676
1380.0	0.0003515	99.2809998989
1380.0	0.0003513	99.3120000362
1380.0	0.0003513	99.3589999676
1380.0	0.0003513	99.3910000324
1380.0	0.0003513	99.4370000362
1380.0	0.0003513	99.4839999676
1380.0	0.0003515	99.5160000324
1380.0	0.0003515	99.5620000362
1380.0	0.0003515	99.6089999676
1380.0	0.0003515	99.6410000324
1380.0	0.0003515	99.6870000362
1380.0	0.0003513	99.7189998627
1380.0	0.0003513	99.7660000324
1390.0	0.0003428	100.030999899
1390.0	0.00034	100.078000069
1390.0	0.0003378	100.108999968
1390.0	0.0003363	100.155999899
1390.0	0.000335	100.203000069
1390.0	0.000334	100.233999968
1390.0	0.000333	100.280999899
1390.0	0.0003325	100.328000069
1390.0	0.0003318	100.358999968
1390.0	0.0003315	100.405999899
1390.0	0.0003313	100.437000036
1390.0	0.0003308	100.483999968
1390.0	0.0003305	100.530999899
1390.0	0.0003305	100.562000036
1390.0	0.0003313	100.608999968
1390.0	0.0003313	100.655999899
1390.0	0.0003313	100.687000036
1390.0	0.0003313	100.733999968
1390.0	0.0003313	100.780999899
1390.0	0.0003313	100.812000036
1390.0	0.0003315	100.858999968
1390.0	0.0003313	100.891000032
1390.0	0.0003313	100.937000036
1390.0	0.0003315	100.983999968
1390.0	0.0003315	101.016000032
1390.0	0.0003318	101.062000036
1390.0	0.0003318	101.108999968
1390.0	0.0003318	101.141000032
1390.0	0.0003315	101.187000036
1390.0	0.0003313	101.218999863
1390.0	0.0003313	101.266000032
1390.0	0.0003313	101.312000036
1390.0	0.0003313	101.343999863
1390.0	0.0003313	101.391000032
1390.0	0.0003313	101.437000036
1390.0	0.0003315	101.468999863
1390.0	0.0003315	101.516000032
1400.0	0.0003255	101.780999899
1400.0	0.0003233	101.812000036
1400.0	0.0003218	101.858999968
1400.0	0.0003205	101.905999899
1400.0	0.0003195	101.937000036
1400.0	0.000319	101.983999968
1400.0	0.0003183	102.030999899
1400.0	0.000318	102.062000036
1400.0	0.0003175	102.108999968
1400.0	0.0003178	102.155999899
1400.0	0.0003178	102.187000036
1400.0	0.0003178	102.233999968
1400.0	0.0003178	102.266000032
1400.0	0.0003178	102.312000036
1400.0	0.0003178	102.358999968
1400.0	0.0003175	102.391000032
1400.0	0.000317	102.437000036
1400.0	0.0003175	102.483999968
1400.0	0.0003175	102.516000032
1400.0	0.0003175	102.562000036
1400.0	0.0003175	102.593999863
1400.0	0.0003175	102.641000032
1400.0	0.000317	102.687000036
1400.0	0.000317	102.718999863
1400.0	0.0003175	102.766000032
1400.0	0.0003175	102.812000036
1400.0	0.0003178	102.843999863
1400.0	0.0003175	102.891000032
1400.0	0.0003175	102.921999931
1400.0	0.0003175	102.968999863
1400.0	0.000317	103.016000032
1400.0	0.0003175	103.046999931
1400.0	0.0003178	103.093999863
1400.0	0.000318	103.141000032
1400.0	0.0003183	103.171999931
1400.0	0.000318	103.218999863
1400.0	0.0003183	103.25
1410.0	0.0003138	103.530999899
1410.0	0.0003118	103.562000036
1410.0	0.0003108	103.608999968
1410.0	0.00031	103.655999899
1410.0	0.000309	103.687000036
1410.0	0.000308	103.733999968
1410.0	0.0003075	103.766000032
1410.0	0.0003068	103.812000036
1410.0	0.0003063	103.858999968
1410.0	0.0003058	103.891000032
1410.0	0.0003058	103.937000036
1410.0	0.0003058	103.983999968
1410.0	0.0003055	104.016000032
1410.0	0.0003055	104.062000036
1410.0	0.0003053	104.093999863
1410.0	0.0003053	104.141000032
1410.0	0.0003053	104.187000036
1410.0	0.0003055	104.218999863
1410.0	0.0003058	104.266000032
1410.0	0.0003058	104.312000036
1410.0	0.0003063	104.343999863
1410.0	0.0003063	104.391000032
1410.0	0.0003058	104.421999931
1410.0	0.0003055	104.468999863
1410.0	0.0003053	104.516000032
1410.0	0.000305	104.546999931
1410.0	0.0003045	104.593999863
1410.0	0.0003045	104.641000032
1410.0	0.000305	104.671999931
1410.0	0.000305	104.718999863
1410.0	0.0003053	104.75
1410.0	0.0003053	104.796999931
1410.0	0.0003053	104.843999863
1410.0	0.0003055	104.875
1410.0	0.0003053	104.921999931
1410.0	0.0003053	104.968999863
1410.0	0.0003053	105.0
1420.0	0.0003018	105.266000032
1420.0	0.0003005	105.312000036
1420.0	0.0003003	105.358999968
1420.0	0.0003	105.391000032
1420.0	0.0002995	105.437000036
1420.0	0.0002993	105.468999863
1420.0	0.0002993	105.516000032
1420.0	0.0002993	105.562000036
1420.0	0.000299	105.593999863
1420.0	0.0002988	105.641000032
1420.0	0.0002988	105.687000036
1420.0	0.0002988	105.718999863
1420.0	0.0002988	105.766000032
1420.0	0.0002983	105.796999931
1420.0	0.000298	105.843999863
1420.0	0.000298	105.891000032
1420.0	0.000298	105.921999931
1420.0	0.0002978	105.968999863
1420.0	0.0002978	106.016000032
1420.0	0.000298	106.046999931
1420.0	0.0002983	106.093999863
1420.0	0.0002988	106.125
1420.0	0.0002988	106.171999931
1420.0	0.0002993	106.218999863
1420.0	0.0002995	106.25
1420.0	0.0002995	106.296999931
1420.0	0.0002993	106.343999863
1420.0	0.0002993	106.375
1420.0	0.000299	106.421999931
1420.0	0.0002993	106.468999863
1420.0	0.0002993	106.5
1420.0	0.0002993	106.546999931
1420.0	0.000299	106.578000069
1420.0	0.000299	106.625
1420.0	0.0002993	106.671999931
1420.0	0.0002993	106.718999863
1420.0	0.0002993	106.75
1430.0	0.0002988	107.016000032
1430.0	0.0002983	107.062000036
1430.0	0.000298	107.108999968
1430.0	0.000298	107.141000032
1430.0	0.000298	107.187000036
1430.0	0.000298	107.218999863
1430.0	0.0002978	107.266000032
1430.0	0.000298	107.312000036
1430.0	0.000298	107.343999863
1430.0	0.000298	107.391000032
1430.0	0.000298	107.437000036
1430.0	0.000298	107.468999863
1430.0	0.000298	107.516000032
1430.0	0.0002983	107.546999931
1430.0	0.000298	107.593999863
1430.0	0.000298	107.641000032
1430.0	0.000298	107.671999931
1430.0	0.000298	107.718999863
1430.0	0.0002983	107.766000032
1430.0	0.0002988	107.796999931
1430.0	0.0002988	107.843999863
1430.0	0.000299	107.875
1430.0	0.000299	107.921999931
1430.0	0.0002993	107.968999863
1430.0	0.000299	108.0
1430.0	0.000299	108.046999931
1430.0	0.0002993	108.093999863
1430.0	0.0002993	108.125
1430.0	0.000299	108.171999931
1430.0	0.0002988	108.218999863
1430.0	0.0002988	108.25
1430.0	0.000299	108.296999931
1430.0	0.000299	108.328000069
1430.0	0.0002983	108.375
1430.0	0.0002983	108.421999931
1430.0	0.0002988	108.453000069
1430.0	0.000299	108.5
1440.0	0.0002993	108.766000032
1440.0	0.0003	108.812000036
1440.0	0.0003003	108.858999968
1440.0	0.0003008	108.891000032
1440.0	0.0003013	108.937000036
1440.0	0.0003015	108.968999863
1440.0	0.0003018	109.016000032
1440.0	0.000302	109.062000036
1440.0	0.0003025	109.093999863
1440.0	0.0003025	109.141000032
1440.0	0.0003025	109.187000036
1440.0	0.000303	109.218999863
1440.0	0.000303	109.266000032
1440.0	0.000303	109.296999931
1440.0	0.000303	109.343999863
1440.0	0.000303	109.391000032
1440.0	0.0003025	109.421999931
1440.0	0.0003025	109.468999863
1440.0	0.0003025	109.516000032
1440.0	0.0003025	109.546999931
1440.0	0.0003025	109.593999863
1440.0	0.0003025	109.625
1440.0	0.000303	109.671999931
1440.0	0.0003028	109.718999863
1440.0	0.0003028	109.75
1440.0	0.0003025	109.796999931
1440.0	0.0003025	109.843999863
1440.0	0.0003025	109.875
1440.0	0.0003028	109.921999931
1440.0	0.0003025	109.953000069
1440.0	0.0003025	110.0
1440.0	0.0003025	110.046999931
1440.0	0.0003028	110.093999863
1440.0	0.0003028	110.125
1440.0	0.0003025	110.171999931
1440.0	0.0003025	110.218999863
1450.0	0.000304	110.483999968
1450.0	0.0003045	110.516000032
1450.0	0.0003055	110.562000036
1450.0	0.0003063	110.608999968
1450.0	0.000307	110.641000032
1450.0	0.0003078	110.687000036
1450.0	0.0003078	110.718999863
1450.0	0.0003078	110.766000032
1450.0	0.0003078	110.812000036
1450.0	0.0003078	110.843999863
1450.0	0.000308	110.891000032
1450.0	0.0003078	110.937000036
1450.0	0.0003078	110.968999863
1450.0	0.000308	111.016000032
1450.0	0.000308	111.046999931
1450.0	0.0003083	111.093999863
1450.0	0.0003083	111.141000032
1450.0	0.0003083	111.171999931
1450.0	0.0003088	111.218999863
1450.0	0.000309	111.266000032
1450.0	0.0003088	111.296999931
1450.0	0.0003083	111.343999863
1450.0	0.0003088	111.375
1450.0	0.0003088	111.421999931
1450.0	0.0003088	111.468999863
1450.0	0.0003083	111.5
1450.0	0.0003083	111.546999931
1450.0	0.0003088	111.593999863
1450.0	0.0003088	111.625
1450.0	0.0003088	111.671999931
1450.0	0.0003083	111.703000069
1450.0	0.0003083	111.75
1450.0	0.0003088	111.796999931
1450.0	0.0003088	111.828000069
1450.0	0.0003083	111.875
1450.0	0.0003083	111.921999931
1450.0	0.000308	111.953000069
1460.0	0.0003113	112.218999863
1460.0	0.000312	112.266000032
1460.0	0.000313	112.312000036
1460.0	0.000314	112.343999863
1460.0	0.000315	112.391000032
1460.0	0.0003158	112.421999931
1460.0	0.0003165	112.468999863
1460.0	0.0003165	112.516000032
1460.0	0.0003165	112.546999931
1460.0	0.0003168	112.593999863
1460.0	0.0003168	112.641000032
1460.0	0.0003168	112.671999931
1460.0	0.0003168	112.718999863
1460.0	0.0003168	112.75
1460.0	0.0003165	112.796999931
1460.0	0.0003163	112.843999863
1460.0	0.0003163	112.875
1460.0	0.0003165	112.921999931
1460.0	0.0003165	112.968999863
1460.0	0.0003168	113.0
1460.0	0.0003168	113.046999931
1460.0	0.0003168	113.093999863
1460.0	0.000317	113.125
1460.0	0.000317	113.171999931
1460.0	0.0003168	113.203000069
1460.0	0.0003168	113.25
1460.0	0.0003168	113.296999931
1460.0	0.0003165	113.328000069
1460.0	0.0003168	113.375
1460.0	0.0003168	113.421999931
1460.0	0.0003165	113.453000069
1460.0	0.0003168	113.5
1460.0	0.0003165	113.530999899
1460.0	0.0003165	113.578000069
1460.0	0.0003163	113.625
1460.0	0.0003165	113.655999899
1460.0	0.0003163	113.703000069
1470.0	0.0003195	113.968999863
1470.0	0.0003205	114.016000032
1470.0	0.0003213	114.062000036
1470.0	0.0003215	114.093999863
1470.0	0.000322	114.141000032
1470.0	0.0003228	114.171999931
1470.0	0.0003233	114.218999863
1470.0	0.000324	114.266000032
1470.0	0.0003243	114.296999931
1470.0	0.0003243	114.343999863
1470.0	0.0003245	114.391000032
1470.0	0.0003243	114.421999931
1470.0	0.0003243	114.468999863
1470.0	0.0003243	114.5
1470.0	0.0003243	114.546999931
1470.0	0.0003243	114.593999863
1470.0	0.0003245	114.625
1470.0	0.0003245	114.671999931
1470.0	0.0003243	114.718999863
1470.0	0.000324	114.75
1470.0	0.0003238	114.796999931
1470.0	0.0003238	114.843999863
1470.0	0.000324	114.875
1470.0	0.000324	114.921999931
1470.0	0.0003243	114.953000069
1470.0	0.0003243	115.0
1470.0	0.0003243	115.046999931
1470.0	0.0003245	115.078000069
1470.0	0.0003243	115.125
1470.0	0.0003243	115.171999931
1470.0	0.0003243	115.203000069
1470.0	0.0003243	115.25
1470.0	0.0003243	115.280999899
1470.0	0.0003243	115.328000069
1470.0	0.0003243	115.375
1470.0	0.0003243	115.405999899
1470.0	0.0003243	115.453000069
1480.0	0.0003265	115.718999863
1480.0	0.0003275	115.766000032
1480.0	0.000328	115.796999931
1480.0	0.0003288	115.843999863
1480.0	0.0003293	115.891000032
1480.0	0.0003295	115.921999931
1480.0	0.0003303	115.968999863
1480.0	0.0003303	116.0
1480.0	0.0003303	116.046999931
1480.0	0.0003305	116.093999863
1480.0	0.0003303	116.125
1480.0	0.0003303	116.171999931
1480.0	0.0003305	116.218999863
1480.0	0.0003303	116.25
1480.0	0.0003303	116.296999931
1480.0	0.00033	116.328000069
1480.0	0.0003295	116.375
1480.0	0.00033	116.421999931
1480.0	0.00033	116.453000069
1480.0	0.00033	116.5
1480.0	0.0003303	116.546999931
1480.0	0.0003305	116.578000069
1480.0	0.0003308	116.625
1480.0	0.0003308	116.655999899
1480.0	0.0003305	116.703000069
1480.0	0.0003308	116.75
1480.0	0.0003308	116.780999899
1480.0	0.0003308	116.828000069
1480.0	0.0003305	116.875
1480.0	0.0003305	116.905999899
1480.0	0.0003305	116.953000069
1480.0	0.0003305	117.0
1480.0	0.0003305	117.030999899
1480.0	0.0003308	117.078000069
1480.0	0.0003308	117.108999968
1480.0	0.0003305	117.155999899
1480.0	0.0003305	117.203000069
1490.0	0.0003328	117.468999863
1490.0	0.0003333	117.516000032
1490.0	0.0003338	117.546999931
1490.0	0.0003338	117.593999863
1490.0	0.000334	117.641000032
1490.0	0.0003343	117.671999931
1490.0	0.0003343	117.718999863
1490.0	0.0003343	117.75
1490.0	0.0003345	117.796999931
1490.0	0.0003345	117.843999863
1490.0	0.0003345	117.875
1490.0	0.0003345	117.921999931
1490.0	0.000335	117.968999863
1490.0	0.0003353	118.0
1490.0	0.000335	118.046999931
1490.0	0.000335	118.078000069
1490.0	0.0003345	118.125
1490.0	0.0003345	118.171999931
1490.0	0.000335	118.203000069
1490.0	0.000335	118.25
1490.0	0.0003353	118.296999931
1490.0	0.0003353	118.328000069
1490.0	0.0003353	118.375
1490.0	0.0003355	118.405999899
1490.0	0.0003355	118.453000069
1490.0	0.0003353	118.5
1490.0	0.0003353	118.530999899
1490.0	0.0003353	118.578000069
1490.0	0.0003353	118.625
1490.0	0.0003355	118.655999899
1490.0	0.0003355	118.703000069
1490.0	0.0003355	118.75
1490.0	0.0003353	118.780999899
1490.0	0.0003353	118.828000069
1490.0	0.000335	118.858999968
1490.0	0.0003353	118.905999899
1490.0	0.0003353	118.953000069
1500.0	0.0003355	119.218999863
1500.0	0.0003363	119.266000032
1500.0	0.0003368	119.296999931
1500.0	0.000337	119.343999863
1500.0	0.000337	119.391000032
1500.0	0.0003375	119.421999931
1500.0	0.0003378	119.468999863
1500.0	0.0003383	119.5
1500.0	0.0003388	119.546999931
1500.0	0.0003388	119.593999863
1500.0	0.0003383	119.625
1500.0	0.0003388	119.671999931
1500.0	0.0003383	119.718999863
1500.0	0.0003383	119.75
1500.0	0.000338	119.796999931
1500.0	0.0003375	119.828000069
1500.0	0.0003375	119.875
1500.0	0.0003378	119.921999931
1500.0	0.0003378	119.953000069
1500.0	0.000338	120.0
1500.0	0.0003378	120.046999931
1500.0	0.000338	120.078000069
1500.0	0.000338	120.125
1500.0	0.000338	120.155999899
1500.0	0.000338	120.203000069
1500.0	0.000338	120.25
1500.0	0.000338	120.280999899
1500.0	0.0003383	120.328000069
1500.0	0.0003388	120.375
1500.0	0.0003388	120.405999899
1500.0	0.0003388	120.453000069
1500.0	0.0003383	120.483999968
1500.0	0.0003388	120.530999899
1500.0	0.0003388	120.578000069
1500.0	0.0003388	120.608999968
1500.0	0.0003383	120.655999899
1500.0	0.0003383	120.703000069
1510.0	0.0003388	120.968999863
1510.0	0.0003393	121.016000032
1510.0	0.0003393	121.046999931
1510.0	0.0003393	121.093999863
1510.0	0.0003393	121.141000032
1510.0	0.0003393	121.171999931
1510.0	0.000339	121.218999863
1510.0	0.000339	121.266000032
1510.0	0.000339	121.296999931
1510.0	0.0003393	121.343999863
1510.0	0.0003395	121.391000032
1510.0	0.0003393	121.437000036
1510.0	0.0003393	121.468999863
1510.0	0.0003393	121.516000032
1510.0	0.0003393	121.562000036
1510.0	0.0003395	121.593999863
1510.0	0.0003395	121.641000032
1510.0	0.00034	121.671999931
1510.0	0.0003395	121.718999863
1510.0	0.00034	121.766000032
1510.0	0.00034	121.796999931
1510.0	0.00034	121.843999863
1510.0	0.0003395	121.891000032
1510.0	0.0003393	121.921999931
1510.0	0.0003393	121.968999863
1510.0	0.0003393	122.016000032
1510.0	0.0003393	122.046999931
1510.0	0.0003393	122.093999863
1510.0	0.0003393	122.141000032
1510.0	0.000339	122.171999931
1510.0	0.000339	122.218999863
1510.0	0.000339	122.266000032
1510.0	0.0003388	122.296999931
1510.0	0.0003388	122.343999863
1510.0	0.0003388	122.375
1510.0	0.0003388	122.421999931
1510.0	0.000339	122.468999863
1520.0	0.0003393	122.733999968
1520.0	0.000339	122.780999899
1520.0	0.000339	122.828000069
1520.0	0.000339	122.858999968
1520.0	0.0003393	122.905999899
1520.0	0.0003395	122.937000036
1520.0	0.0003395	122.983999968
1520.0	0.00034	123.030999899
1520.0	0.00034	123.062000036
1520.0	0.0003403	123.108999968
1520.0	0.0003403	123.155999899
1520.0	0.00034	123.187000036
1520.0	0.0003403	123.233999968
1520.0	0.0003405	123.266000032
1520.0	0.0003405	123.312000036
1520.0	0.0003403	123.358999968
1520.0	0.0003405	123.391000032
1520.0	0.0003405	123.437000036
1520.0	0.0003405	123.483999968
1520.0	0.0003405	123.516000032
1520.0	0.0003403	123.562000036
1520.0	0.0003403	123.593999863
1520.0	0.0003403	123.641000032
1520.0	0.00034	123.687000036
1520.0	0.0003395	123.718999863
1520.0	0.0003393	123.766000032
1520.0	0.0003393	123.812000036
1520.0	0.0003393	123.843999863
1520.0	0.0003393	123.891000032
1520.0	0.0003395	123.921999931
1520.0	0.0003395	123.968999863
1520.0	0.00034	124.016000032
1520.0	0.00034	124.046999931
1520.0	0.00034	124.093999863
1520.0	0.00034	124.141000032
1520.0	0.00034	124.171999931
1520.0	0.0003395	124.218999863
1530.0	0.0003403	124.5
1530.0	0.00034	124.530999899
1530.0	0.0003395	124.578000069
1530.0	0.0003393	124.608999968
1530.0	0.0003393	124.655999899
1530.0	0.0003393	124.703000069
1530.0	0.000339	124.733999968
1530.0	0.000339	124.780999899
1530.0	0.000339	124.828000069
1530.0	0.0003388	124.858999968
1530.0	0.0003388	124.905999899
1530.0	0.0003388	124.937000036
1530.0	0.000339	124.983999968
1530.0	0.000339	125.030999899
1530.0	0.000339	125.078000069
1530.0	0.0003388	125.108999968
1530.0	0.0003388	125.155999899
1530.0	0.0003388	125.187000036
1530.0	0.000339	125.233999968
1530.0	0.0003393	125.280999899
1530.0	0.0003393	125.312000036
1530.0	0.000339	125.358999968
1530.0	0.000339	125.405999899
1530.0	0.000339	125.437000036
1530.0	0.0003393	125.483999968
1530.0	0.0003393	125.516000032
1530.0	0.0003395	125.562000036
1530.0	0.0003395	125.608999968
1530.0	0.00034	125.641000032
1530.0	0.00034	125.687000036
1530.0	0.0003403	125.733999968
1530.0	0.0003403	125.766000032
1530.0	0.0003405	125.812000036
1530.0	0.0003405	125.858999968
1530.0	0.0003405	125.891000032
1530.0	0.0003405	125.937000036
1530.0	0.0003403	125.968999863
