Your edit line - do NOT delete this line
Wavelength [nm], Voltage [V], Elapsed time [s]
900.0	2.93e-05	7.04699993134
900.0	2.88e-05	7.09400010109
900.0	2.8e-05	7.125
900.0	2.8e-05	7.17199993134
900.0	2.78e-05	7.20300006866
900.0	2.78e-05	7.25
900.0	2.78e-05	7.29699993134
900.0	2.78e-05	7.32800006866
900.0	2.75e-05	7.375
900.0	2.75e-05	7.42199993134
900.0	2.7e-05	7.45300006866
900.0	2.75e-05	7.5
900.0	2.78e-05	7.53200006485
900.0	2.75e-05	7.57800006866
900.0	2.75e-05	7.625
900.0	2.78e-05	7.65700006485
900.0	2.78e-05	7.70300006866
900.0	2.78e-05	7.75
900.0	2.8e-05	7.78200006485
900.0	2.8e-05	7.82800006866
900.0	2.83e-05	7.875
900.0	2.83e-05	7.90700006485
900.0	2.83e-05	7.95300006866
900.0	2.88e-05	7.9849998951
900.0	2.88e-05	8.03200006485
900.0	2.83e-05	8.07800006866
900.0	2.8e-05	8.1099998951
900.0	2.78e-05	8.15700006485
900.0	2.78e-05	8.20300006866
900.0	2.78e-05	8.2349998951
900.0	2.78e-05	8.28200006485
900.0	2.78e-05	8.31299996376
900.0	2.75e-05	8.3599998951
900.0	2.7e-05	8.40700006485
900.0	2.68e-05	8.43799996376
900.0	2.68e-05	8.4849998951
900.0	2.68e-05	8.53200006485
910.0	2.7e-05	8.82800006866
910.0	2.75e-05	8.875
910.0	2.8e-05	8.92199993134
910.0	2.88e-05	8.95300006866
910.0	2.9e-05	9.0
910.0	2.93e-05	9.04699993134
910.0	2.93e-05	9.07800006866
910.0	2.93e-05	9.125
910.0	2.95e-05	9.17199993134
910.0	3e-05	9.20300006866
910.0	3.03e-05	9.25
910.0	3e-05	9.28200006485
910.0	3e-05	9.32800006866
910.0	2.95e-05	9.375
910.0	2.95e-05	9.40700006485
910.0	3e-05	9.45300006866
910.0	3.03e-05	9.5
910.0	3.03e-05	9.53200006485
910.0	3.03e-05	9.57800006866
910.0	3.03e-05	9.625
910.0	3.05e-05	9.65700006485
910.0	3.03e-05	9.70300006866
910.0	3.03e-05	9.7349998951
910.0	3.03e-05	9.78200006485
910.0	3.03e-05	9.82800006866
910.0	3.05e-05	9.8599998951
910.0	3.05e-05	9.90700006485
910.0	3.03e-05	9.95300006866
910.0	3.03e-05	9.9849998951
910.0	3.03e-05	10.0320000648
910.0	3e-05	10.0629999638
910.0	3e-05	10.1099998951
910.0	3e-05	10.1570000648
910.0	2.95e-05	10.1879999638
910.0	2.95e-05	10.2349998951
910.0	2.95e-05	10.2820000648
910.0	2.95e-05	10.3129999638
920.0	3.13e-05	10.625
920.0	3.13e-05	10.6570000648
920.0	3.13e-05	10.7030000687
920.0	3.13e-05	10.75
920.0	3.15e-05	10.7820000648
920.0	3.13e-05	10.8280000687
920.0	3.05e-05	10.8599998951
920.0	3.03e-05	10.9070000648
920.0	3.03e-05	10.9530000687
920.0	3.05e-05	10.9849998951
920.0	3.05e-05	11.0320000648
920.0	3.05e-05	11.0780000687
920.0	3.05e-05	11.1099998951
920.0	3.05e-05	11.1570000648
920.0	3.08e-05	11.1879999638
920.0	3.08e-05	11.2349998951
920.0	3.08e-05	11.2820000648
920.0	3.08e-05	11.3129999638
920.0	3.08e-05	11.3599998951
920.0	3.08e-05	11.4070000648
920.0	3.08e-05	11.4379999638
920.0	3.08e-05	11.4849998951
920.0	3.08e-05	11.5320000648
920.0	3.05e-05	11.5629999638
920.0	3.08e-05	11.6099998951
920.0	3.05e-05	11.6570000648
920.0	3.05e-05	11.6879999638
920.0	3.08e-05	11.7349998951
920.0	3.08e-05	11.7820000648
920.0	3.08e-05	11.8129999638
920.0	3.08e-05	11.8599998951
920.0	3.05e-05	11.8910000324
920.0	3.05e-05	11.9379999638
920.0	3.05e-05	11.9849998951
920.0	3.05e-05	12.0160000324
920.0	3.08e-05	12.0629999638
920.0	3.08e-05	12.1099998951
930.0	3.13e-05	12.4070000648
930.0	3.15e-05	12.4530000687
930.0	3.18e-05	12.4849998951
930.0	3.18e-05	12.5320000648
930.0	3.2e-05	12.5780000687
930.0	3.25e-05	12.6099998951
930.0	3.28e-05	12.6570000648
930.0	3.3e-05	12.6879999638
930.0	3.33e-05	12.7349998951
930.0	3.33e-05	12.7820000648
930.0	3.3e-05	12.8129999638
930.0	3.33e-05	12.8599998951
930.0	3.33e-05	12.9070000648
930.0	3.33e-05	12.9379999638
930.0	3.3e-05	12.9849998951
930.0	3.28e-05	13.0160000324
930.0	3.3e-05	13.0629999638
930.0	3.25e-05	13.1099998951
930.0	3.2e-05	13.1410000324
930.0	3.2e-05	13.1879999638
930.0	3.25e-05	13.2349998951
930.0	3.28e-05	13.2660000324
930.0	3.3e-05	13.3129999638
930.0	3.3e-05	13.3440001011
930.0	3.3e-05	13.3910000324
930.0	3.3e-05	13.4379999638
930.0	3.33e-05	13.4690001011
930.0	3.33e-05	13.5160000324
930.0	3.33e-05	13.5629999638
930.0	3.3e-05	13.5940001011
930.0	3.33e-05	13.6410000324
930.0	3.33e-05	13.6719999313
930.0	3.33e-05	13.7190001011
930.0	3.38e-05	13.7660000324
930.0	3.38e-05	13.7969999313
930.0	3.33e-05	13.8440001011
930.0	3.33e-05	13.8910000324
940.0	3.4e-05	14.1879999638
940.0	3.43e-05	14.2190001011
940.0	3.4e-05	14.2660000324
940.0	3.43e-05	14.2969999313
940.0	3.45e-05	14.3440001011
940.0	3.5e-05	14.3910000324
940.0	3.53e-05	14.4219999313
940.0	3.53e-05	14.4690001011
940.0	3.55e-05	14.5160000324
940.0	3.55e-05	14.5469999313
940.0	3.53e-05	14.5940001011
940.0	3.55e-05	14.625
940.0	3.63e-05	14.6719999313
940.0	3.65e-05	14.7190001011
940.0	3.65e-05	14.75
940.0	3.63e-05	14.7969999313
940.0	3.63e-05	14.8440001011
940.0	3.63e-05	14.875
940.0	3.63e-05	14.9219999313
940.0	3.63e-05	14.9530000687
940.0	3.63e-05	15.0
940.0	3.58e-05	15.0469999313
940.0	3.58e-05	15.0780000687
940.0	3.58e-05	15.125
940.0	3.55e-05	15.1719999313
940.0	3.58e-05	15.2030000687
940.0	3.58e-05	15.25
940.0	3.53e-05	15.2969999313
940.0	3.5e-05	15.3280000687
940.0	3.5e-05	15.375
940.0	3.5e-05	15.4070000648
940.0	3.53e-05	15.4530000687
940.0	3.53e-05	15.5
940.0	3.55e-05	15.5320000648
940.0	3.55e-05	15.5780000687
940.0	3.58e-05	15.625
940.0	3.58e-05	15.6570000648
950.0	3.7e-05	15.9530000687
950.0	3.75e-05	15.9849998951
950.0	3.78e-05	16.0320000648
950.0	3.75e-05	16.0780000687
950.0	3.78e-05	16.1099998951
950.0	3.78e-05	16.1570000648
950.0	3.78e-05	16.2030000687
950.0	3.78e-05	16.2349998951
950.0	3.78e-05	16.2820000648
950.0	3.8e-05	16.3129999638
950.0	3.8e-05	16.3599998951
950.0	3.8e-05	16.4070000648
950.0	3.8e-05	16.4379999638
950.0	3.8e-05	16.4849998951
950.0	3.78e-05	16.5320000648
950.0	3.78e-05	16.5629999638
950.0	3.78e-05	16.6099998951
950.0	3.78e-05	16.6570000648
950.0	3.78e-05	16.6879999638
950.0	3.78e-05	16.7349998951
950.0	3.78e-05	16.7660000324
950.0	3.8e-05	16.8129999638
950.0	3.88e-05	16.8599998951
950.0	3.9e-05	16.8910000324
950.0	3.9e-05	16.9379999638
950.0	3.9e-05	16.9849998951
950.0	3.9e-05	17.0160000324
950.0	3.88e-05	17.0629999638
950.0	3.83e-05	17.0940001011
950.0	3.83e-05	17.1410000324
950.0	3.8e-05	17.1879999638
950.0	3.78e-05	17.2349998951
950.0	3.75e-05	17.2660000324
950.0	3.75e-05	17.3129999638
950.0	3.75e-05	17.3599998951
950.0	3.75e-05	17.3910000324
950.0	3.7e-05	17.4379999638
960.0	3.93e-05	17.7190001011
960.0	4e-05	17.7660000324
960.0	4.05e-05	17.7969999313
960.0	4.08e-05	17.8440001011
960.0	4.08e-05	17.8910000324
960.0	4.05e-05	17.9219999313
960.0	4.08e-05	17.9690001011
960.0	4.08e-05	18.0160000324
960.0	4.08e-05	18.0469999313
960.0	4.08e-05	18.0940001011
960.0	4.05e-05	18.125
960.0	4.05e-05	18.1719999313
960.0	4.05e-05	18.2190001011
960.0	4.05e-05	18.25
960.0	4.05e-05	18.2969999313
960.0	4.05e-05	18.3440001011
960.0	4.05e-05	18.375
960.0	4.05e-05	18.4219999313
960.0	4.05e-05	18.4530000687
960.0	4.05e-05	18.5
960.0	4.08e-05	18.5469999313
960.0	4.05e-05	18.5780000687
960.0	4.05e-05	18.625
960.0	4.05e-05	18.6719999313
960.0	4.05e-05	18.7030000687
960.0	4.03e-05	18.75
960.0	4.03e-05	18.7820000648
960.0	4.03e-05	18.8280000687
960.0	4.05e-05	18.875
960.0	4.05e-05	18.9070000648
960.0	4.08e-05	18.9530000687
960.0	4.08e-05	19.0
960.0	4.08e-05	19.0320000648
960.0	4.13e-05	19.0780000687
960.0	4.13e-05	19.125
960.0	4.13e-05	19.1570000648
960.0	4.13e-05	19.2030000687
970.0	4.15e-05	19.4849998951
970.0	4.18e-05	19.5320000648
970.0	4.2e-05	19.5629999638
970.0	4.25e-05	19.6099998951
970.0	4.25e-05	19.6410000324
970.0	4.3e-05	19.6879999638
970.0	4.3e-05	19.7349998951
970.0	4.3e-05	19.7660000324
970.0	4.28e-05	19.8129999638
970.0	4.28e-05	19.8599998951
970.0	4.3e-05	19.8910000324
970.0	4.33e-05	19.9379999638
970.0	4.33e-05	19.9690001011
970.0	4.38e-05	20.0160000324
970.0	4.43e-05	20.0629999638
970.0	4.43e-05	20.0940001011
970.0	4.4e-05	20.1410000324
970.0	4.4e-05	20.1879999638
970.0	4.38e-05	20.2190001011
970.0	4.38e-05	20.2660000324
970.0	4.33e-05	20.2969999313
970.0	4.3e-05	20.3440001011
970.0	4.33e-05	20.3910000324
970.0	4.33e-05	20.4219999313
970.0	4.38e-05	20.4690001011
970.0	4.4e-05	20.5160000324
970.0	4.43e-05	20.5469999313
970.0	4.45e-05	20.5940001011
970.0	4.5e-05	20.625
970.0	4.5e-05	20.6719999313
970.0	4.45e-05	20.7190001011
970.0	4.45e-05	20.75
970.0	4.43e-05	20.7969999313
970.0	4.43e-05	20.8440001011
970.0	4.38e-05	20.875
970.0	4.38e-05	20.9219999313
970.0	4.4e-05	20.9690001011
980.0	4.45e-05	21.2349998951
980.0	4.53e-05	21.2820000648
980.0	4.58e-05	21.3280000687
980.0	4.63e-05	21.3599998951
980.0	4.65e-05	21.4070000648
980.0	4.65e-05	21.4530000687
980.0	4.68e-05	21.4849998951
980.0	4.68e-05	21.5320000648
980.0	4.68e-05	21.5629999638
980.0	4.68e-05	21.6099998951
980.0	4.65e-05	21.6570000648
980.0	4.65e-05	21.6879999638
980.0	4.65e-05	21.7349998951
980.0	4.68e-05	21.7820000648
980.0	4.68e-05	21.8129999638
980.0	4.7e-05	21.8599998951
980.0	4.7e-05	21.8910000324
980.0	4.75e-05	21.9379999638
980.0	4.75e-05	21.9849998951
980.0	4.7e-05	22.0160000324
980.0	4.7e-05	22.0629999638
980.0	4.7e-05	22.1099998951
980.0	4.7e-05	22.1410000324
980.0	4.7e-05	22.1879999638
980.0	4.7e-05	22.2190001011
980.0	4.75e-05	22.2660000324
980.0	4.75e-05	22.3129999638
980.0	4.75e-05	22.3440001011
980.0	4.78e-05	22.3910000324
980.0	4.78e-05	22.4379999638
980.0	4.78e-05	22.4690001011
980.0	4.75e-05	22.5160000324
980.0	4.75e-05	22.5629999638
980.0	4.75e-05	22.5940001011
980.0	4.7e-05	22.6410000324
980.0	4.75e-05	22.6879999638
980.0	4.75e-05	22.7190001011
990.0	4.93e-05	23.0
990.0	4.95e-05	23.0469999313
990.0	5.03e-05	23.0780000687
990.0	5.03e-05	23.125
990.0	5.03e-05	23.1719999313
990.0	5.05e-05	23.2030000687
990.0	5.05e-05	23.25
990.0	5.05e-05	23.2969999313
990.0	5.05e-05	23.3280000687
990.0	5.03e-05	23.375
990.0	5.05e-05	23.4070000648
990.0	5.05e-05	23.4530000687
990.0	5.08e-05	23.5
990.0	5.13e-05	23.5469999313
990.0	5.08e-05	23.5780000687
990.0	5.08e-05	23.625
990.0	5.13e-05	23.6719999313
990.0	5.13e-05	23.7030000687
990.0	5.13e-05	23.75
990.0	5.13e-05	23.7820000648
990.0	5.13e-05	23.8280000687
990.0	5.08e-05	23.875
990.0	5.08e-05	23.9070000648
990.0	5.05e-05	23.9530000687
990.0	5.08e-05	24.0
990.0	5.08e-05	24.0320000648
990.0	5.08e-05	24.0780000687
990.0	5.13e-05	24.1099998951
990.0	5.13e-05	24.1570000648
990.0	5.15e-05	24.2030000687
990.0	5.15e-05	24.2349998951
990.0	5.13e-05	24.2820000648
990.0	5.13e-05	24.3280000687
990.0	5.15e-05	24.3599998951
990.0	5.18e-05	24.4070000648
990.0	5.2e-05	24.4379999638
990.0	5.2e-05	24.4849998951
1000.0	5.28e-05	24.7660000324
1000.0	5.38e-05	24.8129999638
1000.0	5.43e-05	24.8440001011
1000.0	5.45e-05	24.8910000324
1000.0	5.5e-05	24.9219999313
1000.0	5.53e-05	24.9690001011
1000.0	5.53e-05	25.0160000324
1000.0	5.53e-05	25.0469999313
1000.0	5.55e-05	25.0940001011
1000.0	5.55e-05	25.1410000324
1000.0	5.55e-05	25.1719999313
1000.0	5.55e-05	25.2190001011
1000.0	5.53e-05	25.25
1000.0	5.5e-05	25.2969999313
1000.0	5.5e-05	25.3440001011
1000.0	5.5e-05	25.375
1000.0	5.45e-05	25.4219999313
1000.0	5.45e-05	25.4690001011
1000.0	5.45e-05	25.5
1000.0	5.45e-05	25.5469999313
1000.0	5.45e-05	25.5940001011
1000.0	5.43e-05	25.625
1000.0	5.4e-05	25.6719999313
1000.0	5.43e-05	25.7030000687
1000.0	5.43e-05	25.75
1000.0	5.45e-05	25.7969999313
1000.0	5.43e-05	25.8280000687
1000.0	5.45e-05	25.875
1000.0	5.43e-05	25.9219999313
1000.0	5.43e-05	25.9530000687
1000.0	5.43e-05	26.0
1000.0	5.43e-05	26.0469999313
1000.0	5.4e-05	26.0780000687
1000.0	5.4e-05	26.125
1000.0	5.43e-05	26.1719999313
1000.0	5.43e-05	26.2030000687
1000.0	5.43e-05	26.25
1010.0	5.55e-05	26.5320000648
1010.0	5.63e-05	26.5629999638
1010.0	5.63e-05	26.6099998951
1010.0	5.65e-05	26.6570000648
1010.0	5.65e-05	26.6879999638
1010.0	5.65e-05	26.7349998951
1010.0	5.65e-05	26.7820000648
1010.0	5.65e-05	26.8129999638
1010.0	5.68e-05	26.8599998951
1010.0	5.65e-05	26.8910000324
1010.0	5.63e-05	26.9379999638
1010.0	5.65e-05	26.9849998951
1010.0	5.63e-05	27.0160000324
1010.0	5.63e-05	27.0629999638
1010.0	5.65e-05	27.1099998951
1010.0	5.65e-05	27.1410000324
1010.0	5.65e-05	27.1879999638
1010.0	5.68e-05	27.2190001011
1010.0	5.68e-05	27.2660000324
1010.0	5.7e-05	27.3129999638
1010.0	5.68e-05	27.3440001011
1010.0	5.68e-05	27.3910000324
1010.0	5.68e-05	27.4379999638
1010.0	5.63e-05	27.4690001011
1010.0	5.63e-05	27.5160000324
1010.0	5.58e-05	27.5469999313
1010.0	5.55e-05	27.5940001011
1010.0	5.55e-05	27.6410000324
1010.0	5.55e-05	27.6879999638
1010.0	5.55e-05	27.7190001011
1010.0	5.55e-05	27.7660000324
1010.0	5.58e-05	27.7969999313
1010.0	5.63e-05	27.8440001011
1010.0	5.63e-05	27.8910000324
1010.0	5.63e-05	27.9219999313
1010.0	5.63e-05	27.9690001011
1010.0	5.63e-05	28.0160000324
1020.0	5.75e-05	28.2969999313
1020.0	5.75e-05	28.3280000687
1020.0	5.8e-05	28.375
1020.0	5.8e-05	28.4070000648
1020.0	5.88e-05	28.4530000687
1020.0	5.88e-05	28.5
1020.0	5.9e-05	28.5469999313
1020.0	5.9e-05	28.5780000687
1020.0	5.93e-05	28.625
1020.0	5.93e-05	28.6570000648
1020.0	5.95e-05	28.7030000687
1020.0	5.93e-05	28.75
1020.0	5.9e-05	28.7820000648
1020.0	5.83e-05	28.8280000687
1020.0	5.83e-05	28.875
1020.0	5.83e-05	28.9070000648
1020.0	5.88e-05	28.9530000687
1020.0	5.88e-05	28.9849998951
1020.0	5.88e-05	29.0320000648
1020.0	5.9e-05	29.0780000687
1020.0	5.9e-05	29.1099998951
1020.0	5.93e-05	29.1570000648
1020.0	5.95e-05	29.2030000687
1020.0	5.95e-05	29.2349998951
1020.0	5.93e-05	29.2820000648
1020.0	5.95e-05	29.3129999638
1020.0	6e-05	29.3599998951
1020.0	6e-05	29.4070000648
1020.0	6.03e-05	29.4379999638
1020.0	6.03e-05	29.4849998951
1020.0	6.03e-05	29.5320000648
1020.0	6e-05	29.5629999638
1020.0	5.93e-05	29.6099998951
1020.0	5.9e-05	29.6570000648
1020.0	5.9e-05	29.6879999638
1020.0	5.9e-05	29.7349998951
1020.0	5.95e-05	29.7660000324
1030.0	6.08e-05	30.0469999313
1030.0	6.15e-05	30.0940001011
1030.0	6.2e-05	30.1410000324
1030.0	6.2e-05	30.1719999313
1030.0	6.25e-05	30.2190001011
1030.0	6.25e-05	30.2660000324
1030.0	6.28e-05	30.2969999313
1030.0	6.28e-05	30.3440001011
1030.0	6.3e-05	30.3910000324
1030.0	6.33e-05	30.4219999313
1030.0	6.33e-05	30.4690001011
1030.0	6.3e-05	30.5
1030.0	6.38e-05	30.5469999313
1030.0	6.33e-05	30.5940001011
1030.0	6.33e-05	30.625
1030.0	6.33e-05	30.6719999313
1030.0	6.33e-05	30.7190001011
1030.0	6.38e-05	30.75
1030.0	6.4e-05	30.7969999313
1030.0	6.43e-05	30.8280000687
1030.0	6.5e-05	30.875
1030.0	6.5e-05	30.9219999313
1030.0	6.5e-05	30.9530000687
1030.0	6.5e-05	31.0
1030.0	6.5e-05	31.0469999313
1030.0	6.45e-05	31.0780000687
1030.0	6.4e-05	31.125
1030.0	6.38e-05	31.1570000648
1030.0	6.33e-05	31.2030000687
1030.0	6.33e-05	31.25
1030.0	6.3e-05	31.2820000648
1030.0	6.33e-05	31.3280000687
1030.0	6.38e-05	31.375
1030.0	6.38e-05	31.4070000648
1030.0	6.4e-05	31.4530000687
1030.0	6.43e-05	31.5
1030.0	6.45e-05	31.5320000648
1040.0	6.65e-05	31.8129999638
1040.0	6.75e-05	31.8599998951
1040.0	6.8e-05	31.9070000648
1040.0	6.83e-05	31.9379999638
1040.0	6.88e-05	31.9849998951
1040.0	6.9e-05	32.0160000324
1040.0	6.93e-05	32.0629999638
1040.0	6.93e-05	32.1099998951
1040.0	6.93e-05	32.1410000324
1040.0	6.93e-05	32.1879999638
1040.0	6.9e-05	32.2349998951
1040.0	6.93e-05	32.2660000324
1040.0	6.93e-05	32.3129999638
1040.0	6.93e-05	32.3440001011
1040.0	6.95e-05	32.3910000324
1040.0	7e-05	32.4379999638
1040.0	7e-05	32.4690001011
1040.0	7e-05	32.5160000324
1040.0	6.95e-05	32.5629999638
1040.0	6.93e-05	32.5940001011
1040.0	6.93e-05	32.6410000324
1040.0	6.93e-05	32.6719999313
1040.0	6.93e-05	32.7190001011
1040.0	6.9e-05	32.7660000324
1040.0	6.93e-05	32.7969999313
1040.0	6.95e-05	32.8440001011
1040.0	6.93e-05	32.8910000324
1040.0	6.95e-05	32.9219999313
1040.0	7e-05	32.9690001011
1040.0	7.03e-05	33.0160000324
1040.0	7.05e-05	33.0469999313
1040.0	7.03e-05	33.0940001011
1040.0	7.05e-05	33.125
1040.0	7.05e-05	33.1719999313
1040.0	7.03e-05	33.2190001011
1040.0	7.03e-05	33.25
1040.0	7e-05	33.2969999313
1050.0	7.25e-05	33.5780000687
1050.0	7.33e-05	33.625
1050.0	7.38e-05	33.6570000648
1050.0	7.43e-05	33.7030000687
1050.0	7.45e-05	33.75
1050.0	7.5e-05	33.7820000648
1050.0	7.53e-05	33.8280000687
1050.0	7.55e-05	33.8599998951
1050.0	7.58e-05	33.9070000648
1050.0	7.63e-05	33.9530000687
1050.0	7.68e-05	33.9849998951
1050.0	7.68e-05	34.0320000648
1050.0	7.68e-05	34.0780000687
1050.0	7.65e-05	34.1099998951
1050.0	7.65e-05	34.1570000648
1050.0	7.65e-05	34.1879999638
1050.0	7.65e-05	34.2349998951
1050.0	7.65e-05	34.2820000648
1050.0	7.63e-05	34.3129999638
1050.0	7.58e-05	34.3599998951
1050.0	7.63e-05	34.4070000648
1050.0	7.63e-05	34.4379999638
1050.0	7.63e-05	34.4849998951
1050.0	7.63e-05	34.5320000648
1050.0	7.58e-05	34.5629999638
1050.0	7.58e-05	34.6099998951
1050.0	7.63e-05	34.6410000324
1050.0	7.65e-05	34.6879999638
1050.0	7.65e-05	34.7349998951
1050.0	7.65e-05	34.7660000324
1050.0	7.65e-05	34.8129999638
1050.0	7.68e-05	34.8440001011
1050.0	7.68e-05	34.8910000324
1050.0	7.68e-05	34.9379999638
1050.0	7.68e-05	34.9690001011
1050.0	7.68e-05	35.0160000324
1050.0	7.68e-05	35.0629999638
1060.0	7.9e-05	35.3440001011
1060.0	8.03e-05	35.3910000324
1060.0	8.08e-05	35.4219999313
1060.0	8.13e-05	35.4690001011
1060.0	8.15e-05	35.5160000324
1060.0	8.18e-05	35.5469999313
1060.0	8.25e-05	35.5940001011
1060.0	8.28e-05	35.625
1060.0	8.3e-05	35.6719999313
1060.0	8.3e-05	35.7190001011
1060.0	8.28e-05	35.75
1060.0	8.28e-05	35.7969999313
1060.0	8.3e-05	35.8440001011
1060.0	8.3e-05	35.875
1060.0	8.3e-05	35.9219999313
1060.0	8.3e-05	35.9690001011
1060.0	8.28e-05	36.0
1060.0	8.28e-05	36.0469999313
1060.0	8.28e-05	36.0780000687
1060.0	8.3e-05	36.125
1060.0	8.33e-05	36.1719999313
1060.0	8.38e-05	36.2030000687
1060.0	8.38e-05	36.25
1060.0	8.38e-05	36.2969999313
1060.0	8.33e-05	36.3280000687
1060.0	8.33e-05	36.375
1060.0	8.33e-05	36.4070000648
1060.0	8.3e-05	36.4530000687
1060.0	8.3e-05	36.5
1060.0	8.33e-05	36.5320000648
1060.0	8.38e-05	36.5780000687
1060.0	8.38e-05	36.625
1060.0	8.38e-05	36.6570000648
1060.0	8.38e-05	36.7030000687
1060.0	8.38e-05	36.7349998951
1060.0	8.33e-05	36.7820000648
1060.0	8.33e-05	36.8280000687
1070.0	8.65e-05	37.1099998951
1070.0	8.78e-05	37.1570000648
1070.0	8.83e-05	37.1879999638
1070.0	8.88e-05	37.2349998951
1070.0	8.93e-05	37.2820000648
1070.0	9e-05	37.3129999638
1070.0	9.05e-05	37.3599998951
1070.0	9.08e-05	37.4070000648
1070.0	9.13e-05	37.4379999638
1070.0	9.13e-05	37.4849998951
1070.0	9.13e-05	37.5160000324
1070.0	9.13e-05	37.5629999638
1070.0	9.15e-05	37.6099998951
1070.0	9.15e-05	37.6410000324
1070.0	9.15e-05	37.6879999638
1070.0	9.15e-05	37.7190001011
1070.0	9.18e-05	37.7660000324
1070.0	9.18e-05	37.8129999638
1070.0	9.15e-05	37.8440001011
1070.0	9.18e-05	37.8910000324
1070.0	9.18e-05	37.9379999638
1070.0	9.18e-05	37.9690001011
1070.0	9.15e-05	38.0160000324
1070.0	9.15e-05	38.0629999638
1070.0	9.13e-05	38.0940001011
1070.0	9.15e-05	38.1410000324
1070.0	9.13e-05	38.1719999313
1070.0	9.13e-05	38.2190001011
1070.0	9.13e-05	38.2660000324
1070.0	9.13e-05	38.2969999313
1070.0	9.15e-05	38.3440001011
1070.0	9.15e-05	38.3910000324
1070.0	9.13e-05	38.4219999313
1070.0	9.15e-05	38.4690001011
1070.0	9.13e-05	38.5
1070.0	9.15e-05	38.5469999313
1070.0	9.15e-05	38.5940001011
1080.0	9.45e-05	38.875
1080.0	9.58e-05	38.9070000648
1080.0	9.7e-05	38.9530000687
1080.0	9.83e-05	39.0
1080.0	9.9e-05	39.0320000648
1080.0	9.95e-05	39.0780000687
1080.0	0.0001	39.125
1080.0	0.0001003	39.1570000648
1080.0	0.0001005	39.2030000687
1080.0	0.0001013	39.25
1080.0	0.0001015	39.2820000648
1080.0	0.0001015	39.3280000687
1080.0	0.0001015	39.3599998951
1080.0	0.0001013	39.4070000648
1080.0	0.0001013	39.4530000687
1080.0	0.0001015	39.4849998951
1080.0	0.0001015	39.5320000648
1080.0	0.0001015	39.5780000687
1080.0	0.0001015	39.6099998951
1080.0	0.0001015	39.6570000648
1080.0	0.0001018	39.7030000687
1080.0	0.0001018	39.7349998951
1080.0	0.0001015	39.7820000648
1080.0	0.0001013	39.8280000687
1080.0	0.0001008	39.8599998951
1080.0	0.0001013	39.9070000648
1080.0	0.0001013	39.9530000687
1080.0	0.0001013	39.9849998951
1080.0	0.0001015	40.0320000648
1080.0	0.0001015	40.0629999638
1080.0	0.0001018	40.1099998951
1080.0	0.0001018	40.1570000648
1080.0	0.0001018	40.1879999638
1080.0	0.000102	40.2349998951
1080.0	0.0001025	40.2820000648
1080.0	0.0001025	40.3129999638
1080.0	0.0001028	40.3599998951
1090.0	0.0001068	40.6410000324
1090.0	0.000108	40.6879999638
1090.0	0.0001093	40.7190001011
1090.0	0.0001105	40.7660000324
1090.0	0.0001115	40.7969999313
1090.0	0.0001125	40.8440001011
1090.0	0.000113	40.8910000324
1090.0	0.0001133	40.9379999638
1090.0	0.0001138	40.9690001011
1090.0	0.0001138	41.0160000324
1090.0	0.000114	41.0469999313
1090.0	0.0001143	41.0940001011
1090.0	0.0001145	41.1410000324
1090.0	0.000115	41.1719999313
1090.0	0.000115	41.2190001011
1090.0	0.000115	41.2660000324
1090.0	0.0001145	41.2969999313
1090.0	0.0001145	41.3440001011
1090.0	0.000115	41.375
1090.0	0.0001153	41.4219999313
1090.0	0.0001153	41.4690001011
1090.0	0.0001155	41.5
1090.0	0.0001155	41.5469999313
1090.0	0.0001153	41.5940001011
1090.0	0.0001153	41.625
1090.0	0.0001153	41.6719999313
1090.0	0.0001153	41.7190001011
1090.0	0.0001153	41.75
1090.0	0.000115	41.7969999313
1090.0	0.000115	41.8280000687
1090.0	0.000115	41.875
1090.0	0.0001153	41.9219999313
1090.0	0.0001155	41.9530000687
1090.0	0.0001155	42.0
1090.0	0.0001153	42.0469999313
1090.0	0.000115	42.0780000687
1090.0	0.000115	42.125
1100.0	0.0001213	42.4070000648
1100.0	0.000123	42.4530000687
1100.0	0.000125	42.4849998951
1100.0	0.0001265	42.5320000648
1100.0	0.0001278	42.5629999638
1100.0	0.000129	42.6099998951
1100.0	0.0001295	42.6570000648
1100.0	0.00013	42.6879999638
1100.0	0.0001303	42.7349998951
1100.0	0.0001305	42.7820000648
1100.0	0.0001313	42.8129999638
1100.0	0.0001315	42.8599998951
1100.0	0.0001313	42.9070000648
1100.0	0.0001313	42.9379999638
1100.0	0.0001313	42.9849998951
1100.0	0.0001313	43.0160000324
1100.0	0.0001318	43.0629999638
1100.0	0.0001318	43.1099998951
1100.0	0.000132	43.1410000324
1100.0	0.000132	43.1879999638
1100.0	0.000132	43.2190001011
1100.0	0.000132	43.2660000324
1100.0	0.000132	43.3129999638
1100.0	0.000132	43.3440001011
1100.0	0.000132	43.3910000324
1100.0	0.000132	43.4379999638
1100.0	0.000132	43.4690001011
1100.0	0.0001315	43.5160000324
1100.0	0.0001313	43.5629999638
1100.0	0.0001315	43.5940001011
1100.0	0.0001318	43.6410000324
1100.0	0.0001318	43.6719999313
1100.0	0.000132	43.7190001011
1100.0	0.0001325	43.7660000324
1100.0	0.0001325	43.7969999313
1100.0	0.0001328	43.8440001011
1100.0	0.0001328	43.8910000324
1110.0	0.0001413	44.1570000648
1110.0	0.000144	44.2030000687
1110.0	0.0001468	44.2349998951
1110.0	0.0001488	44.2820000648
1110.0	0.0001503	44.3280000687
1110.0	0.0001513	44.3599998951
1110.0	0.000152	44.4070000648
1110.0	0.000153	44.4530000687
1110.0	0.0001533	44.4849998951
1110.0	0.0001538	44.5320000648
1110.0	0.000154	44.5629999638
1110.0	0.000154	44.6099998951
1110.0	0.0001545	44.6570000648
1110.0	0.000155	44.6879999638
1110.0	0.0001553	44.7349998951
1110.0	0.0001553	44.7820000648
1110.0	0.0001553	44.8129999638
1110.0	0.0001553	44.8599998951
1110.0	0.0001553	44.9070000648
1110.0	0.000155	44.9379999638
1110.0	0.0001553	44.9849998951
1110.0	0.0001553	45.0160000324
1110.0	0.0001553	45.0629999638
1110.0	0.0001553	45.1099998951
1110.0	0.0001553	45.1410000324
1110.0	0.000155	45.1879999638
1110.0	0.000155	45.2349998951
1110.0	0.000155	45.2660000324
1110.0	0.000155	45.3129999638
1110.0	0.0001553	45.3599998951
1110.0	0.0001553	45.3910000324
1110.0	0.0001553	45.4379999638
1110.0	0.0001553	45.4849998951
1110.0	0.000155	45.5160000324
1110.0	0.0001553	45.5629999638
1110.0	0.0001555	45.5940001011
1110.0	0.0001553	45.6410000324
1120.0	0.0001645	45.9219999313
1120.0	0.0001688	45.9530000687
1120.0	0.0001725	46.0
1120.0	0.0001755	46.0469999313
1120.0	0.0001778	46.0780000687
1120.0	0.00018	46.125
1120.0	0.0001813	46.1570000648
1120.0	0.0001818	46.2030000687
1120.0	0.000182	46.25
1120.0	0.0001825	46.2820000648
1120.0	0.0001828	46.3280000687
1120.0	0.0001833	46.375
1120.0	0.0001838	46.4070000648
1120.0	0.0001838	46.4530000687
1120.0	0.000184	46.4849998951
1120.0	0.0001838	46.5320000648
1120.0	0.0001838	46.5780000687
1120.0	0.0001833	46.6099998951
1120.0	0.0001833	46.6570000648
1120.0	0.000183	46.7030000687
1120.0	0.000183	46.7349998951
1120.0	0.000183	46.7820000648
1120.0	0.0001833	46.8280000687
1120.0	0.000183	46.8599998951
1120.0	0.0001833	46.9070000648
1120.0	0.0001838	46.9379999638
1120.0	0.0001838	46.9849998951
1120.0	0.0001838	47.0320000648
1120.0	0.0001838	47.0629999638
1120.0	0.0001833	47.1099998951
1120.0	0.0001833	47.1570000648
1120.0	0.0001838	47.1879999638
1120.0	0.0001833	47.2349998951
1120.0	0.0001838	47.2820000648
1120.0	0.0001838	47.3129999638
1120.0	0.0001833	47.3599998951
1120.0	0.000183	47.4070000648
1130.0	0.0001963	47.6719999313
1130.0	0.0002015	47.7190001011
1130.0	0.0002055	47.75
1130.0	0.0002088	47.7969999313
1130.0	0.0002113	47.8440001011
1130.0	0.0002125	47.875
1130.0	0.000214	47.9219999313
1130.0	0.0002153	47.9690001011
1130.0	0.0002163	48.0
1130.0	0.0002165	48.0469999313
1130.0	0.0002168	48.0780000687
1130.0	0.000217	48.125
1130.0	0.0002178	48.1719999313
1130.0	0.000218	48.2030000687
1130.0	0.0002183	48.25
1130.0	0.0002183	48.2969999313
1130.0	0.0002188	48.3280000687
1130.0	0.0002188	48.375
1130.0	0.0002188	48.4219999313
1130.0	0.000219	48.4530000687
1130.0	0.0002193	48.5
1130.0	0.0002193	48.5320000648
1130.0	0.0002193	48.5780000687
1130.0	0.0002193	48.625
1130.0	0.000219	48.6570000648
1130.0	0.000219	48.7030000687
1130.0	0.0002193	48.75
1130.0	0.0002195	48.7820000648
1130.0	0.0002195	48.8280000687
1130.0	0.00022	48.8599998951
1130.0	0.00022	48.9070000648
1130.0	0.00022	48.9530000687
1130.0	0.0002195	48.9849998951
1130.0	0.0002193	49.0320000648
1130.0	0.0002193	49.0780000687
1130.0	0.0002193	49.1099998951
1130.0	0.0002193	49.1570000648
1140.0	0.0002345	49.4219999313
1140.0	0.0002405	49.4690001011
1140.0	0.0002458	49.5
1140.0	0.0002495	49.5469999313
1140.0	0.0002528	49.5940001011
1140.0	0.0002555	49.625
1140.0	0.0002575	49.6719999313
1140.0	0.0002593	49.7190001011
1140.0	0.0002605	49.75
1140.0	0.0002613	49.7969999313
1140.0	0.0002618	49.8280000687
1140.0	0.0002618	49.875
1140.0	0.000262	49.9219999313
1140.0	0.0002625	49.9530000687
1140.0	0.0002625	50.0
1140.0	0.0002628	50.0469999313
1140.0	0.0002628	50.0780000687
1140.0	0.0002628	50.125
1140.0	0.0002625	50.1570000648
1140.0	0.0002625	50.2030000687
1140.0	0.0002625	50.25
1140.0	0.0002628	50.2820000648
1140.0	0.000263	50.3280000687
1140.0	0.0002628	50.375
1140.0	0.0002628	50.4070000648
1140.0	0.0002628	50.4530000687
1140.0	0.0002628	50.5
1140.0	0.000263	50.5320000648
1140.0	0.0002633	50.5780000687
1140.0	0.000264	50.6099998951
1140.0	0.0002643	50.6570000648
1140.0	0.0002645	50.7030000687
1140.0	0.0002645	50.7349998951
1140.0	0.000265	50.7820000648
1140.0	0.0002645	50.8280000687
1140.0	0.000265	50.8599998951
1140.0	0.000265	50.9070000648
1150.0	0.0002808	51.1719999313
1150.0	0.000287	51.2030000687
1150.0	0.0002925	51.25
1150.0	0.000297	51.2969999313
1150.0	0.0003008	51.3280000687
1150.0	0.000304	51.375
1150.0	0.0003065	51.4219999313
1150.0	0.0003083	51.4530000687
1150.0	0.0003095	51.5
1150.0	0.0003103	51.5469999313
1150.0	0.0003108	51.5780000687
1150.0	0.0003113	51.625
1150.0	0.0003113	51.6570000648
1150.0	0.0003113	51.7030000687
1150.0	0.0003113	51.75
1150.0	0.0003113	51.7820000648
1150.0	0.0003113	51.8280000687
1150.0	0.0003118	51.875
1150.0	0.0003118	51.9070000648
1150.0	0.0003118	51.9530000687
1150.0	0.000312	51.9849998951
1150.0	0.000312	52.0320000648
1150.0	0.0003118	52.0780000687
1150.0	0.0003118	52.1099998951
1150.0	0.0003115	52.1570000648
1150.0	0.0003118	52.2030000687
1150.0	0.000312	52.2349998951
1150.0	0.000312	52.2820000648
1150.0	0.000312	52.3280000687
1150.0	0.0003118	52.3599998951
1150.0	0.000312	52.4070000648
1150.0	0.000312	52.4379999638
1150.0	0.000312	52.4849998951
1150.0	0.0003125	52.5320000648
1150.0	0.0003128	52.5780000687
1150.0	0.0003128	52.6099998951
1150.0	0.0003128	52.6570000648
1160.0	0.0003295	52.9219999313
1160.0	0.0003368	52.9690001011
1160.0	0.000343	53.0
1160.0	0.0003478	53.0469999313
1160.0	0.0003515	53.0780000687
1160.0	0.0003543	53.125
1160.0	0.0003568	53.1719999313
1160.0	0.000358	53.2030000687
1160.0	0.000359	53.25
1160.0	0.0003593	53.2969999313
1160.0	0.00036	53.3280000687
1160.0	0.0003605	53.375
1160.0	0.0003608	53.4070000648
1160.0	0.0003615	53.4530000687
1160.0	0.000362	53.5
1160.0	0.0003625	53.5320000648
1160.0	0.0003625	53.5780000687
1160.0	0.000362	53.625
1160.0	0.0003625	53.6570000648
1160.0	0.0003625	53.7030000687
1160.0	0.0003625	53.7349998951
1160.0	0.0003618	53.7820000648
1160.0	0.0003615	53.8280000687
1160.0	0.0003613	53.8599998951
1160.0	0.0003615	53.9070000648
1160.0	0.0003615	53.9530000687
1160.0	0.0003615	53.9849998951
1160.0	0.0003618	54.0320000648
1160.0	0.0003618	54.0629999638
1160.0	0.0003618	54.1099998951
1160.0	0.0003618	54.1570000648
1160.0	0.000362	54.1879999638
1160.0	0.0003628	54.2349998951
1160.0	0.0003625	54.2820000648
1160.0	0.000362	54.3129999638
1160.0	0.000362	54.3599998951
1160.0	0.000362	54.3910000324
1170.0	0.00038	54.6570000648
1170.0	0.000387	54.7030000687
1170.0	0.000393	54.7349998951
1170.0	0.000398	54.7820000648
1170.0	0.000402	54.8280000687
1170.0	0.0004053	54.8599998951
1170.0	0.0004075	54.9070000648
1170.0	0.0004093	54.9379999638
1170.0	0.0004105	54.9849998951
1170.0	0.0004113	55.0320000648
1170.0	0.0004118	55.0629999638
1170.0	0.0004125	55.1099998951
1170.0	0.0004125	55.1570000648
1170.0	0.000413	55.1879999638
1170.0	0.0004125	55.2349998951
1170.0	0.0004128	55.2660000324
1170.0	0.0004128	55.3129999638
1170.0	0.000413	55.3599998951
1170.0	0.0004133	55.3910000324
1170.0	0.0004133	55.4379999638
1170.0	0.0004138	55.4849998951
1170.0	0.000414	55.5160000324
1170.0	0.0004138	55.5629999638
1170.0	0.0004133	55.6099998951
1170.0	0.000413	55.6410000324
1170.0	0.000413	55.6879999638
1170.0	0.0004133	55.7190001011
1170.0	0.0004133	55.7660000324
1170.0	0.000413	55.8129999638
1170.0	0.000413	55.8440001011
1170.0	0.000413	55.8910000324
1170.0	0.0004138	55.9379999638
1170.0	0.0004138	55.9690001011
1170.0	0.0004138	56.0160000324
1170.0	0.000414	56.0469999313
1170.0	0.0004138	56.0940001011
1170.0	0.0004133	56.1410000324
1180.0	0.0004318	56.3910000324
1180.0	0.0004388	56.4379999638
1180.0	0.0004445	56.4849998951
1180.0	0.00045	56.5160000324
1180.0	0.000454	56.5629999638
1180.0	0.000457	56.5940001011
1180.0	0.0004595	56.6410000324
1180.0	0.0004613	56.6879999638
1180.0	0.0004625	56.7190001011
1180.0	0.0004633	56.7660000324
1180.0	0.000464	56.8129999638
1180.0	0.0004645	56.8440001011
1180.0	0.000465	56.8910000324
1180.0	0.0004655	56.9219999313
1180.0	0.0004663	56.9690001011
1180.0	0.0004658	57.0160000324
1180.0	0.0004658	57.0469999313
1180.0	0.0004658	57.0940001011
1180.0	0.0004655	57.1410000324
1180.0	0.0004653	57.1719999313
1180.0	0.0004655	57.2190001011
1180.0	0.0004655	57.25
1180.0	0.0004658	57.2969999313
1180.0	0.0004655	57.3440001011
1180.0	0.0004653	57.375
1180.0	0.0004655	57.4219999313
1180.0	0.0004653	57.4690001011
1180.0	0.0004655	57.5
1180.0	0.0004655	57.5469999313
1180.0	0.0004658	57.5780000687
1180.0	0.0004663	57.625
1180.0	0.0004665	57.6719999313
1180.0	0.0004668	57.7030000687
1180.0	0.0004668	57.75
1180.0	0.0004665	57.7969999313
1180.0	0.0004665	57.8280000687
1180.0	0.0004668	57.875
1190.0	0.0004845	58.125
1190.0	0.000492	58.1719999313
1190.0	0.000498	58.2190001011
1190.0	0.0005033	58.25
1190.0	0.000507	58.2969999313
1190.0	0.0005105	58.3440001011
1190.0	0.000513	58.375
1190.0	0.000515	58.4219999313
1190.0	0.0005165	58.4530000687
1190.0	0.0005175	58.5
1190.0	0.000518	58.5469999313
1190.0	0.0005188	58.5780000687
1190.0	0.000519	58.625
1190.0	0.0005193	58.6719999313
1190.0	0.0005193	58.7030000687
1190.0	0.0005195	58.75
1190.0	0.00052	58.7969999313
1190.0	0.00052	58.8280000687
1190.0	0.0005203	58.875
1190.0	0.0005203	58.9070000648
1190.0	0.0005203	58.9530000687
1190.0	0.0005205	59.0
1190.0	0.0005205	59.0320000648
1190.0	0.0005208	59.0780000687
1190.0	0.0005205	59.125
1190.0	0.0005205	59.1570000648
1190.0	0.0005205	59.2030000687
1190.0	0.0005205	59.25
1190.0	0.0005205	59.2820000648
1190.0	0.0005208	59.3280000687
1190.0	0.0005205	59.375
1190.0	0.0005205	59.4070000648
1190.0	0.0005205	59.4530000687
1190.0	0.0005213	59.4849998951
1190.0	0.0005215	59.5320000648
1190.0	0.0005215	59.5780000687
1190.0	0.0005213	59.6099998951
1200.0	0.0005405	59.875
1200.0	0.0005478	59.9219999313
1200.0	0.0005538	59.9530000687
1200.0	0.000558	60.0
1200.0	0.000562	60.0320000648
1200.0	0.0005655	60.0780000687
1200.0	0.000568	60.125
1200.0	0.00057	60.1570000648
1200.0	0.0005713	60.2030000687
1200.0	0.000572	60.25
1200.0	0.000573	60.2820000648
1200.0	0.0005738	60.3280000687
1200.0	0.0005743	60.3599998951
1200.0	0.000575	60.4070000648
1200.0	0.0005753	60.4530000687
1200.0	0.000575	60.4849998951
1200.0	0.000575	60.5320000648
1200.0	0.0005753	60.5780000687
1200.0	0.0005753	60.6099998951
1200.0	0.0005753	60.6570000648
1200.0	0.0005753	60.6879999638
1200.0	0.0005753	60.7349998951
1200.0	0.000575	60.7820000648
1200.0	0.000575	60.8129999638
1200.0	0.0005745	60.8599998951
1200.0	0.0005745	60.9070000648
1200.0	0.0005745	60.9379999638
1200.0	0.0005745	60.9849998951
1200.0	0.000575	61.0160000324
1200.0	0.000575	61.0629999638
1200.0	0.000575	61.1099998951
1200.0	0.000575	61.1410000324
1200.0	0.0005753	61.1879999638
1200.0	0.000575	61.2349998951
1200.0	0.0005753	61.2660000324
1200.0	0.0005753	61.3129999638
1200.0	0.0005755	61.3440001011
1210.0	0.0005945	61.6099998951
1210.0	0.0006018	61.6570000648
1210.0	0.0006078	61.7030000687
1210.0	0.0006128	61.7349998951
1210.0	0.0006163	61.7820000648
1210.0	0.000619	61.8280000687
1210.0	0.0006213	61.8599998951
1210.0	0.0006225	61.9070000648
1210.0	0.0006238	61.9379999638
1210.0	0.0006245	61.9849998951
1210.0	0.0006253	62.0320000648
1210.0	0.0006263	62.0629999638
1210.0	0.0006268	62.1099998951
1210.0	0.0006275	62.1410000324
1210.0	0.0006278	62.1879999638
1210.0	0.0006283	62.2349998951
1210.0	0.000629	62.2660000324
1210.0	0.000629	62.3129999638
1210.0	0.000629	62.3599998951
1210.0	0.000629	62.3910000324
1210.0	0.000629	62.4379999638
1210.0	0.000629	62.4849998951
1210.0	0.0006293	62.5160000324
1210.0	0.0006293	62.5629999638
1210.0	0.0006295	62.5940001011
1210.0	0.0006293	62.6410000324
1210.0	0.0006293	62.6879999638
1210.0	0.000629	62.7190001011
1210.0	0.0006288	62.7660000324
1210.0	0.0006288	62.8129999638
1210.0	0.0006288	62.8440001011
1210.0	0.0006288	62.8910000324
1210.0	0.0006288	62.9219999313
1210.0	0.0006288	62.9690001011
1210.0	0.0006288	63.0160000324
1210.0	0.000629	63.0469999313
1210.0	0.0006293	63.0940001011
1220.0	0.0006473	63.3599998951
1220.0	0.0006538	63.4070000648
1220.0	0.000659	63.4379999638
1220.0	0.0006638	63.4849998951
1220.0	0.0006675	63.5320000648
1220.0	0.0006703	63.5629999638
1220.0	0.0006725	63.6099998951
1220.0	0.000674	63.6410000324
1220.0	0.000675	63.6879999638
1220.0	0.000676	63.7349998951
1220.0	0.0006763	63.7660000324
1220.0	0.0006763	63.8129999638
1220.0	0.0006768	63.8599998951
1220.0	0.0006773	63.8910000324
1220.0	0.0006773	63.9379999638
1220.0	0.0006775	63.9849998951
1220.0	0.0006773	64.0160000324
1220.0	0.0006773	64.0629999638
1220.0	0.0006773	64.1099998951
1220.0	0.0006768	64.1410000324
1220.0	0.0006768	64.1879999638
1220.0	0.0006768	64.2190001011
1220.0	0.0006773	64.2660000324
1220.0	0.0006773	64.3129999638
1220.0	0.0006775	64.3440001011
1220.0	0.0006775	64.3910000324
1220.0	0.0006775	64.4379999638
1220.0	0.0006775	64.4690001011
1220.0	0.0006775	64.5160000324
1220.0	0.0006773	64.5629999638
1220.0	0.0006768	64.5940001011
1220.0	0.0006773	64.6410000324
1220.0	0.0006773	64.6719999313
1220.0	0.0006773	64.7190001011
1220.0	0.0006778	64.7660000324
1220.0	0.0006775	64.8129999638
1230.0	0.0006948	65.0780000687
1230.0	0.0007005	65.125
1230.0	0.0007053	65.1570000648
1230.0	0.000709	65.2030000687
1230.0	0.0007123	65.2349998951
1230.0	0.0007143	65.2820000648
1230.0	0.0007165	65.3280000687
1230.0	0.0007178	65.3599998951
1230.0	0.0007188	65.4070000648
1230.0	0.0007193	65.4530000687
1230.0	0.00072	65.4849998951
1230.0	0.0007205	65.5320000648
1230.0	0.0007213	65.5780000687
1230.0	0.0007215	65.6099998951
1230.0	0.0007218	65.6570000648
1230.0	0.0007223	65.6879999638
1230.0	0.0007223	65.7349998951
1230.0	0.0007218	65.7820000648
1230.0	0.0007215	65.8129999638
1230.0	0.0007213	65.8599998951
1230.0	0.000721	65.8910000324
1230.0	0.000721	65.9379999638
1230.0	0.000721	65.9849998951
1230.0	0.0007213	66.0160000324
1230.0	0.0007213	66.0629999638
1230.0	0.0007215	66.1099998951
1230.0	0.0007215	66.1410000324
1230.0	0.0007215	66.1879999638
1230.0	0.0007218	66.2349998951
1230.0	0.0007223	66.2660000324
1230.0	0.0007225	66.3129999638
1230.0	0.0007223	66.3440001011
1230.0	0.0007218	66.3910000324
1230.0	0.0007218	66.4379999638
1230.0	0.0007223	66.4690001011
1230.0	0.0007223	66.5160000324
1230.0	0.0007223	66.5629999638
1240.0	0.0007365	66.8280000687
1240.0	0.0007415	66.875
1240.0	0.0007455	66.9070000648
1240.0	0.0007485	66.9530000687
1240.0	0.000751	66.9849998951
1240.0	0.0007528	67.0320000648
1240.0	0.000754	67.0780000687
1240.0	0.0007548	67.1099998951
1240.0	0.0007553	67.1570000648
1240.0	0.000756	67.2030000687
1240.0	0.0007565	67.25
1240.0	0.0007573	67.2820000648
1240.0	0.0007575	67.3280000687
1240.0	0.0007578	67.3599998951
1240.0	0.0007575	67.4070000648
1240.0	0.0007575	67.4530000687
1240.0	0.0007573	67.4849998951
1240.0	0.0007575	67.5320000648
1240.0	0.0007578	67.5780000687
1240.0	0.0007578	67.6099998951
1240.0	0.0007585	67.6570000648
1240.0	0.0007585	67.7030000687
1240.0	0.0007585	67.7349998951
1240.0	0.0007585	67.7820000648
1240.0	0.0007585	67.8280000687
1240.0	0.0007585	67.8599998951
1240.0	0.0007578	67.9070000648
1240.0	0.0007578	67.9379999638
1240.0	0.0007578	67.9849998951
1240.0	0.0007575	68.0320000648
1240.0	0.0007575	68.0629999638
1240.0	0.0007578	68.1099998951
1240.0	0.0007578	68.1570000648
1240.0	0.0007578	68.1879999638
1240.0	0.0007578	68.2349998951
1240.0	0.0007575	68.2660000324
1240.0	0.0007575	68.3129999638
1250.0	0.0007688	68.5780000687
1250.0	0.0007725	68.625
1250.0	0.0007755	68.6719999313
1250.0	0.0007785	68.7190001011
1250.0	0.000781	68.75
1250.0	0.0007823	68.7969999313
1250.0	0.000783	68.8280000687
1250.0	0.000784	68.875
1250.0	0.000784	68.9219999313
1250.0	0.0007843	68.9530000687
1250.0	0.0007843	69.0
1250.0	0.000784	69.0469999313
1250.0	0.0007835	69.0780000687
1250.0	0.0007835	69.125
1250.0	0.0007838	69.1719999313
1250.0	0.000784	69.2030000687
1250.0	0.0007843	69.25
1250.0	0.0007848	69.2820000648
1250.0	0.0007848	69.3280000687
1250.0	0.000785	69.375
1250.0	0.0007855	69.4070000648
1250.0	0.000786	69.4530000687
1250.0	0.0007863	69.5
1250.0	0.000786	69.5320000648
1250.0	0.0007855	69.5780000687
1250.0	0.0007853	69.625
1250.0	0.000785	69.6570000648
1250.0	0.0007848	69.7030000687
1250.0	0.0007848	69.75
1250.0	0.0007843	69.7820000648
1250.0	0.0007843	69.8280000687
1250.0	0.000784	69.8599998951
1250.0	0.000784	69.9070000648
1250.0	0.000784	69.9530000687
1250.0	0.0007848	69.9849998951
1250.0	0.0007848	70.0320000648
1250.0	0.000785	70.0780000687
1260.0	0.0007928	70.3440001011
1260.0	0.000796	70.3910000324
1260.0	0.0007985	70.4219999313
1260.0	0.0008003	70.4690001011
1260.0	0.0008015	70.5160000324
1260.0	0.0008028	70.5469999313
1260.0	0.0008035	70.5940001011
1260.0	0.0008038	70.6410000324
1260.0	0.000804	70.6719999313
1260.0	0.000804	70.7190001011
1260.0	0.0008043	70.75
1260.0	0.0008043	70.7969999313
1260.0	0.000805	70.8440001011
1260.0	0.0008053	70.875
1260.0	0.000805	70.9219999313
1260.0	0.000805	70.9690001011
1260.0	0.000805	71.0
1260.0	0.000805	71.0469999313
1260.0	0.000805	71.0940001011
1260.0	0.000805	71.125
1260.0	0.0008048	71.1719999313
1260.0	0.0008048	71.2030000687
1260.0	0.0008043	71.25
1260.0	0.0008048	71.2969999313
1260.0	0.000805	71.3280000687
1260.0	0.000805	71.375
1260.0	0.0008048	71.4219999313
1260.0	0.0008048	71.4530000687
1260.0	0.0008043	71.5
1260.0	0.0008043	71.5320000648
1260.0	0.0008043	71.5780000687
1260.0	0.0008043	71.625
1260.0	0.0008043	71.6570000648
1260.0	0.0008043	71.7030000687
1260.0	0.0008043	71.75
1260.0	0.0008043	71.7820000648
1260.0	0.0008038	71.8280000687
1270.0	0.000809	72.0940001011
1270.0	0.000811	72.1410000324
1270.0	0.0008123	72.1719999313
1270.0	0.0008135	72.2190001011
1270.0	0.000814	72.25
1270.0	0.0008148	72.2969999313
1270.0	0.0008153	72.3440001011
1270.0	0.0008155	72.375
1270.0	0.000816	72.4219999313
1270.0	0.000816	72.4690001011
1270.0	0.0008163	72.5
1270.0	0.0008163	72.5469999313
1270.0	0.0008165	72.5780000687
1270.0	0.0008163	72.625
1270.0	0.0008163	72.6719999313
1270.0	0.0008165	72.7030000687
1270.0	0.0008168	72.75
1270.0	0.0008168	72.7969999313
1270.0	0.0008168	72.8280000687
1270.0	0.0008168	72.875
1270.0	0.0008173	72.9219999313
1270.0	0.0008173	72.9530000687
1270.0	0.0008168	73.0
1270.0	0.0008168	73.0469999313
1270.0	0.0008168	73.0780000687
1270.0	0.0008168	73.125
1270.0	0.0008168	73.1719999313
1270.0	0.0008168	73.2030000687
1270.0	0.0008173	73.25
1270.0	0.0008173	73.2820000648
1270.0	0.0008173	73.3280000687
1270.0	0.0008168	73.375
1270.0	0.0008165	73.4070000648
1270.0	0.0008165	73.4530000687
1270.0	0.0008163	73.5
1270.0	0.0008163	73.5320000648
1270.0	0.0008163	73.5780000687
1280.0	0.000819	73.8440001011
1280.0	0.00082	73.8910000324
1280.0	0.000821	73.9219999313
1280.0	0.0008215	73.9690001011
1280.0	0.0008225	74.0
1280.0	0.0008228	74.0469999313
1280.0	0.000823	74.0940001011
1280.0	0.0008235	74.125
1280.0	0.000823	74.1719999313
1280.0	0.000823	74.2190001011
1280.0	0.000823	74.25
1280.0	0.0008235	74.2969999313
1280.0	0.000823	74.3280000687
1280.0	0.0008235	74.375
1280.0	0.0008235	74.4219999313
1280.0	0.0008238	74.4530000687
1280.0	0.0008235	74.5
1280.0	0.0008235	74.5469999313
1280.0	0.000823	74.5780000687
1280.0	0.0008235	74.625
1280.0	0.000823	74.6719999313
1280.0	0.0008235	74.7030000687
1280.0	0.0008235	74.75
1280.0	0.0008235	74.7969999313
1280.0	0.0008235	74.8280000687
1280.0	0.000823	74.875
1280.0	0.000823	74.9219999313
1280.0	0.0008228	74.9530000687
1280.0	0.0008228	75.0
1280.0	0.0008228	75.0320000648
1280.0	0.000823	75.0780000687
1280.0	0.000823	75.125
1280.0	0.0008228	75.1570000648
1280.0	0.0008228	75.2030000687
1280.0	0.0008225	75.25
1280.0	0.0008228	75.2820000648
1280.0	0.0008235	75.3280000687
1290.0	0.000824	75.5940001011
1290.0	0.0008238	75.625
1290.0	0.000824	75.6719999313
1290.0	0.000824	75.7190001011
1290.0	0.0008243	75.75
1290.0	0.0008243	75.7969999313
1290.0	0.0008248	75.8440001011
1290.0	0.000825	75.875
1290.0	0.0008248	75.9219999313
1290.0	0.000825	75.9690001011
1290.0	0.000825	76.0
1290.0	0.000825	76.0469999313
1290.0	0.000825	76.0780000687
1290.0	0.0008253	76.125
1290.0	0.0008255	76.1719999313
1290.0	0.000826	76.2030000687
1290.0	0.000826	76.25
1290.0	0.000826	76.2969999313
1290.0	0.000826	76.3280000687
1290.0	0.0008255	76.375
1290.0	0.0008255	76.4070000648
1290.0	0.0008255	76.4530000687
1290.0	0.000826	76.5
1290.0	0.0008263	76.5320000648
1290.0	0.0008265	76.5780000687
1290.0	0.0008263	76.625
1290.0	0.0008263	76.6570000648
1290.0	0.000826	76.7030000687
1290.0	0.0008255	76.7349998951
1290.0	0.0008255	76.7820000648
1290.0	0.0008253	76.8280000687
1290.0	0.000825	76.8599998951
1290.0	0.000825	76.9070000648
1290.0	0.0008248	76.9530000687
1290.0	0.000825	76.9849998951
1290.0	0.0008253	77.0320000648
1290.0	0.000826	77.0780000687
1300.0	0.0008255	77.3280000687
1300.0	0.0008253	77.375
1300.0	0.000825	77.4219999313
1300.0	0.0008248	77.4530000687
1300.0	0.0008243	77.5
1300.0	0.000824	77.5320000648
1300.0	0.0008238	77.5780000687
1300.0	0.0008235	77.625
1300.0	0.0008235	77.6570000648
1300.0	0.0008235	77.7030000687
1300.0	0.0008235	77.75
1300.0	0.0008238	77.7820000648
1300.0	0.0008238	77.8280000687
1300.0	0.0008238	77.8599998951
1300.0	0.0008238	77.9070000648
1300.0	0.0008238	77.9530000687
1300.0	0.0008238	77.9849998951
1300.0	0.0008235	78.0320000648
1300.0	0.000824	78.0780000687
1300.0	0.000824	78.1099998951
1300.0	0.000824	78.1570000648
1300.0	0.000824	78.2030000687
1300.0	0.000824	78.2349998951
1300.0	0.0008243	78.2820000648
1300.0	0.000824	78.3129999638
1300.0	0.000824	78.3599998951
1300.0	0.000824	78.4070000648
1300.0	0.0008243	78.4379999638
1300.0	0.0008243	78.4849998951
1300.0	0.0008243	78.5320000648
1300.0	0.0008248	78.5629999638
1300.0	0.0008243	78.6099998951
1300.0	0.000824	78.6410000324
1300.0	0.000824	78.6879999638
1300.0	0.0008238	78.7349998951
1300.0	0.0008238	78.7660000324
1300.0	0.0008238	78.8129999638
1310.0	0.0008218	79.0780000687
1310.0	0.0008205	79.125
1310.0	0.0008193	79.1570000648
1310.0	0.0008185	79.2030000687
1310.0	0.000818	79.25
1310.0	0.0008175	79.2820000648
1310.0	0.0008173	79.3280000687
1310.0	0.0008168	79.3599998951
1310.0	0.0008163	79.4070000648
1310.0	0.0008163	79.4530000687
1310.0	0.000816	79.4849998951
1310.0	0.0008155	79.5320000648
1310.0	0.0008155	79.5780000687
1310.0	0.0008155	79.6099998951
1310.0	0.0008153	79.6570000648
1310.0	0.0008148	79.7030000687
1310.0	0.0008143	79.7349998951
1310.0	0.0008148	79.7820000648
1310.0	0.0008148	79.8129999638
1310.0	0.0008153	79.8599998951
1310.0	0.0008153	79.9070000648
1310.0	0.000816	79.9379999638
1310.0	0.0008155	79.9849998951
1310.0	0.0008153	80.0160000324
1310.0	0.000815	80.0629999638
1310.0	0.000815	80.1099998951
1310.0	0.0008148	80.1410000324
1310.0	0.0008148	80.1879999638
1310.0	0.0008148	80.2349998951
1310.0	0.0008153	80.2820000648
1310.0	0.0008153	80.3129999638
1310.0	0.0008153	80.3599998951
1310.0	0.000816	80.3910000324
1310.0	0.000816	80.4379999638
1310.0	0.0008165	80.4849998951
1310.0	0.0008168	80.5320000648
1320.0	0.0008103	80.7820000648
1320.0	0.0008085	80.8280000687
1320.0	0.0008068	80.875
1320.0	0.0008055	80.9070000648
1320.0	0.0008048	80.9530000687
1320.0	0.000804	81.0
1320.0	0.0008035	81.0320000648
1320.0	0.0008025	81.0780000687
1320.0	0.0008018	81.1099998951
1320.0	0.0008015	81.1570000648
1320.0	0.000801	81.2030000687
1320.0	0.0008003	81.2349998951
1320.0	0.0008	81.2820000648
1320.0	0.0007998	81.3280000687
1320.0	0.0008	81.3599998951
1320.0	0.0008	81.4070000648
1320.0	0.0008003	81.4530000687
1320.0	0.0008003	81.4849998951
1320.0	0.0008	81.5320000648
1320.0	0.0008	81.5780000687
1320.0	0.0008003	81.6099998951
1320.0	0.0008	81.6570000648
1320.0	0.0007998	81.7030000687
1320.0	0.0007998	81.7349998951
1320.0	0.0007998	81.7820000648
1320.0	0.0007998	81.8129999638
1320.0	0.0007998	81.8599998951
1320.0	0.0007998	81.9070000648
1320.0	0.0008	81.9379999638
1320.0	0.0007998	81.9849998951
1320.0	0.0007998	82.0320000648
1320.0	0.0007998	82.0629999638
1320.0	0.0008	82.1099998951
1320.0	0.0008003	82.1570000648
1320.0	0.0008003	82.1879999638
1320.0	0.0008003	82.2349998951
1320.0	0.0008005	82.2820000648
1330.0	0.0007925	82.5320000648
1330.0	0.0007898	82.5780000687
1330.0	0.0007875	82.625
1330.0	0.0007855	82.6570000648
1330.0	0.000784	82.7030000687
1330.0	0.0007828	82.75
1330.0	0.0007815	82.7820000648
1330.0	0.000781	82.8280000687
1330.0	0.0007803	82.8599998951
1330.0	0.0007798	82.9070000648
1330.0	0.0007798	82.9530000687
1330.0	0.000779	82.9849998951
1330.0	0.0007793	83.0320000648
1330.0	0.0007793	83.0780000687
1330.0	0.000779	83.1099998951
1330.0	0.0007793	83.1570000648
1330.0	0.0007793	83.1879999638
1330.0	0.0007798	83.2349998951
1330.0	0.00078	83.2820000648
1330.0	0.00078	83.3129999638
1330.0	0.00078	83.3599998951
1330.0	0.0007798	83.4070000648
1330.0	0.0007798	83.4379999638
1330.0	0.0007793	83.4849998951
1330.0	0.0007793	83.5160000324
1330.0	0.0007793	83.5629999638
1330.0	0.000779	83.6099998951
1330.0	0.0007788	83.6410000324
1330.0	0.0007788	83.6879999638
1330.0	0.0007785	83.7349998951
1330.0	0.000778	83.7660000324
1330.0	0.000778	83.8129999638
1330.0	0.000778	83.8440001011
1330.0	0.000778	83.8910000324
1330.0	0.000778	83.9379999638
1330.0	0.0007785	83.9690001011
1330.0	0.0007785	84.0160000324
1340.0	0.0007698	84.2820000648
1340.0	0.000766	84.3129999638
1340.0	0.0007628	84.3599998951
1340.0	0.00076	84.4070000648
1340.0	0.000758	84.4379999638
1340.0	0.0007565	84.4849998951
1340.0	0.0007555	84.5320000648
1340.0	0.000755	84.5629999638
1340.0	0.0007543	84.6099998951
1340.0	0.0007538	84.6410000324
1340.0	0.0007535	84.6879999638
1340.0	0.0007535	84.7349998951
1340.0	0.0007538	84.7660000324
1340.0	0.0007535	84.8129999638
1340.0	0.0007528	84.8599998951
1340.0	0.0007525	84.8910000324
1340.0	0.0007525	84.9379999638
1340.0	0.0007525	84.9690001011
1340.0	0.0007525	85.0160000324
1340.0	0.0007525	85.0629999638
1340.0	0.0007518	85.0940001011
1340.0	0.0007515	85.1410000324
1340.0	0.0007515	85.1879999638
1340.0	0.0007523	85.2190001011
1340.0	0.0007523	85.2660000324
1340.0	0.0007523	85.3129999638
1340.0	0.0007523	85.3440001011
1340.0	0.0007523	85.3910000324
1340.0	0.0007523	85.4379999638
1340.0	0.0007523	85.4690001011
1340.0	0.0007523	85.5160000324
1340.0	0.0007523	85.5629999638
1340.0	0.0007523	85.5940001011
1340.0	0.0007523	85.6410000324
1340.0	0.0007518	85.6719999313
1340.0	0.0007518	85.7190001011
1340.0	0.0007515	85.7660000324
1350.0	0.0007428	86.0320000648
1350.0	0.0007388	86.0629999638
1350.0	0.0007353	86.1099998951
1350.0	0.0007323	86.1410000324
1350.0	0.0007298	86.1879999638
1350.0	0.000728	86.2349998951
1350.0	0.0007265	86.2660000324
1350.0	0.000726	86.3129999638
1350.0	0.0007253	86.3599998951
1350.0	0.0007248	86.3910000324
1350.0	0.0007243	86.4379999638
1350.0	0.000724	86.4690001011
1350.0	0.0007235	86.5160000324
1350.0	0.0007235	86.5629999638
1350.0	0.0007235	86.5940001011
1350.0	0.000723	86.6410000324
1350.0	0.0007235	86.6879999638
1350.0	0.000723	86.7190001011
1350.0	0.0007235	86.7660000324
1350.0	0.000723	86.7969999313
1350.0	0.000723	86.8440001011
1350.0	0.000723	86.8910000324
1350.0	0.0007235	86.9219999313
1350.0	0.000723	86.9690001011
1350.0	0.000723	87.0160000324
1350.0	0.0007228	87.0469999313
1350.0	0.0007228	87.0940001011
1350.0	0.000723	87.1410000324
1350.0	0.0007235	87.1719999313
1350.0	0.0007235	87.2190001011
1350.0	0.0007235	87.25
1350.0	0.0007235	87.2969999313
1350.0	0.0007235	87.3440001011
1350.0	0.0007235	87.375
1350.0	0.0007235	87.4219999313
1350.0	0.000723	87.4690001011
1350.0	0.000723	87.5
1360.0	0.0007125	87.7660000324
1360.0	0.0007085	87.8129999638
1360.0	0.000705	87.8440001011
1360.0	0.0007023	87.8910000324
1360.0	0.0007	87.9379999638
1360.0	0.0006978	87.9690001011
1360.0	0.0006963	88.0160000324
1360.0	0.000695	88.0469999313
1360.0	0.000694	88.0940001011
1360.0	0.0006938	88.1410000324
1360.0	0.0006935	88.1719999313
1360.0	0.0006935	88.2190001011
1360.0	0.000693	88.2660000324
1360.0	0.0006928	88.2969999313
1360.0	0.0006925	88.3440001011
1360.0	0.0006928	88.375
1360.0	0.0006928	88.4219999313
1360.0	0.0006925	88.4690001011
1360.0	0.0006925	88.5
1360.0	0.0006928	88.5469999313
1360.0	0.0006928	88.5940001011
1360.0	0.000693	88.625
1360.0	0.0006928	88.6719999313
1360.0	0.0006935	88.7030000687
1360.0	0.0006935	88.75
1360.0	0.0006938	88.7969999313
1360.0	0.000694	88.8280000687
1360.0	0.0006938	88.875
1360.0	0.0006935	88.9219999313
1360.0	0.0006935	88.9530000687
1360.0	0.0006935	89.0
1360.0	0.0006935	89.0469999313
1360.0	0.0006935	89.0780000687
1360.0	0.000693	89.125
1360.0	0.0006935	89.1570000648
1360.0	0.0006935	89.2030000687
1360.0	0.000693	89.25
1370.0	0.000683	89.5
1370.0	0.0006793	89.5469999313
1370.0	0.0006763	89.5940001011
1370.0	0.0006735	89.625
1370.0	0.0006713	89.6719999313
1370.0	0.0006693	89.7190001011
1370.0	0.000668	89.75
1370.0	0.0006668	89.7969999313
1370.0	0.000666	89.8280000687
1370.0	0.0006655	89.875
1370.0	0.0006653	89.9219999313
1370.0	0.0006648	89.9530000687
1370.0	0.0006643	90.0
1370.0	0.000664	90.0469999313
1370.0	0.000664	90.0780000687
1370.0	0.0006638	90.125
1370.0	0.0006638	90.1719999313
1370.0	0.0006638	90.2030000687
1370.0	0.0006635	90.25
1370.0	0.0006635	90.2820000648
1370.0	0.0006638	90.3280000687
1370.0	0.0006638	90.375
1370.0	0.0006635	90.4070000648
1370.0	0.0006635	90.4530000687
1370.0	0.0006635	90.5
1370.0	0.000663	90.5320000648
1370.0	0.0006628	90.5780000687
1370.0	0.0006625	90.6099998951
1370.0	0.0006625	90.6570000648
1370.0	0.0006625	90.7030000687
1370.0	0.0006628	90.7349998951
1370.0	0.000663	90.7820000648
1370.0	0.0006635	90.8280000687
1370.0	0.0006638	90.8599998951
1370.0	0.0006638	90.9070000648
1370.0	0.0006638	90.9379999638
1370.0	0.0006635	90.9849998951
1380.0	0.000654	91.25
1380.0	0.0006503	91.2969999313
1380.0	0.0006473	91.3280000687
1380.0	0.0006448	91.375
1380.0	0.0006428	91.4070000648
1380.0	0.0006413	91.4530000687
1380.0	0.00064	91.5
1380.0	0.0006395	91.5320000648
1380.0	0.0006388	91.5780000687
1380.0	0.000638	91.625
1380.0	0.0006375	91.6570000648
1380.0	0.000637	91.7030000687
1380.0	0.0006368	91.75
1380.0	0.0006365	91.7820000648
1380.0	0.0006363	91.8280000687
1380.0	0.0006363	91.875
1380.0	0.0006363	91.9070000648
1380.0	0.0006358	91.9530000687
1380.0	0.0006363	92.0
1380.0	0.0006365	92.0320000648
1380.0	0.0006368	92.0780000687
1380.0	0.0006365	92.1099998951
1380.0	0.0006365	92.1570000648
1380.0	0.0006363	92.2030000687
1380.0	0.0006363	92.2349998951
1380.0	0.0006363	92.2820000648
1380.0	0.0006363	92.3129999638
1380.0	0.0006363	92.3599998951
1380.0	0.0006358	92.4070000648
1380.0	0.0006358	92.4379999638
1380.0	0.0006358	92.4849998951
1380.0	0.0006358	92.5320000648
1380.0	0.0006363	92.5780000687
1380.0	0.0006365	92.6099998951
1380.0	0.0006365	92.6570000648
1380.0	0.0006365	92.6879999638
1380.0	0.0006368	92.7349998951
1390.0	0.000627	93.0
1390.0	0.0006238	93.0469999313
1390.0	0.0006205	93.0780000687
1390.0	0.0006183	93.125
1390.0	0.0006165	93.1719999313
1390.0	0.000615	93.2030000687
1390.0	0.0006138	93.25
1390.0	0.0006128	93.2969999313
1390.0	0.0006118	93.3280000687
1390.0	0.0006118	93.375
1390.0	0.0006115	93.4219999313
1390.0	0.0006118	93.4530000687
1390.0	0.0006115	93.5
1390.0	0.0006118	93.5469999313
1390.0	0.000612	93.5780000687
1390.0	0.000612	93.625
1390.0	0.000612	93.6570000648
1390.0	0.0006115	93.7030000687
1390.0	0.0006113	93.75
1390.0	0.0006113	93.7820000648
1390.0	0.0006108	93.8280000687
1390.0	0.0006108	93.875
1390.0	0.0006105	93.9070000648
1390.0	0.0006105	93.9530000687
1390.0	0.0006103	93.9849998951
1390.0	0.0006103	94.0320000648
1390.0	0.00061	94.0780000687
1390.0	0.0006103	94.1099998951
1390.0	0.0006105	94.1570000648
1390.0	0.0006105	94.2030000687
1390.0	0.0006108	94.2349998951
1390.0	0.0006105	94.2820000648
1390.0	0.0006105	94.3129999638
1390.0	0.0006105	94.3599998951
1390.0	0.0006108	94.4070000648
1390.0	0.0006113	94.4379999638
1390.0	0.0006108	94.4849998951
1400.0	0.0006033	94.75
1400.0	0.0006003	94.7969999313
1400.0	0.0005975	94.8280000687
1400.0	0.0005955	94.875
1400.0	0.000594	94.9219999313
1400.0	0.000593	94.9530000687
1400.0	0.000592	95.0
1400.0	0.0005915	95.0469999313
1400.0	0.0005905	95.0780000687
1400.0	0.00059	95.125
1400.0	0.0005895	95.1570000648
1400.0	0.0005893	95.2030000687
1400.0	0.0005893	95.25
1400.0	0.0005893	95.2820000648
1400.0	0.0005893	95.3280000687
1400.0	0.0005893	95.375
1400.0	0.0005893	95.4070000648
1400.0	0.0005893	95.4530000687
1400.0	0.000589	95.4849998951
1400.0	0.0005893	95.5320000648
1400.0	0.000589	95.5780000687
1400.0	0.000589	95.6099998951
1400.0	0.0005893	95.6570000648
1400.0	0.0005893	95.7030000687
1400.0	0.000589	95.7349998951
1400.0	0.000589	95.7820000648
1400.0	0.0005893	95.8129999638
1400.0	0.0005893	95.8599998951
1400.0	0.0005895	95.9070000648
1400.0	0.00059	95.9379999638
1400.0	0.0005895	95.9849998951
1400.0	0.00059	96.0320000648
1400.0	0.0005903	96.0629999638
1400.0	0.0005903	96.1099998951
1400.0	0.00059	96.1410000324
1400.0	0.00059	96.1879999638
1400.0	0.0005895	96.2349998951
1410.0	0.000583	96.5
1410.0	0.0005808	96.5320000648
1410.0	0.000579	96.5780000687
1410.0	0.0005775	96.625
1410.0	0.0005763	96.6570000648
1410.0	0.000575	96.7030000687
1410.0	0.0005738	96.75
1410.0	0.000573	96.7820000648
1410.0	0.0005728	96.8280000687
1410.0	0.000573	96.875
1410.0	0.000573	96.9070000648
1410.0	0.000573	96.9530000687
1410.0	0.0005733	96.9849998951
1410.0	0.0005733	97.0320000648
1410.0	0.000573	97.0780000687
1410.0	0.0005728	97.1099998951
1410.0	0.0005725	97.1570000648
1410.0	0.000572	97.1879999638
1410.0	0.0005718	97.2349998951
1410.0	0.0005718	97.2820000648
1410.0	0.0005715	97.3129999638
1410.0	0.0005715	97.3599998951
1410.0	0.0005718	97.4070000648
1410.0	0.0005718	97.4379999638
1410.0	0.000572	97.4849998951
1410.0	0.0005718	97.5320000648
1410.0	0.0005718	97.5629999638
1410.0	0.0005715	97.6099998951
1410.0	0.0005718	97.6410000324
1410.0	0.0005718	97.6879999638
1410.0	0.0005715	97.7349998951
1410.0	0.0005715	97.7660000324
1410.0	0.0005713	97.8129999638
1410.0	0.0005713	97.8599998951
1410.0	0.0005715	97.8910000324
1410.0	0.0005718	97.9379999638
1410.0	0.000572	97.9690001011
1420.0	0.000567	98.25
1420.0	0.0005658	98.2820000648
1420.0	0.000565	98.3280000687
1420.0	0.000564	98.3599998951
1420.0	0.0005638	98.4070000648
1420.0	0.000563	98.4530000687
1420.0	0.0005628	98.5
1420.0	0.0005628	98.5320000648
1420.0	0.0005625	98.5780000687
1420.0	0.0005625	98.6099998951
1420.0	0.0005625	98.6570000648
1420.0	0.000562	98.7030000687
1420.0	0.000562	98.7349998951
1420.0	0.000562	98.7820000648
1420.0	0.0005625	98.8280000687
1420.0	0.0005625	98.8599998951
1420.0	0.0005625	98.9070000648
1420.0	0.000562	98.9379999638
1420.0	0.000562	98.9849998951
1420.0	0.0005618	99.0320000648
1420.0	0.000562	99.0629999638
1420.0	0.0005618	99.1099998951
1420.0	0.000562	99.1570000648
1420.0	0.0005625	99.1879999638
1420.0	0.0005625	99.2349998951
1420.0	0.0005625	99.2820000648
1420.0	0.0005625	99.3129999638
1420.0	0.0005625	99.3599998951
1420.0	0.000562	99.3910000324
1420.0	0.0005618	99.4379999638
1420.0	0.0005615	99.4849998951
1420.0	0.0005615	99.5160000324
1420.0	0.0005618	99.5629999638
1420.0	0.0005618	99.6099998951
1420.0	0.0005618	99.6410000324
1420.0	0.0005618	99.6879999638
1420.0	0.0005618	99.7190001011
1430.0	0.0005593	100.0
1430.0	0.0005588	100.032000065
1430.0	0.0005588	100.078000069
1430.0	0.0005583	100.109999895
1430.0	0.000558	100.157000065
1430.0	0.0005578	100.203000069
1430.0	0.0005578	100.234999895
1430.0	0.0005578	100.282000065
1430.0	0.000558	100.328000069
1430.0	0.000558	100.359999895
1430.0	0.000558	100.407000065
1430.0	0.000558	100.437999964
1430.0	0.000558	100.484999895
1430.0	0.0005575	100.532000065
1430.0	0.0005575	100.562999964
1430.0	0.0005575	100.609999895
1430.0	0.0005575	100.657000065
1430.0	0.0005578	100.687999964
1430.0	0.0005575	100.734999895
1430.0	0.0005575	100.782000065
1430.0	0.0005575	100.812999964
1430.0	0.0005575	100.859999895
1430.0	0.0005575	100.907000065
1430.0	0.000557	100.937999964
1430.0	0.0005575	100.984999895
1430.0	0.000557	101.032000065
1430.0	0.000557	101.062999964
1430.0	0.000557	101.109999895
1430.0	0.000557	101.141000032
1430.0	0.000557	101.187999964
1430.0	0.0005575	101.234999895
1430.0	0.0005578	101.266000032
1430.0	0.0005578	101.312999964
1430.0	0.000558	101.359999895
1430.0	0.0005583	101.391000032
1430.0	0.000558	101.437999964
1430.0	0.000558	101.469000101
1440.0	0.000559	101.75
1440.0	0.0005593	101.782000065
1440.0	0.0005593	101.828000069
1440.0	0.0005593	101.859999895
1440.0	0.0005595	101.907000065
1440.0	0.0005595	101.953000069
1440.0	0.0005595	101.984999895
1440.0	0.0005595	102.032000065
1440.0	0.0005593	102.078000069
1440.0	0.0005593	102.109999895
1440.0	0.0005593	102.157000065
1440.0	0.0005595	102.187999964
1440.0	0.0005603	102.234999895
1440.0	0.0005603	102.282000065
1440.0	0.0005603	102.312999964
1440.0	0.0005603	102.359999895
1440.0	0.00056	102.407000065
1440.0	0.00056	102.437999964
1440.0	0.00056	102.484999895
1440.0	0.00056	102.516000032
1440.0	0.0005603	102.562999964
1440.0	0.0005603	102.609999895
1440.0	0.00056	102.641000032
1440.0	0.0005593	102.687999964
1440.0	0.000559	102.734999895
1440.0	0.000559	102.766000032
1440.0	0.0005588	102.812999964
1440.0	0.0005588	102.844000101
1440.0	0.0005588	102.891000032
1440.0	0.0005583	102.937999964
1440.0	0.0005588	102.969000101
1440.0	0.0005588	103.016000032
1440.0	0.0005593	103.062999964
1440.0	0.0005593	103.094000101
1440.0	0.00056	103.141000032
1440.0	0.00056	103.187999964
1440.0	0.00056	103.219000101
1450.0	0.0005613	103.5
1450.0	0.0005618	103.532000065
1450.0	0.000563	103.578000069
1450.0	0.0005643	103.609999895
1450.0	0.0005653	103.657000065
1450.0	0.0005655	103.703000069
1450.0	0.0005663	103.734999895
1450.0	0.0005663	103.782000065
1450.0	0.0005663	103.812999964
1450.0	0.0005665	103.859999895
1450.0	0.0005668	103.907000065
1450.0	0.000567	103.937999964
1450.0	0.0005675	103.984999895
1450.0	0.0005678	104.032000065
1450.0	0.0005675	104.062999964
1450.0	0.0005675	104.109999895
1450.0	0.0005675	104.157000065
1450.0	0.000567	104.187999964
1450.0	0.0005668	104.234999895
1450.0	0.0005668	104.266000032
1450.0	0.0005663	104.312999964
1450.0	0.0005663	104.359999895
1450.0	0.0005658	104.391000032
1450.0	0.0005658	104.437999964
1450.0	0.0005663	104.484999895
1450.0	0.0005663	104.516000032
1450.0	0.0005663	104.562999964
1450.0	0.0005658	104.594000101
1450.0	0.0005663	104.641000032
1450.0	0.0005663	104.687999964
1450.0	0.0005663	104.719000101
1450.0	0.0005663	104.766000032
1450.0	0.0005663	104.812999964
1450.0	0.0005665	104.844000101
1450.0	0.0005665	104.891000032
1450.0	0.0005665	104.921999931
1450.0	0.0005665	104.969000101
1460.0	0.0005705	105.234999895
1460.0	0.0005718	105.282000065
1460.0	0.000573	105.312999964
1460.0	0.000574	105.359999895
1460.0	0.0005745	105.407000065
1460.0	0.000575	105.437999964
1460.0	0.000575	105.484999895
1460.0	0.0005753	105.532000065
1460.0	0.000575	105.562999964
1460.0	0.0005753	105.609999895
1460.0	0.0005753	105.657000065
1460.0	0.0005753	105.687999964
1460.0	0.000575	105.734999895
1460.0	0.000575	105.782000065
1460.0	0.000575	105.812999964
1460.0	0.000575	105.859999895
1460.0	0.0005755	105.891000032
1460.0	0.0005755	105.937999964
1460.0	0.0005758	105.984999895
1460.0	0.0005755	106.016000032
1460.0	0.0005755	106.062999964
1460.0	0.0005755	106.109999895
1460.0	0.0005755	106.141000032
1460.0	0.0005755	106.187999964
1460.0	0.0005755	106.234999895
1460.0	0.0005753	106.266000032
1460.0	0.0005755	106.312999964
1460.0	0.0005755	106.344000101
1460.0	0.0005755	106.391000032
1460.0	0.0005755	106.437999964
1460.0	0.0005755	106.469000101
1460.0	0.0005753	106.516000032
1460.0	0.000575	106.562999964
1460.0	0.000575	106.594000101
1460.0	0.0005755	106.641000032
1460.0	0.0005755	106.671999931
1470.0	0.000579	106.953000069
1470.0	0.0005805	106.984999895
1470.0	0.0005815	107.032000065
1470.0	0.0005818	107.062999964
1470.0	0.0005828	107.109999895
1470.0	0.0005833	107.157000065
1470.0	0.000584	107.187999964
1470.0	0.000585	107.234999895
1470.0	0.0005853	107.282000065
1470.0	0.0005855	107.312999964
1470.0	0.0005855	107.359999895
1470.0	0.0005853	107.391000032
1470.0	0.0005853	107.437999964
1470.0	0.000585	107.484999895
1470.0	0.000585	107.532000065
1470.0	0.000585	107.562999964
1470.0	0.000585	107.609999895
1470.0	0.0005845	107.641000032
1470.0	0.0005845	107.687999964
1470.0	0.0005845	107.734999895
1470.0	0.000585	107.766000032
1470.0	0.0005853	107.812999964
1470.0	0.0005853	107.859999895
1470.0	0.0005855	107.891000032
1470.0	0.0005855	107.937999964
1470.0	0.000585	107.984999895
1470.0	0.000585	108.016000032
1470.0	0.000585	108.062999964
1470.0	0.0005845	108.094000101
1470.0	0.000585	108.141000032
1470.0	0.000585	108.187999964
1470.0	0.0005845	108.219000101
1470.0	0.0005843	108.266000032
1470.0	0.0005845	108.312999964
1470.0	0.000585	108.344000101
1470.0	0.0005853	108.391000032
1470.0	0.0005855	108.421999931
1480.0	0.0005893	108.703000069
1480.0	0.0005905	108.734999895
1480.0	0.0005918	108.782000065
1480.0	0.000593	108.812999964
1480.0	0.0005938	108.859999895
1480.0	0.0005943	108.907000065
1480.0	0.0005945	108.937999964
1480.0	0.000595	108.984999895
1480.0	0.000595	109.032000065
1480.0	0.0005953	109.062999964
1480.0	0.0005955	109.109999895
1480.0	0.0005953	109.141000032
1480.0	0.000595	109.187999964
1480.0	0.000595	109.234999895
1480.0	0.000595	109.266000032
1480.0	0.000595	109.312999964
1480.0	0.0005953	109.359999895
1480.0	0.0005953	109.391000032
1480.0	0.0005953	109.437999964
1480.0	0.0005953	109.469000101
1480.0	0.0005955	109.516000032
1480.0	0.0005955	109.562999964
1480.0	0.0005955	109.594000101
1480.0	0.0005953	109.641000032
1480.0	0.0005953	109.687999964
1480.0	0.0005955	109.719000101
1480.0	0.0005955	109.766000032
1480.0	0.0005958	109.796999931
1480.0	0.0005958	109.844000101
1480.0	0.0005958	109.891000032
1480.0	0.0005963	109.921999931
1480.0	0.0005958	109.969000101
1480.0	0.0005958	110.016000032
1480.0	0.0005963	110.046999931
1480.0	0.0005958	110.094000101
1480.0	0.0005955	110.141000032
1480.0	0.0005955	110.171999931
1490.0	0.0005988	110.437999964
1490.0	0.0006	110.484999895
1490.0	0.0006008	110.532000065
1490.0	0.0006013	110.562999964
1490.0	0.0006018	110.609999895
1490.0	0.000602	110.657000065
1490.0	0.0006025	110.687999964
1490.0	0.0006025	110.734999895
1490.0	0.0006025	110.766000032
1490.0	0.0006025	110.812999964
1490.0	0.0006028	110.859999895
1490.0	0.0006028	110.891000032
1490.0	0.0006028	110.937999964
1490.0	0.000603	110.984999895
1490.0	0.0006033	111.016000032
1490.0	0.000604	111.062999964
1490.0	0.000604	111.109999895
1490.0	0.000604	111.141000032
1490.0	0.000604	111.187999964
1490.0	0.0006038	111.219000101
1490.0	0.0006038	111.266000032
1490.0	0.0006038	111.312999964
1490.0	0.0006038	111.344000101
1490.0	0.000604	111.391000032
1490.0	0.0006043	111.437999964
1490.0	0.000604	111.469000101
1490.0	0.000604	111.516000032
1490.0	0.000604	111.546999931
1490.0	0.0006043	111.594000101
1490.0	0.000604	111.641000032
1490.0	0.0006038	111.671999931
1490.0	0.0006033	111.719000101
1490.0	0.0006033	111.766000032
1490.0	0.0006033	111.796999931
1490.0	0.000603	111.844000101
1490.0	0.000603	111.891000032
1490.0	0.000603	111.921999931
1500.0	0.0006058	112.187999964
1500.0	0.0006065	112.234999895
1500.0	0.0006075	112.282000065
1500.0	0.0006078	112.312999964
1500.0	0.0006078	112.359999895
1500.0	0.0006078	112.407000065
1500.0	0.000608	112.437999964
1500.0	0.0006083	112.484999895
1500.0	0.0006083	112.532000065
1500.0	0.0006088	112.562999964
1500.0	0.000609	112.609999895
1500.0	0.000609	112.641000032
1500.0	0.000609	112.687999964
1500.0	0.000609	112.734999895
1500.0	0.000609	112.766000032
1500.0	0.0006088	112.812999964
1500.0	0.0006088	112.859999895
1500.0	0.0006088	112.891000032
1500.0	0.0006088	112.937999964
1500.0	0.0006088	112.969000101
1500.0	0.000609	113.016000032
1500.0	0.0006093	113.062999964
1500.0	0.0006093	113.094000101
1500.0	0.0006093	113.141000032
1500.0	0.0006093	113.187999964
1500.0	0.00061	113.219000101
1500.0	0.0006095	113.266000032
1500.0	0.0006093	113.296999931
1500.0	0.0006093	113.344000101
1500.0	0.000609	113.391000032
1500.0	0.0006093	113.421999931
1500.0	0.0006093	113.469000101
1500.0	0.0006095	113.516000032
1500.0	0.00061	113.546999931
1500.0	0.00061	113.594000101
1500.0	0.0006103	113.625
1500.0	0.0006103	113.671999931
1510.0	0.0006105	113.953000069
1510.0	0.0006108	113.984999895
1510.0	0.0006113	114.032000065
1510.0	0.0006115	114.078000069
1510.0	0.0006118	114.109999895
1510.0	0.000612	114.157000065
1510.0	0.000612	114.187999964
1510.0	0.000612	114.234999895
1510.0	0.0006128	114.282000065
1510.0	0.000613	114.312999964
1510.0	0.000613	114.359999895
1510.0	0.0006128	114.407000065
1510.0	0.0006128	114.437999964
1510.0	0.0006128	114.484999895
1510.0	0.0006128	114.532000065
1510.0	0.000613	114.562999964
1510.0	0.000613	114.609999895
1510.0	0.0006138	114.641000032
1510.0	0.000614	114.687999964
1510.0	0.0006138	114.734999895
1510.0	0.0006138	114.766000032
1510.0	0.0006138	114.812999964
1510.0	0.000613	114.859999895
1510.0	0.000613	114.891000032
1510.0	0.0006128	114.937999964
1510.0	0.0006133	114.969000101
1510.0	0.0006138	115.016000032
1510.0	0.0006138	115.062999964
1510.0	0.0006138	115.094000101
1510.0	0.0006133	115.141000032
1510.0	0.0006133	115.187999964
1510.0	0.0006133	115.219000101
1510.0	0.0006138	115.266000032
1510.0	0.000614	115.296999931
1510.0	0.000614	115.344000101
1510.0	0.000614	115.391000032
1510.0	0.000614	115.421999931
1520.0	0.000614	115.703000069
1520.0	0.0006143	115.734999895
1520.0	0.0006143	115.782000065
1520.0	0.0006143	115.828000069
1520.0	0.0006143	115.859999895
1520.0	0.000614	115.907000065
1520.0	0.0006143	115.937999964
1520.0	0.0006143	115.984999895
1520.0	0.0006143	116.032000065
1520.0	0.0006143	116.062999964
1520.0	0.0006143	116.109999895
1520.0	0.0006143	116.157000065
1520.0	0.0006143	116.187999964
1520.0	0.0006143	116.234999895
1520.0	0.0006143	116.282000065
1520.0	0.0006143	116.312999964
1520.0	0.0006145	116.359999895
1520.0	0.0006143	116.391000032
1520.0	0.0006143	116.437999964
1520.0	0.0006143	116.484999895
1520.0	0.000614	116.516000032
1520.0	0.000614	116.562999964
1520.0	0.0006138	116.609999895
1520.0	0.0006133	116.641000032
1520.0	0.0006133	116.687999964
1520.0	0.000613	116.719000101
1520.0	0.000613	116.766000032
1520.0	0.0006138	116.812999964
1520.0	0.0006138	116.844000101
1520.0	0.0006138	116.891000032
1520.0	0.000614	116.937999964
1520.0	0.0006143	116.969000101
1520.0	0.000614	117.016000032
1520.0	0.000614	117.046999931
1520.0	0.000614	117.094000101
1520.0	0.000614	117.141000032
1520.0	0.0006143	117.171999931
1530.0	0.0006138	117.453000069
1530.0	0.0006133	117.5
1530.0	0.0006133	117.532000065
1530.0	0.000613	117.578000069
1530.0	0.000613	117.625
1530.0	0.0006125	117.657000065
1530.0	0.000612	117.703000069
1530.0	0.000612	117.734999895
1530.0	0.0006125	117.782000065
1530.0	0.0006128	117.828000069
1530.0	0.0006128	117.875
1530.0	0.0006128	117.907000065
1530.0	0.000613	117.953000069
1530.0	0.0006128	117.984999895
1530.0	0.0006128	118.032000065
1530.0	0.0006125	118.078000069
1530.0	0.0006118	118.109999895
1530.0	0.0006118	118.157000065
1530.0	0.000612	118.187999964
1530.0	0.000612	118.234999895
1530.0	0.0006125	118.282000065
1530.0	0.000612	118.312999964
1530.0	0.0006125	118.359999895
1530.0	0.0006125	118.407000065
1530.0	0.0006125	118.437999964
1530.0	0.0006125	118.484999895
1530.0	0.0006125	118.532000065
1530.0	0.0006125	118.562999964
1530.0	0.0006128	118.609999895
1530.0	0.0006128	118.641000032
1530.0	0.0006128	118.687999964
1530.0	0.0006128	118.734999895
1530.0	0.0006125	118.766000032
1530.0	0.0006125	118.812999964
1530.0	0.0006125	118.859999895
1530.0	0.0006125	118.891000032
1530.0	0.0006125	118.937999964
1540.0	0.00061	119.203000069
1540.0	0.0006093	119.25
1540.0	0.000609	119.296999931
1540.0	0.0006088	119.328000069
1540.0	0.000608	119.375
1540.0	0.000608	119.421999931
1540.0	0.0006075	119.453000069
1540.0	0.0006068	119.5
1540.0	0.0006065	119.546999931
1540.0	0.0006065	119.578000069
1540.0	0.0006065	119.625
1540.0	0.0006065	119.657000065
1540.0	0.0006065	119.703000069
1540.0	0.0006065	119.75
1540.0	0.0006065	119.782000065
1540.0	0.0006063	119.828000069
1540.0	0.0006063	119.875
1540.0	0.0006065	119.907000065
1540.0	0.0006068	119.953000069
1540.0	0.000607	119.984999895
1540.0	0.000607	120.032000065
1540.0	0.0006068	120.078000069
1540.0	0.0006068	120.109999895
1540.0	0.0006065	120.157000065
1540.0	0.0006063	120.203000069
1540.0	0.0006065	120.234999895
1540.0	0.0006068	120.282000065
1540.0	0.000607	120.312999964
1540.0	0.0006068	120.359999895
1540.0	0.000607	120.407000065
1540.0	0.000607	120.437999964
1540.0	0.0006068	120.484999895
1540.0	0.0006068	120.532000065
1540.0	0.0006068	120.562999964
1540.0	0.0006068	120.609999895
1540.0	0.000607	120.641000032
1540.0	0.0006068	120.687999964
1550.0	0.0006025	120.953000069
1550.0	0.0006015	121.0
1550.0	0.0006005	121.046999931
1550.0	0.0006	121.078000069
1550.0	0.0005988	121.125
1550.0	0.0005983	121.171999931
1550.0	0.0005983	121.203000069
1550.0	0.000598	121.25
1550.0	0.000598	121.282000065
1550.0	0.0005978	121.328000069
1550.0	0.0005978	121.375
1550.0	0.0005975	121.407000065
1550.0	0.000597	121.453000069
1550.0	0.0005968	121.5
1550.0	0.0005968	121.532000065
1550.0	0.0005968	121.578000069
1550.0	0.0005965	121.625
1550.0	0.0005963	121.657000065
1550.0	0.0005963	121.703000069
1550.0	0.0005963	121.734999895
1550.0	0.0005963	121.782000065
1550.0	0.0005963	121.828000069
1550.0	0.0005958	121.859999895
1550.0	0.0005958	121.907000065
1550.0	0.0005955	121.937999964
1550.0	0.0005955	121.984999895
1550.0	0.0005958	122.032000065
1550.0	0.0005965	122.078000069
1550.0	0.0005968	122.109999895
1550.0	0.0005968	122.157000065
1550.0	0.0005968	122.203000069
1550.0	0.0005968	122.234999895
1550.0	0.0005968	122.282000065
1550.0	0.0005965	122.312999964
1550.0	0.0005965	122.359999895
1550.0	0.0005963	122.407000065
1550.0	0.0005963	122.437999964
1560.0	0.0005913	122.719000101
1560.0	0.0005893	122.766000032
1560.0	0.0005878	122.796999931
1560.0	0.0005865	122.844000101
1560.0	0.0005853	122.875
1560.0	0.0005843	122.921999931
1560.0	0.0005838	122.969000101
1560.0	0.0005838	123.0
1560.0	0.0005833	123.046999931
1560.0	0.000583	123.094000101
1560.0	0.0005828	123.125
1560.0	0.0005825	123.171999931
1560.0	0.000582	123.219000101
1560.0	0.000582	123.25
1560.0	0.0005825	123.296999931
1560.0	0.000582	123.328000069
1560.0	0.0005818	123.375
1560.0	0.0005818	123.421999931
1560.0	0.000582	123.453000069
1560.0	0.0005825	123.5
1560.0	0.000582	123.546999931
1560.0	0.0005825	123.578000069
1560.0	0.000582	123.625
1560.0	0.000582	123.657000065
1560.0	0.000582	123.703000069
1560.0	0.0005818	123.75
1560.0	0.0005818	123.782000065
1560.0	0.0005818	123.828000069
1560.0	0.0005818	123.875
1560.0	0.000582	123.907000065
1560.0	0.000582	123.953000069
1560.0	0.000582	123.984999895
1560.0	0.000582	124.032000065
1560.0	0.000582	124.078000069
1560.0	0.0005818	124.109999895
1560.0	0.000582	124.157000065
1560.0	0.0005818	124.203000069
1570.0	0.000575	124.469000101
1570.0	0.0005725	124.516000032
1570.0	0.0005705	124.546999931
1570.0	0.0005683	124.594000101
1570.0	0.0005668	124.625
1570.0	0.0005658	124.671999931
1570.0	0.000565	124.719000101
1570.0	0.000564	124.75
1570.0	0.0005633	124.796999931
1570.0	0.0005628	124.844000101
1570.0	0.0005628	124.875
1570.0	0.0005628	124.921999931
1570.0	0.0005625	124.953000069
1570.0	0.000562	125.0
1570.0	0.0005618	125.046999931
1570.0	0.000562	125.078000069
1570.0	0.0005618	125.125
1570.0	0.0005618	125.171999931
1570.0	0.0005618	125.203000069
1570.0	0.0005618	125.25
1570.0	0.0005618	125.296999931
1570.0	0.0005618	125.328000069
1570.0	0.0005615	125.375
1570.0	0.0005618	125.407000065
1570.0	0.0005618	125.453000069
1570.0	0.000562	125.5
1570.0	0.000562	125.532000065
1570.0	0.0005618	125.578000069
1570.0	0.000562	125.625
1570.0	0.0005618	125.657000065
1570.0	0.0005618	125.703000069
1570.0	0.000562	125.734999895
1570.0	0.0005625	125.782000065
1570.0	0.0005625	125.828000069
1570.0	0.0005625	125.859999895
1570.0	0.0005625	125.907000065
1570.0	0.0005625	125.953000069
1580.0	0.0005525	126.219000101
1580.0	0.000549	126.266000032
1580.0	0.0005465	126.296999931
1580.0	0.0005443	126.344000101
1580.0	0.0005428	126.391000032
1580.0	0.0005418	126.421999931
1580.0	0.0005405	126.469000101
1580.0	0.00054	126.516000032
1580.0	0.0005393	126.546999931
1580.0	0.000539	126.594000101
1580.0	0.0005388	126.625
1580.0	0.0005383	126.671999931
1580.0	0.000538	126.719000101
1580.0	0.000538	126.75
1580.0	0.000538	126.796999931
1580.0	0.000538	126.844000101
1580.0	0.0005388	126.875
1580.0	0.0005383	126.921999931
1580.0	0.000538	126.953000069
1580.0	0.0005378	127.0
1580.0	0.0005378	127.046999931
1580.0	0.000538	127.078000069
1580.0	0.000538	127.125
1580.0	0.0005378	127.171999931
1580.0	0.0005378	127.203000069
1580.0	0.0005378	127.25
1580.0	0.0005375	127.296999931
1580.0	0.0005375	127.328000069
1580.0	0.000537	127.375
1580.0	0.000537	127.407000065
1580.0	0.000537	127.453000069
1580.0	0.000537	127.5
1580.0	0.000537	127.546999931
1580.0	0.000537	127.578000069
1580.0	0.0005375	127.625
1580.0	0.0005375	127.657000065
1580.0	0.0005375	127.703000069
1590.0	0.0005275	127.984999895
1590.0	0.0005238	128.016000032
1590.0	0.0005205	128.062999964
1590.0	0.0005178	128.109999895
1590.0	0.0005153	128.141000032
1590.0	0.0005133	128.187999964
1590.0	0.000512	128.219000101
1590.0	0.0005113	128.266000032
1590.0	0.0005105	128.312999964
1590.0	0.0005103	128.344000101
1590.0	0.0005095	128.391000032
1590.0	0.0005095	128.437999964
1590.0	0.00051	128.469000101
1590.0	0.0005095	128.516000032
1590.0	0.0005095	128.546999931
1590.0	0.0005095	128.594000101
1590.0	0.0005093	128.641000032
1590.0	0.000509	128.671999931
1590.0	0.0005088	128.719000101
1590.0	0.0005088	128.766000032
1590.0	0.0005088	128.796999931
1590.0	0.000509	128.844000101
1590.0	0.0005093	128.891000032
1590.0	0.0005095	128.921999931
1590.0	0.0005093	128.969000101
1590.0	0.000509	129.0
1590.0	0.000509	129.046999931
1590.0	0.000509	129.094000101
1590.0	0.0005088	129.125
1590.0	0.000509	129.171999931
1590.0	0.0005093	129.219000101
1590.0	0.000509	129.25
1590.0	0.000509	129.296999931
1590.0	0.0005088	129.328000069
1590.0	0.0005088	129.375
1590.0	0.0005088	129.421999931
1590.0	0.0005088	129.453000069
1600.0	0.0004975	129.734999895
1600.0	0.000493	129.782000065
1600.0	0.00049	129.812999964
1600.0	0.000487	129.859999895
1600.0	0.0004853	129.891000032
1600.0	0.0004838	129.937999964
1600.0	0.000482	129.984999895
1600.0	0.0004808	130.016000032
1600.0	0.00048	130.062999964
1600.0	0.0004793	130.109999895
1600.0	0.0004788	130.141000032
1600.0	0.0004783	130.187999964
1600.0	0.0004788	130.219000101
1600.0	0.000479	130.266000032
1600.0	0.000479	130.312999964
1600.0	0.000479	130.344000101
1600.0	0.000479	130.391000032
1600.0	0.000479	130.437999964
1600.0	0.000479	130.469000101
1600.0	0.0004783	130.516000032
1600.0	0.0004783	130.546999931
1600.0	0.0004783	130.594000101
1600.0	0.000478	130.641000032
1600.0	0.000478	130.671999931
1600.0	0.0004788	130.719000101
1600.0	0.0004783	130.766000032
1600.0	0.0004783	130.796999931
1600.0	0.000478	130.844000101
1600.0	0.0004778	130.891000032
1600.0	0.0004778	130.921999931
1600.0	0.0004778	130.969000101
1600.0	0.0004778	131.0
1600.0	0.000478	131.046999931
1600.0	0.000478	131.094000101
1600.0	0.000478	131.125
1600.0	0.0004783	131.171999931
1600.0	0.000478	131.219000101
1610.0	0.0004655	131.484999895
1610.0	0.0004608	131.532000065
1610.0	0.000457	131.578000069
1610.0	0.0004538	131.609999895
1610.0	0.0004515	131.657000065
1610.0	0.0004503	131.703000069
1610.0	0.000449	131.734999895
1610.0	0.000448	131.782000065
1610.0	0.0004475	131.812999964
1610.0	0.0004468	131.859999895
1610.0	0.0004465	131.907000065
1610.0	0.0004465	131.937999964
1610.0	0.0004463	131.984999895
1610.0	0.0004463	132.032000065
1610.0	0.0004458	132.062999964
1610.0	0.0004455	132.109999895
1610.0	0.0004453	132.141000032
1610.0	0.000445	132.187999964
1610.0	0.000445	132.234999895
1610.0	0.000445	132.266000032
1610.0	0.0004445	132.312999964
1610.0	0.0004445	132.359999895
1610.0	0.0004445	132.391000032
1610.0	0.0004445	132.437999964
1610.0	0.0004445	132.484999895
1610.0	0.0004453	132.516000032
1610.0	0.0004455	132.562999964
1610.0	0.0004455	132.594000101
1610.0	0.0004453	132.641000032
1610.0	0.000445	132.687999964
1610.0	0.000445	132.719000101
1610.0	0.000445	132.766000032
1610.0	0.000445	132.812999964
1610.0	0.000445	132.844000101
1610.0	0.0004445	132.891000032
1610.0	0.000445	132.921999931
1610.0	0.0004453	132.969000101
1620.0	0.0004313	133.25
1620.0	0.0004263	133.296999931
1620.0	0.0004225	133.328000069
1620.0	0.0004188	133.375
1620.0	0.0004163	133.421999931
1620.0	0.000414	133.453000069
1620.0	0.000412	133.5
1620.0	0.0004115	133.546999931
1620.0	0.0004108	133.578000069
1620.0	0.0004105	133.625
1620.0	0.00041	133.657000065
1620.0	0.0004103	133.703000069
1620.0	0.00041	133.75
1620.0	0.0004095	133.782000065
1620.0	0.0004093	133.828000069
1620.0	0.0004093	133.875
1620.0	0.0004093	133.907000065
1620.0	0.0004093	133.953000069
1620.0	0.0004088	134.0
1620.0	0.000408	134.032000065
1620.0	0.0004075	134.078000069
1620.0	0.0004075	134.109999895
1620.0	0.0004078	134.157000065
1620.0	0.000408	134.203000069
1620.0	0.0004083	134.234999895
1620.0	0.000408	134.282000065
1620.0	0.0004083	134.328000069
1620.0	0.0004088	134.359999895
1620.0	0.0004093	134.407000065
1620.0	0.0004093	134.437999964
1620.0	0.0004093	134.484999895
1620.0	0.0004093	134.532000065
1620.0	0.0004093	134.562999964
1620.0	0.000409	134.609999895
1620.0	0.0004093	134.657000065
1620.0	0.0004093	134.687999964
1620.0	0.0004093	134.734999895
1630.0	0.0003945	135.016000032
1630.0	0.00039	135.046999931
1630.0	0.0003855	135.094000101
1630.0	0.000382	135.141000032
1630.0	0.0003795	135.171999931
1630.0	0.000378	135.219000101
1630.0	0.0003768	135.25
1630.0	0.0003758	135.296999931
1630.0	0.000375	135.344000101
1630.0	0.0003745	135.375
1630.0	0.0003743	135.421999931
1630.0	0.0003743	135.469000101
1630.0	0.0003743	135.5
1630.0	0.000374	135.546999931
1630.0	0.0003738	135.594000101
1630.0	0.0003738	135.625
1630.0	0.0003738	135.671999931
1630.0	0.000373	135.703000069
1630.0	0.0003725	135.75
1630.0	0.000372	135.796999931
1630.0	0.0003718	135.828000069
1630.0	0.0003715	135.875
1630.0	0.0003713	135.921999931
1630.0	0.0003715	135.953000069
1630.0	0.000372	136.0
1630.0	0.0003725	136.032000065
1630.0	0.0003725	136.078000069
1630.0	0.0003728	136.125
1630.0	0.000373	136.157000065
1630.0	0.0003728	136.203000069
1630.0	0.000373	136.25
1630.0	0.0003728	136.282000065
1630.0	0.000373	136.328000069
1630.0	0.0003728	136.359999895
1630.0	0.0003728	136.407000065
1630.0	0.0003725	136.453000069
1630.0	0.0003725	136.484999895
1640.0	0.000359	136.766000032
1640.0	0.0003543	136.812999964
1640.0	0.0003505	136.859999895
1640.0	0.000347	136.891000032
1640.0	0.0003443	136.937999964
1640.0	0.0003425	136.984999895
1640.0	0.0003408	137.016000032
1640.0	0.00034	137.062999964
1640.0	0.000339	137.094000101
1640.0	0.0003383	137.141000032
1640.0	0.000338	137.187999964
1640.0	0.000338	137.219000101
1640.0	0.0003378	137.266000032
1640.0	0.0003375	137.312999964
1640.0	0.000337	137.344000101
1640.0	0.000337	137.391000032
1640.0	0.000337	137.421999931
1640.0	0.000337	137.469000101
1640.0	0.000337	137.516000032
1640.0	0.0003368	137.546999931
1640.0	0.0003368	137.594000101
1640.0	0.0003368	137.641000032
1640.0	0.0003368	137.671999931
1640.0	0.0003368	137.719000101
1640.0	0.0003368	137.766000032
1640.0	0.0003365	137.796999931
1640.0	0.0003368	137.844000101
1640.0	0.000337	137.875
1640.0	0.000337	137.921999931
1640.0	0.000337	137.969000101
1640.0	0.0003368	138.0
1640.0	0.0003368	138.046999931
1640.0	0.0003368	138.094000101
1640.0	0.0003368	138.125
1640.0	0.0003368	138.171999931
1640.0	0.0003368	138.203000069
1640.0	0.0003365	138.25
1650.0	0.000323	138.532000065
1650.0	0.0003188	138.578000069
1650.0	0.000315	138.625
1650.0	0.000312	138.657000065
1650.0	0.00031	138.703000069
1650.0	0.0003088	138.734999895
1650.0	0.0003075	138.782000065
1650.0	0.0003065	138.828000069
1650.0	0.000305	138.859999895
1650.0	0.0003043	138.907000065
1650.0	0.000304	138.937999964
1650.0	0.0003038	138.984999895
1650.0	0.0003038	139.032000065
1650.0	0.0003033	139.062999964
1650.0	0.000303	139.109999895
1650.0	0.000303	139.157000065
1650.0	0.0003033	139.187999964
1650.0	0.0003038	139.234999895
1650.0	0.0003038	139.282000065
1650.0	0.0003033	139.312999964
1650.0	0.0003033	139.359999895
1650.0	0.0003038	139.407000065
1650.0	0.0003033	139.437999964
1650.0	0.0003038	139.484999895
1650.0	0.0003038	139.532000065
1650.0	0.0003038	139.562999964
1650.0	0.0003038	139.609999895
1650.0	0.0003038	139.641000032
1650.0	0.0003038	139.687999964
1650.0	0.000304	139.734999895
1650.0	0.000304	139.766000032
1650.0	0.000304	139.812999964
1650.0	0.000304	139.859999895
1650.0	0.000304	139.891000032
1650.0	0.000304	139.937999964
1650.0	0.0003043	139.969000101
1660.0	0.000292	140.266000032
1660.0	0.0002878	140.296999931
1660.0	0.000284	140.344000101
1660.0	0.0002813	140.391000032
1660.0	0.0002788	140.421999931
1660.0	0.0002775	140.469000101
1660.0	0.0002763	140.5
1660.0	0.0002755	140.546999931
1660.0	0.0002745	140.594000101
1660.0	0.000274	140.625
1660.0	0.0002738	140.671999931
1660.0	0.0002733	140.719000101
1660.0	0.000273	140.75
1660.0	0.0002728	140.796999931
1660.0	0.000273	140.828000069
1660.0	0.000273	140.875
1660.0	0.0002733	140.921999931
1660.0	0.0002733	140.953000069
1660.0	0.0002733	141.0
1660.0	0.000273	141.046999931
1660.0	0.000273	141.078000069
1660.0	0.000273	141.125
1660.0	0.000273	141.157000065
1660.0	0.000273	141.203000069
1660.0	0.000273	141.25
1660.0	0.000273	141.282000065
1660.0	0.0002728	141.328000069
1660.0	0.0002728	141.375
1660.0	0.0002728	141.407000065
1660.0	0.0002733	141.453000069
1660.0	0.0002733	141.484999895
1660.0	0.000273	141.532000065
1660.0	0.0002728	141.578000069
1660.0	0.000273	141.609999895
1660.0	0.0002738	141.657000065
1660.0	0.0002738	141.703000069
1660.0	0.0002738	141.734999895
1670.0	0.0002613	142.016000032
1670.0	0.000257	142.062999964
1670.0	0.0002543	142.109999895
1670.0	0.0002518	142.141000032
1670.0	0.0002495	142.187999964
1670.0	0.0002483	142.234999895
1670.0	0.000247	142.266000032
1670.0	0.0002463	142.312999964
1670.0	0.0002458	142.359999895
1670.0	0.0002453	142.391000032
1670.0	0.000245	142.437999964
1670.0	0.0002443	142.484999895
1670.0	0.000244	142.516000032
1670.0	0.000244	142.562999964
1670.0	0.000244	142.594000101
1670.0	0.000244	142.641000032
1670.0	0.0002438	142.687999964
1670.0	0.0002433	142.719000101
1670.0	0.0002433	142.766000032
1670.0	0.0002433	142.812999964
1670.0	0.000243	142.844000101
1670.0	0.0002428	142.891000032
1670.0	0.0002428	142.921999931
1670.0	0.0002428	142.969000101
1670.0	0.0002428	143.016000032
1670.0	0.0002425	143.046999931
1670.0	0.0002425	143.094000101
1670.0	0.000242	143.141000032
1670.0	0.0002425	143.171999931
1670.0	0.0002425	143.219000101
1670.0	0.000242	143.266000032
1670.0	0.0002418	143.296999931
1670.0	0.0002418	143.344000101
1670.0	0.0002415	143.375
1670.0	0.0002415	143.421999931
1670.0	0.0002418	143.469000101
1670.0	0.0002418	143.5
1680.0	0.0002325	143.782000065
1680.0	0.0002288	143.828000069
1680.0	0.0002258	143.875
1680.0	0.000224	143.907000065
1680.0	0.000222	143.953000069
1680.0	0.0002208	144.0
1680.0	0.00022	144.032000065
1680.0	0.000219	144.078000069
1680.0	0.0002183	144.125
1680.0	0.000218	144.157000065
1680.0	0.0002178	144.203000069
1680.0	0.0002175	144.25
1680.0	0.000217	144.282000065
1680.0	0.0002168	144.328000069
1680.0	0.0002165	144.359999895
1680.0	0.0002165	144.407000065
1680.0	0.0002165	144.453000069
1680.0	0.0002163	144.484999895
1680.0	0.0002158	144.532000065
1680.0	0.0002158	144.578000069
1680.0	0.0002158	144.609999895
1680.0	0.0002158	144.657000065
1680.0	0.0002158	144.687999964
1680.0	0.0002163	144.734999895
1680.0	0.0002163	144.782000065
1680.0	0.0002165	144.812999964
1680.0	0.0002165	144.859999895
1680.0	0.0002165	144.907000065
1680.0	0.0002168	144.937999964
1680.0	0.0002165	144.984999895
1680.0	0.0002165	145.032000065
1680.0	0.0002165	145.062999964
1680.0	0.0002163	145.109999895
1680.0	0.0002163	145.141000032
1680.0	0.0002163	145.187999964
1680.0	0.0002158	145.234999895
1680.0	0.0002158	145.266000032
1690.0	0.0002063	145.562999964
1690.0	0.000203	145.594000101
1690.0	0.0002005	145.641000032
1690.0	0.0001988	145.687999964
1690.0	0.0001975	145.719000101
1690.0	0.0001963	145.766000032
1690.0	0.0001955	145.812999964
1690.0	0.000195	145.844000101
1690.0	0.0001945	145.891000032
1690.0	0.0001943	145.921999931
1690.0	0.000194	145.969000101
1690.0	0.000194	146.016000032
1690.0	0.0001938	146.046999931
1690.0	0.000194	146.094000101
1690.0	0.0001938	146.141000032
1690.0	0.0001938	146.171999931
1690.0	0.0001938	146.219000101
1690.0	0.0001938	146.25
1690.0	0.000194	146.296999931
1690.0	0.000194	146.344000101
1690.0	0.000194	146.375
1690.0	0.000194	146.421999931
1690.0	0.000194	146.469000101
1690.0	0.0001943	146.5
1690.0	0.0001943	146.546999931
1690.0	0.0001943	146.578000069
1690.0	0.0001945	146.625
1690.0	0.0001943	146.671999931
1690.0	0.0001943	146.703000069
1690.0	0.0001945	146.75
1690.0	0.000195	146.796999931
1690.0	0.0001953	146.828000069
1690.0	0.0001953	146.875
1690.0	0.0001953	146.907000065
1690.0	0.0001953	146.953000069
1690.0	0.0001953	147.0
1690.0	0.0001953	147.032000065
1700.0	0.000187	147.328000069
1700.0	0.0001843	147.359999895
1700.0	0.000182	147.407000065
1700.0	0.0001803	147.453000069
1700.0	0.0001788	147.484999895
1700.0	0.0001775	147.532000065
1700.0	0.0001765	147.578000069
1700.0	0.0001758	147.609999895
1700.0	0.0001755	147.657000065
1700.0	0.0001755	147.687999964
1700.0	0.0001755	147.734999895
1700.0	0.0001758	147.782000065
1700.0	0.0001758	147.812999964
1700.0	0.0001755	147.859999895
1700.0	0.0001755	147.907000065
1700.0	0.0001755	147.937999964
1700.0	0.0001763	147.984999895
1700.0	0.0001763	148.016000032
1700.0	0.0001758	148.062999964
1700.0	0.0001758	148.109999895
1700.0	0.0001755	148.141000032
1700.0	0.0001753	148.187999964
1700.0	0.0001755	148.234999895
1700.0	0.0001753	148.266000032
1700.0	0.000175	148.312999964
1700.0	0.0001745	148.359999895
1700.0	0.0001743	148.391000032
1700.0	0.0001743	148.437999964
1700.0	0.0001743	148.484999895
1700.0	0.0001743	148.516000032
1700.0	0.0001745	148.562999964
1700.0	0.0001743	148.594000101
1700.0	0.0001745	148.641000032
1700.0	0.0001743	148.687999964
1700.0	0.0001743	148.719000101
1700.0	0.0001743	148.766000032
1700.0	0.0001743	148.812999964
1710.0	0.000167	149.094000101
1710.0	0.0001645	149.141000032
1710.0	0.0001628	149.171999931
1710.0	0.0001613	149.219000101
1710.0	0.00016	149.266000032
1710.0	0.000159	149.296999931
1710.0	0.0001583	149.344000101
1710.0	0.0001578	149.375
1710.0	0.000157	149.421999931
1710.0	0.0001568	149.469000101
1710.0	0.0001565	149.5
1710.0	0.0001563	149.546999931
1710.0	0.0001558	149.594000101
1710.0	0.0001558	149.625
1710.0	0.0001555	149.671999931
1710.0	0.0001553	149.703000069
1710.0	0.0001553	149.75
1710.0	0.0001555	149.796999931
1710.0	0.0001555	149.828000069
1710.0	0.0001558	149.875
1710.0	0.0001563	149.921999931
1710.0	0.0001563	149.953000069
1710.0	0.0001558	150.0
1710.0	0.0001555	150.046999931
1710.0	0.0001555	150.078000069
1710.0	0.0001553	150.125
1710.0	0.000155	150.157000065
1710.0	0.000155	150.203000069
1710.0	0.0001553	150.25
1710.0	0.0001553	150.296999931
1710.0	0.0001553	150.328000069
1710.0	0.0001555	150.375
1710.0	0.0001555	150.421999931
1710.0	0.000155	150.469000101
1710.0	0.0001545	150.5
1710.0	0.0001545	150.546999931
1720.0	0.000149	150.828000069
1720.0	0.0001465	150.875
1720.0	0.0001445	150.921999931
1720.0	0.0001433	150.953000069
1720.0	0.0001418	151.0
1720.0	0.0001408	151.032000065
1720.0	0.00014	151.078000069
1720.0	0.0001393	151.125
1720.0	0.0001393	151.157000065
1720.0	0.0001393	151.203000069
1720.0	0.0001395	151.25
1720.0	0.0001395	151.282000065
1720.0	0.0001393	151.328000069
1720.0	0.0001395	151.359999895
1720.0	0.0001395	151.407000065
1720.0	0.0001393	151.453000069
1720.0	0.0001393	151.484999895
1720.0	0.000139	151.532000065
1720.0	0.000139	151.578000069
1720.0	0.000139	151.609999895
1720.0	0.0001388	151.657000065
1720.0	0.0001388	151.687999964
1720.0	0.000139	151.734999895
1720.0	0.0001395	151.782000065
1720.0	0.0001403	151.812999964
1720.0	0.00014	151.859999895
1720.0	0.00014	151.907000065
1720.0	0.00014	151.937999964
1720.0	0.0001395	151.984999895
1720.0	0.0001395	152.016000032
1720.0	0.0001395	152.062999964
1720.0	0.0001395	152.109999895
1720.0	0.0001395	152.141000032
1720.0	0.0001395	152.187999964
1720.0	0.0001393	152.234999895
1720.0	0.0001393	152.266000032
1720.0	0.0001393	152.312999964
1730.0	0.0001345	152.594000101
1730.0	0.000133	152.641000032
1730.0	0.0001318	152.687999964
1730.0	0.0001305	152.719000101
1730.0	0.0001295	152.766000032
1730.0	0.0001288	152.796999931
1730.0	0.0001283	152.844000101
1730.0	0.000128	152.891000032
1730.0	0.000128	152.921999931
1730.0	0.0001278	152.969000101
1730.0	0.0001278	153.016000032
1730.0	0.0001278	153.046999931
1730.0	0.0001275	153.094000101
1730.0	0.0001275	153.125
1730.0	0.0001275	153.171999931
1730.0	0.0001275	153.219000101
1730.0	0.0001275	153.25
1730.0	0.0001275	153.296999931
1730.0	0.0001275	153.344000101
1730.0	0.0001278	153.375
1730.0	0.0001275	153.421999931
1730.0	0.0001275	153.469000101
1730.0	0.0001275	153.5
1730.0	0.0001278	153.546999931
1730.0	0.0001275	153.594000101
1730.0	0.0001278	153.625
1730.0	0.0001275	153.671999931
1730.0	0.0001278	153.719000101
1730.0	0.0001278	153.75
1730.0	0.0001275	153.796999931
1730.0	0.0001275	153.828000069
1730.0	0.0001278	153.875
1730.0	0.0001278	153.921999931
1730.0	0.000128	153.953000069
1730.0	0.0001283	154.0
1730.0	0.0001283	154.046999931
1740.0	0.0001233	154.328000069
1740.0	0.0001218	154.375
1740.0	0.0001203	154.407000065
1740.0	0.000119	154.453000069
1740.0	0.000118	154.5
1740.0	0.0001175	154.532000065
1740.0	0.0001168	154.578000069
1740.0	0.0001163	154.625
1740.0	0.0001155	154.657000065
1740.0	0.0001155	154.703000069
1740.0	0.0001155	154.734999895
1740.0	0.0001153	154.782000065
1740.0	0.0001145	154.828000069
1740.0	0.000115	154.859999895
1740.0	0.0001153	154.907000065
1740.0	0.0001153	154.953000069
1740.0	0.0001155	154.984999895
1740.0	0.0001153	155.032000065
1740.0	0.000115	155.062999964
1740.0	0.000115	155.109999895
1740.0	0.000115	155.157000065
1740.0	0.0001153	155.203000069
1740.0	0.0001153	155.234999895
1740.0	0.0001145	155.282000065
1740.0	0.0001145	155.328000069
1740.0	0.0001143	155.359999895
1740.0	0.0001143	155.407000065
1740.0	0.0001145	155.437999964
1740.0	0.0001145	155.484999895
1740.0	0.000115	155.532000065
1740.0	0.0001153	155.562999964
1740.0	0.000115	155.609999895
1740.0	0.000115	155.657000065
1740.0	0.0001145	155.687999964
1740.0	0.0001145	155.734999895
1740.0	0.000115	155.782000065
1750.0	0.000109	156.078000069
1750.0	0.0001075	156.109999895
1750.0	0.0001063	156.157000065
1750.0	0.0001053	156.203000069
1750.0	0.0001045	156.25
1750.0	0.0001043	156.296999931
1750.0	0.000104	156.328000069
1750.0	0.0001038	156.375
1750.0	0.0001033	156.421999931
1750.0	0.000103	156.453000069
1750.0	0.000103	156.5
1750.0	0.0001028	156.546999931
1750.0	0.0001025	156.578000069
1750.0	0.000102	156.625
1750.0	0.000102	156.671999931
1750.0	0.0001018	156.703000069
1750.0	0.000102	156.75
1750.0	0.000102	156.782000065
1750.0	0.000102	156.828000069
1750.0	0.0001025	156.875
1750.0	0.0001028	156.907000065
1750.0	0.0001025	156.953000069
1750.0	0.0001025	156.984999895
1750.0	0.0001028	157.032000065
1750.0	0.0001028	157.078000069
1750.0	0.0001025	157.109999895
1750.0	0.0001025	157.157000065
1750.0	0.000102	157.203000069
1750.0	0.0001025	157.234999895
1750.0	0.0001025	157.282000065
1750.0	0.0001025	157.328000069
1750.0	0.0001025	157.359999895
1750.0	0.0001025	157.407000065
1750.0	0.0001025	157.437999964
1750.0	0.0001025	157.484999895
1750.0	0.000102	157.532000065
1760.0	9.68e-05	157.828000069
1760.0	9.53e-05	157.875
1760.0	9.4e-05	157.907000065
1760.0	9.3e-05	157.953000069
1760.0	9.28e-05	157.984999895
1760.0	9.2e-05	158.032000065
1760.0	9.18e-05	158.078000069
1760.0	9.15e-05	158.109999895
1760.0	9.15e-05	158.157000065
1760.0	9.18e-05	158.203000069
1760.0	9.15e-05	158.234999895
1760.0	9.13e-05	158.282000065
1760.0	9.13e-05	158.312999964
1760.0	9.08e-05	158.359999895
1760.0	9.08e-05	158.407000065
1760.0	9.08e-05	158.437999964
1760.0	9.13e-05	158.484999895
1760.0	9.13e-05	158.532000065
1760.0	9.08e-05	158.562999964
1760.0	9.08e-05	158.609999895
1760.0	9.08e-05	158.657000065
1760.0	9.13e-05	158.687999964
1760.0	9.08e-05	158.734999895
1760.0	9.05e-05	158.782000065
1760.0	9.05e-05	158.812999964
1760.0	9.03e-05	158.859999895
1760.0	9.03e-05	158.907000065
1760.0	9.03e-05	158.937999964
1760.0	9.05e-05	158.984999895
1760.0	9.08e-05	159.016000032
1760.0	9.08e-05	159.062999964
1760.0	9.08e-05	159.109999895
1760.0	9.13e-05	159.141000032
1760.0	9.13e-05	159.187999964
1760.0	9.13e-05	159.234999895
1760.0	9.13e-05	159.266000032
1760.0	9.15e-05	159.312999964
1770.0	8.7e-05	159.609999895
1770.0	8.58e-05	159.657000065
1770.0	8.45e-05	159.687999964
1770.0	8.38e-05	159.734999895
1770.0	8.33e-05	159.782000065
1770.0	8.28e-05	159.812999964
1770.0	8.28e-05	159.859999895
1770.0	8.25e-05	159.907000065
1770.0	8.25e-05	159.937999964
1770.0	8.2e-05	159.984999895
1770.0	8.2e-05	160.016000032
1770.0	8.2e-05	160.062999964
1770.0	8.15e-05	160.109999895
1770.0	8.15e-05	160.141000032
1770.0	8.15e-05	160.187999964
1770.0	8.13e-05	160.234999895
1770.0	8.13e-05	160.266000032
1770.0	8.13e-05	160.312999964
1770.0	8.13e-05	160.359999895
1770.0	8.13e-05	160.391000032
1770.0	8.08e-05	160.437999964
1770.0	8.08e-05	160.469000101
1770.0	8.13e-05	160.516000032
1770.0	8.18e-05	160.562999964
1770.0	8.18e-05	160.594000101
1770.0	8.18e-05	160.641000032
1770.0	8.2e-05	160.687999964
1770.0	8.25e-05	160.719000101
1770.0	8.25e-05	160.766000032
1770.0	8.28e-05	160.796999931
1770.0	8.3e-05	160.844000101
1770.0	8.3e-05	160.891000032
1770.0	8.28e-05	160.921999931
1770.0	8.25e-05	160.969000101
1770.0	8.2e-05	161.016000032
1770.0	8.2e-05	161.046999931
1770.0	8.2e-05	161.094000101
1780.0	7.78e-05	161.391000032
1780.0	7.65e-05	161.437999964
1780.0	7.55e-05	161.484999895
1780.0	7.45e-05	161.516000032
1780.0	7.4e-05	161.562999964
1780.0	7.33e-05	161.594000101
1780.0	7.3e-05	161.641000032
1780.0	7.28e-05	161.687999964
1780.0	7.25e-05	161.719000101
1780.0	7.25e-05	161.766000032
1780.0	7.28e-05	161.812999964
1780.0	7.3e-05	161.844000101
1780.0	7.3e-05	161.891000032
1780.0	7.3e-05	161.921999931
1780.0	7.3e-05	161.969000101
1780.0	7.33e-05	162.016000032
1780.0	7.33e-05	162.046999931
1780.0	7.3e-05	162.094000101
1780.0	7.28e-05	162.141000032
1780.0	7.25e-05	162.171999931
1780.0	7.25e-05	162.219000101
1780.0	7.28e-05	162.266000032
1780.0	7.25e-05	162.296999931
1780.0	7.25e-05	162.344000101
1780.0	7.25e-05	162.375
1780.0	7.28e-05	162.421999931
1780.0	7.3e-05	162.469000101
1780.0	7.33e-05	162.5
1780.0	7.33e-05	162.546999931
1780.0	7.38e-05	162.594000101
1780.0	7.4e-05	162.625
1780.0	7.4e-05	162.671999931
1780.0	7.4e-05	162.703000069
1780.0	7.4e-05	162.75
1780.0	7.4e-05	162.796999931
1780.0	7.4e-05	162.828000069
1780.0	7.4e-05	162.875
1790.0	6.95e-05	163.171999931
1790.0	6.9e-05	163.219000101
1790.0	6.8e-05	163.266000032
1790.0	6.7e-05	163.296999931
1790.0	6.63e-05	163.344000101
1790.0	6.55e-05	163.391000032
1790.0	6.53e-05	163.421999931
1790.0	6.5e-05	163.469000101
1790.0	6.45e-05	163.5
1790.0	6.45e-05	163.546999931
1790.0	6.45e-05	163.594000101
1790.0	6.43e-05	163.625
1790.0	6.43e-05	163.671999931
1790.0	6.4e-05	163.719000101
1790.0	6.4e-05	163.75
1790.0	6.4e-05	163.796999931
1790.0	6.4e-05	163.828000069
1790.0	6.4e-05	163.875
1790.0	6.45e-05	163.921999931
1790.0	6.45e-05	163.953000069
1790.0	6.5e-05	164.0
1790.0	6.5e-05	164.046999931
1790.0	6.45e-05	164.078000069
1790.0	6.45e-05	164.125
1790.0	6.43e-05	164.171999931
1790.0	6.45e-05	164.203000069
1790.0	6.45e-05	164.25
1790.0	6.43e-05	164.282000065
1790.0	6.4e-05	164.328000069
1790.0	6.4e-05	164.375
1790.0	6.43e-05	164.407000065
1790.0	6.43e-05	164.453000069
1790.0	6.43e-05	164.5
1790.0	6.45e-05	164.532000065
1790.0	6.45e-05	164.578000069
1790.0	6.45e-05	164.609999895
1790.0	6.45e-05	164.657000065
1800.0	6.05e-05	164.953000069
1800.0	6e-05	165.0
1800.0	5.88e-05	165.046999931
1800.0	5.83e-05	165.078000069
1800.0	5.8e-05	165.125
1800.0	5.78e-05	165.157000065
1800.0	5.75e-05	165.203000069
1800.0	5.68e-05	165.25
1800.0	5.63e-05	165.282000065
1800.0	5.63e-05	165.328000069
1800.0	5.58e-05	165.359999895
1800.0	5.55e-05	165.407000065
1800.0	5.55e-05	165.453000069
1800.0	5.53e-05	165.484999895
1800.0	5.53e-05	165.532000065
1800.0	5.5e-05	165.578000069
1800.0	5.45e-05	165.609999895
1800.0	5.45e-05	165.657000065
1800.0	5.5e-05	165.703000069
1800.0	5.53e-05	165.734999895
1800.0	5.55e-05	165.782000065
1800.0	5.55e-05	165.812999964
1800.0	5.53e-05	165.859999895
1800.0	5.53e-05	165.907000065
1800.0	5.55e-05	165.937999964
1800.0	5.53e-05	165.984999895
1800.0	5.5e-05	166.032000065
1800.0	5.5e-05	166.062999964
1800.0	5.5e-05	166.109999895
1800.0	5.5e-05	166.141000032
1800.0	5.45e-05	166.187999964
1800.0	5.45e-05	166.234999895
1800.0	5.45e-05	166.266000032
1800.0	5.45e-05	166.312999964
1800.0	5.45e-05	166.359999895
1800.0	5.45e-05	166.391000032
1800.0	5.43e-05	166.437999964
