Your edit line - do NOT delete this line
Wavelength [nm], Voltage [V], Elapsed time [s]
900.0	0.000137	6.34299993515
900.0	0.0001345	6.375
900.0	0.0001328	6.42100000381
900.0	0.0001308	6.46799993515
900.0	0.0001295	6.5
900.0	0.000129	6.54600000381
900.0	0.0001283	6.57799983025
900.0	0.000128	6.625
900.0	0.0001278	6.67100000381
900.0	0.000127	6.70299983025
900.0	0.0001263	6.75
900.0	0.0001258	6.79600000381
900.0	0.0001258	6.82799983025
900.0	0.0001263	6.875
900.0	0.0001258	6.90599989891
900.0	0.0001258	6.95299983025
900.0	0.0001255	7.0
900.0	0.0001255	7.03099989891
900.0	0.0001255	7.07799983025
900.0	0.0001255	7.125
900.0	0.0001255	7.15599989891
900.0	0.0001255	7.20299983025
900.0	0.0001255	7.23399996758
900.0	0.0001255	7.28099989891
900.0	0.0001255	7.32799983025
900.0	0.0001258	7.35899996758
900.0	0.0001258	7.40599989891
900.0	0.0001258	7.45299983025
900.0	0.0001255	7.48399996758
900.0	0.0001253	7.53099989891
900.0	0.0001255	7.57799983025
900.0	0.0001253	7.60899996758
900.0	0.0001253	7.65599989891
900.0	0.0001253	7.68700003624
900.0	0.0001253	7.73399996758
900.0	0.0001258	7.78099989891
900.0	0.0001263	7.81200003624
910.0	0.0001318	8.125
910.0	0.000133	8.17100000381
910.0	0.0001343	8.20299983025
910.0	0.0001355	8.25
910.0	0.0001363	8.28099989891
910.0	0.0001368	8.32799983025
910.0	0.0001375	8.375
910.0	0.0001375	8.40599989891
910.0	0.0001375	8.45299983025
910.0	0.0001378	8.5
910.0	0.000138	8.53099989891
910.0	0.0001383	8.57799983025
910.0	0.0001383	8.625
910.0	0.0001383	8.65599989891
910.0	0.0001383	8.70299983025
910.0	0.0001383	8.73399996758
910.0	0.0001388	8.78099989891
910.0	0.0001388	8.82799983025
910.0	0.0001388	8.85899996758
910.0	0.0001388	8.90599989891
910.0	0.0001388	8.95299983025
910.0	0.0001388	8.98399996758
910.0	0.0001383	9.03099989891
910.0	0.000138	9.06200003624
910.0	0.0001383	9.10899996758
910.0	0.0001388	9.15599989891
910.0	0.0001388	9.18700003624
910.0	0.000139	9.23399996758
910.0	0.0001393	9.28099989891
910.0	0.0001393	9.31200003624
910.0	0.00014	9.35899996758
910.0	0.00014	9.38999986649
910.0	0.00014	9.43700003624
910.0	0.00014	9.48399996758
910.0	0.0001395	9.51499986649
910.0	0.0001395	9.56200003624
910.0	0.0001395	9.60899996758
920.0	0.0001465	9.90599989891
920.0	0.0001488	9.95299983025
920.0	0.0001503	10.0
920.0	0.0001518	10.0309998989
920.0	0.0001528	10.0779998302
920.0	0.0001538	10.125
920.0	0.000154	10.1559998989
920.0	0.0001543	10.2029998302
920.0	0.0001545	10.25
920.0	0.000155	10.2809998989
920.0	0.0001553	10.3279998302
920.0	0.0001555	10.375
920.0	0.0001555	10.4059998989
920.0	0.0001553	10.4529998302
920.0	0.0001555	10.4839999676
920.0	0.0001553	10.5309998989
920.0	0.0001553	10.5779998302
920.0	0.0001553	10.6089999676
920.0	0.000155	10.6559998989
920.0	0.0001553	10.7029998302
920.0	0.0001553	10.7339999676
920.0	0.0001553	10.7809998989
920.0	0.0001545	10.8120000362
920.0	0.0001545	10.8589999676
920.0	0.0001543	10.9059998989
920.0	0.0001543	10.9370000362
920.0	0.0001543	10.9839999676
920.0	0.0001545	11.0309998989
920.0	0.000155	11.0620000362
920.0	0.0001553	11.1089999676
920.0	0.0001553	11.1399998665
920.0	0.0001553	11.1870000362
920.0	0.0001553	11.2339999676
920.0	0.0001555	11.2649998665
920.0	0.0001555	11.3120000362
920.0	0.0001558	11.3589999676
920.0	0.0001563	11.3899998665
930.0	0.0001628	11.7029998302
930.0	0.000165	11.7339999676
930.0	0.0001665	11.7809998989
930.0	0.000168	11.8279998302
930.0	0.0001693	11.8589999676
930.0	0.00017	11.9059998989
930.0	0.0001705	11.9370000362
930.0	0.0001713	11.9839999676
930.0	0.0001715	12.0309998989
930.0	0.0001718	12.0620000362
930.0	0.0001718	12.1089999676
930.0	0.000172	12.1559998989
930.0	0.0001725	12.1870000362
930.0	0.000172	12.2339999676
930.0	0.0001718	12.2649998665
930.0	0.0001718	12.3120000362
930.0	0.0001715	12.3589999676
930.0	0.0001715	12.3899998665
930.0	0.0001715	12.4370000362
930.0	0.0001715	12.4839999676
930.0	0.0001715	12.5309998989
930.0	0.0001718	12.5620000362
930.0	0.0001718	12.6089999676
930.0	0.0001718	12.6559998989
930.0	0.000172	12.7029998302
930.0	0.000172	12.7339999676
930.0	0.0001725	12.7809998989
930.0	0.0001728	12.8120000362
930.0	0.0001728	12.8589999676
930.0	0.0001728	12.9059998989
930.0	0.0001728	12.9370000362
930.0	0.0001725	12.9839999676
930.0	0.000172	13.0309998989
930.0	0.000172	13.0620000362
930.0	0.0001718	13.1089999676
930.0	0.0001718	13.1399998665
940.0	0.0001795	13.4529998302
940.0	0.000182	13.4839999676
940.0	0.0001838	13.5309998989
940.0	0.0001853	13.5779998302
940.0	0.0001863	13.6089999676
940.0	0.0001868	13.6559998989
940.0	0.0001875	13.6870000362
940.0	0.000188	13.7339999676
940.0	0.0001888	13.7809998989
940.0	0.0001888	13.8120000362
940.0	0.0001893	13.8589999676
940.0	0.00019	13.9059998989
940.0	0.0001903	13.9370000362
940.0	0.0001905	13.9839999676
940.0	0.0001908	14.0149998665
940.0	0.0001913	14.0620000362
940.0	0.0001913	14.1089999676
940.0	0.0001915	14.1399998665
940.0	0.0001915	14.1870000362
940.0	0.0001913	14.2339999676
940.0	0.0001908	14.2649998665
940.0	0.0001905	14.3120000362
940.0	0.0001903	14.3589999676
940.0	0.0001903	14.3899998665
940.0	0.0001903	14.4370000362
940.0	0.00019	14.4679999352
940.0	0.00019	14.5149998665
940.0	0.00019	14.5620000362
940.0	0.0001895	14.5929999352
940.0	0.00019	14.6399998665
940.0	0.00019	14.6870000362
940.0	0.0001903	14.7179999352
940.0	0.0001905	14.7649998665
940.0	0.0001903	14.7960000038
940.0	0.0001903	14.8429999352
940.0	0.00019	14.8899998665
940.0	0.0001895	14.9210000038
950.0	0.000198	15.2179999352
950.0	0.0002003	15.2649998665
950.0	0.000202	15.2960000038
950.0	0.0002033	15.3429999352
950.0	0.0002045	15.3899998665
950.0	0.0002055	15.4210000038
950.0	0.0002063	15.4679999352
950.0	0.0002068	15.5
950.0	0.000207	15.5460000038
950.0	0.0002075	15.5929999352
950.0	0.0002075	15.625
950.0	0.0002075	15.6710000038
950.0	0.0002075	15.7029998302
950.0	0.000207	15.75
950.0	0.000207	15.7960000038
950.0	0.0002075	15.8279998302
950.0	0.0002078	15.875
950.0	0.000208	15.9210000038
950.0	0.0002083	15.9529998302
950.0	0.0002083	16.0
950.0	0.0002083	16.0460000038
950.0	0.0002083	16.0779998302
950.0	0.0002088	16.125
950.0	0.0002088	16.1559998989
950.0	0.0002088	16.2029998302
950.0	0.0002088	16.25
950.0	0.0002088	16.2809998989
950.0	0.0002083	16.3279998302
950.0	0.000208	16.375
950.0	0.000208	16.4059998989
950.0	0.000208	16.4529998302
950.0	0.000208	16.4839999676
950.0	0.000208	16.5309998989
950.0	0.000208	16.5779998302
950.0	0.000208	16.6089999676
950.0	0.000208	16.6559998989
950.0	0.000208	16.7029998302
960.0	0.0002145	16.9839999676
960.0	0.000217	17.0309998989
960.0	0.0002193	17.0620000362
960.0	0.0002213	17.1089999676
960.0	0.0002228	17.1559998989
960.0	0.000224	17.1870000362
960.0	0.0002253	17.2339999676
960.0	0.0002258	17.2809998989
960.0	0.0002263	17.3120000362
960.0	0.0002263	17.3589999676
960.0	0.0002265	17.4059998989
960.0	0.0002265	17.4370000362
960.0	0.0002265	17.4839999676
960.0	0.0002268	17.5149998665
960.0	0.0002275	17.5620000362
960.0	0.000227	17.6089999676
960.0	0.000227	17.6399998665
960.0	0.0002268	17.6870000362
960.0	0.0002268	17.7339999676
960.0	0.0002265	17.7649998665
960.0	0.0002265	17.8120000362
960.0	0.0002265	17.8429999352
960.0	0.0002265	17.8899998665
960.0	0.0002263	17.9370000362
960.0	0.0002263	17.9679999352
960.0	0.0002258	18.0149998665
960.0	0.0002258	18.0620000362
960.0	0.0002263	18.0929999352
960.0	0.0002265	18.1399998665
960.0	0.0002268	18.1710000038
960.0	0.000227	18.2179999352
960.0	0.000227	18.2649998665
960.0	0.000227	18.2960000038
960.0	0.0002268	18.3429999352
960.0	0.0002268	18.3899998665
960.0	0.000227	18.4210000038
960.0	0.000227	18.4679999352
970.0	0.0002345	18.75
970.0	0.000237	18.7960000038
970.0	0.0002393	18.8279998302
970.0	0.0002413	18.875
970.0	0.0002428	18.9210000038
970.0	0.0002438	18.9529998302
970.0	0.0002443	19.0
970.0	0.0002445	19.0309998989
970.0	0.000245	19.0779998302
970.0	0.0002453	19.125
970.0	0.000245	19.1559998989
970.0	0.000245	19.2029998302
970.0	0.0002453	19.25
970.0	0.0002455	19.2809998989
970.0	0.0002458	19.3279998302
970.0	0.0002458	19.3589999676
970.0	0.0002458	19.4059998989
970.0	0.0002463	19.4529998302
970.0	0.0002463	19.4839999676
970.0	0.0002463	19.5309998989
970.0	0.0002465	19.5779998302
970.0	0.0002468	19.6089999676
970.0	0.0002465	19.6559998989
970.0	0.0002468	19.6870000362
970.0	0.0002468	19.7339999676
970.0	0.0002468	19.7809998989
970.0	0.0002465	19.8120000362
970.0	0.0002463	19.8589999676
970.0	0.0002465	19.9059998989
970.0	0.0002463	19.9370000362
970.0	0.0002465	19.9839999676
970.0	0.0002465	20.0149998665
970.0	0.0002465	20.0620000362
970.0	0.0002465	20.1089999676
970.0	0.0002465	20.1559998989
970.0	0.0002465	20.1870000362
970.0	0.0002468	20.2339999676
980.0	0.0002558	20.5149998665
980.0	0.0002588	20.5460000038
980.0	0.0002608	20.5929999352
980.0	0.0002628	20.6399998665
980.0	0.0002643	20.6710000038
980.0	0.0002653	20.7179999352
980.0	0.0002658	20.7649998665
980.0	0.0002665	20.7960000038
980.0	0.0002675	20.8429999352
980.0	0.0002678	20.875
980.0	0.0002678	20.9210000038
980.0	0.0002675	20.9679999352
980.0	0.0002678	21.0
980.0	0.0002678	21.0460000038
980.0	0.000268	21.0929999352
980.0	0.0002683	21.125
980.0	0.0002688	21.1710000038
980.0	0.0002688	21.2029998302
980.0	0.0002688	21.25
980.0	0.0002688	21.2960000038
980.0	0.0002683	21.3279998302
980.0	0.000268	21.375
980.0	0.000268	21.4210000038
980.0	0.0002683	21.4529998302
980.0	0.000268	21.5
980.0	0.000268	21.5460000038
980.0	0.000268	21.5779998302
980.0	0.0002683	21.625
980.0	0.0002683	21.6559998989
980.0	0.0002688	21.7029998302
980.0	0.0002683	21.75
980.0	0.0002683	21.7809998989
980.0	0.000268	21.8279998302
980.0	0.0002678	21.875
980.0	0.0002678	21.9059998989
980.0	0.0002678	21.9529998302
980.0	0.000268	21.9839999676
990.0	0.0002768	22.2649998665
990.0	0.0002795	22.3120000362
990.0	0.000282	22.3589999676
990.0	0.0002838	22.3899998665
990.0	0.0002853	22.4370000362
990.0	0.0002865	22.4679999352
990.0	0.000287	22.5149998665
990.0	0.0002878	22.5620000362
990.0	0.0002883	22.5929999352
990.0	0.0002888	22.6399998665
990.0	0.000289	22.6870000362
990.0	0.000289	22.7179999352
990.0	0.0002888	22.7649998665
990.0	0.0002888	22.7960000038
990.0	0.0002883	22.8429999352
990.0	0.000288	22.8899998665
990.0	0.0002883	22.9210000038
990.0	0.000288	22.9679999352
990.0	0.000288	23.0149998665
990.0	0.000288	23.0460000038
990.0	0.000288	23.0929999352
990.0	0.000288	23.1399998665
990.0	0.0002878	23.1710000038
990.0	0.0002875	23.2179999352
990.0	0.0002878	23.25
990.0	0.000288	23.2960000038
990.0	0.0002883	23.3429999352
990.0	0.0002888	23.375
990.0	0.0002883	23.4210000038
990.0	0.0002883	23.4679999352
990.0	0.0002883	23.5
990.0	0.0002883	23.5460000038
990.0	0.0002888	23.5779998302
990.0	0.0002883	23.625
990.0	0.000288	23.6710000038
990.0	0.000288	23.7029998302
990.0	0.0002878	23.75
1000.0	0.000295	24.0309998989
1000.0	0.0002983	24.0620000362
1000.0	0.0003013	24.1089999676
1000.0	0.000303	24.1559998989
1000.0	0.0003045	24.1870000362
1000.0	0.0003055	24.2339999676
1000.0	0.0003065	24.2809998989
1000.0	0.0003075	24.3120000362
1000.0	0.0003083	24.3589999676
1000.0	0.0003088	24.3899998665
1000.0	0.0003093	24.4370000362
1000.0	0.0003093	24.4839999676
1000.0	0.0003095	24.5149998665
1000.0	0.00031	24.5620000362
1000.0	0.0003095	24.6089999676
1000.0	0.0003095	24.6399998665
1000.0	0.0003095	24.6870000362
1000.0	0.0003095	24.7179999352
1000.0	0.00031	24.7649998665
1000.0	0.0003103	24.8120000362
1000.0	0.0003103	24.8429999352
1000.0	0.0003105	24.8899998665
1000.0	0.0003108	24.9370000362
1000.0	0.0003113	24.9679999352
1000.0	0.0003108	25.0149998665
1000.0	0.0003108	25.0620000362
1000.0	0.0003108	25.0929999352
1000.0	0.0003113	25.1399998665
1000.0	0.0003108	25.1710000038
1000.0	0.0003105	25.2179999352
1000.0	0.0003105	25.2649998665
1000.0	0.0003105	25.2960000038
1000.0	0.0003105	25.3429999352
1000.0	0.0003103	25.3899998665
1000.0	0.0003103	25.4210000038
1000.0	0.0003103	25.4679999352
1000.0	0.0003103	25.5
1010.0	0.00032	25.7809998989
1010.0	0.000323	25.8279998302
1010.0	0.0003255	25.875
1010.0	0.0003275	25.9059998989
1010.0	0.0003293	25.9529998302
1010.0	0.0003313	25.9839999676
1010.0	0.000332	26.0309998989
1010.0	0.000333	26.0779998302
1010.0	0.000333	26.1089999676
1010.0	0.0003338	26.1559998989
1010.0	0.0003343	26.2029998302
1010.0	0.000335	26.2339999676
1010.0	0.0003353	26.2809998989
1010.0	0.0003355	26.3120000362
1010.0	0.0003355	26.3589999676
1010.0	0.0003355	26.4059998989
1010.0	0.0003353	26.4370000362
1010.0	0.0003353	26.4839999676
1010.0	0.0003355	26.5309998989
1010.0	0.0003355	26.5620000362
1010.0	0.0003353	26.6089999676
1010.0	0.000335	26.6559998989
1010.0	0.000335	26.6870000362
1010.0	0.0003353	26.7339999676
1010.0	0.0003355	26.7649998665
1010.0	0.0003355	26.8120000362
1010.0	0.0003355	26.8589999676
1010.0	0.0003355	26.8899998665
1010.0	0.0003355	26.9370000362
1010.0	0.0003353	26.9839999676
1010.0	0.0003345	27.0149998665
1010.0	0.0003343	27.0620000362
1010.0	0.000334	27.0929999352
1010.0	0.0003338	27.1399998665
1010.0	0.0003338	27.1870000362
1010.0	0.0003338	27.2179999352
1010.0	0.0003338	27.2649998665
1020.0	0.0003438	27.5460000038
1020.0	0.0003465	27.5929999352
1020.0	0.0003493	27.625
1020.0	0.0003513	27.6710000038
1020.0	0.000353	27.7179999352
1020.0	0.0003543	27.75
1020.0	0.0003553	27.7960000038
1020.0	0.0003558	27.8279998302
1020.0	0.0003565	27.875
1020.0	0.0003565	27.9210000038
1020.0	0.0003568	27.9529998302
1020.0	0.0003568	28.0
1020.0	0.0003568	28.0460000038
1020.0	0.000357	28.0779998302
1020.0	0.000357	28.125
1020.0	0.0003575	28.1710000038
1020.0	0.000357	28.2029998302
1020.0	0.000357	28.25
1020.0	0.000357	28.2809998989
1020.0	0.0003575	28.3279998302
1020.0	0.0003575	28.375
1020.0	0.0003575	28.4059998989
1020.0	0.0003575	28.4529998302
1020.0	0.0003575	28.5
1020.0	0.0003575	28.5309998989
1020.0	0.000357	28.5779998302
1020.0	0.000357	28.6089999676
1020.0	0.0003568	28.6559998989
1020.0	0.0003565	28.7029998302
1020.0	0.0003563	28.7339999676
1020.0	0.0003563	28.7809998989
1020.0	0.0003565	28.8279998302
1020.0	0.000357	28.8589999676
1020.0	0.000357	28.9059998989
1020.0	0.0003575	28.9370000362
1020.0	0.0003578	28.9839999676
1020.0	0.0003578	29.0309998989
1030.0	0.0003683	29.3120000362
1030.0	0.000372	29.3429999352
1030.0	0.000375	29.3899998665
1030.0	0.000377	29.4370000362
1030.0	0.0003788	29.4839999676
1030.0	0.00038	29.5149998665
1030.0	0.0003813	29.5620000362
1030.0	0.0003825	29.6089999676
1030.0	0.0003833	29.6399998665
1030.0	0.0003838	29.6870000362
1030.0	0.000384	29.7179999352
1030.0	0.0003843	29.7649998665
1030.0	0.0003843	29.8120000362
1030.0	0.000385	29.8429999352
1030.0	0.000385	29.8899998665
1030.0	0.0003853	29.9370000362
1030.0	0.0003853	29.9679999352
1030.0	0.0003853	30.0149998665
1030.0	0.000385	30.0460000038
1030.0	0.000385	30.0929999352
1030.0	0.000385	30.1399998665
1030.0	0.0003845	30.1870000362
1030.0	0.0003845	30.2179999352
1030.0	0.0003853	30.2649998665
1030.0	0.0003853	30.2960000038
1030.0	0.0003853	30.3429999352
1030.0	0.0003855	30.3899998665
1030.0	0.0003858	30.4210000038
1030.0	0.0003863	30.4679999352
1030.0	0.0003863	30.5149998665
1030.0	0.0003858	30.5460000038
1030.0	0.0003858	30.5929999352
1030.0	0.0003858	30.6399998665
1030.0	0.0003858	30.6710000038
1030.0	0.0003855	30.7179999352
1030.0	0.0003858	30.75
1030.0	0.0003863	30.7960000038
1040.0	0.0003978	31.0779998302
1040.0	0.0004013	31.125
1040.0	0.000404	31.1559998989
1040.0	0.0004065	31.2029998302
1040.0	0.0004083	31.25
1040.0	0.0004095	31.2809998989
1040.0	0.0004108	31.3279998302
1040.0	0.0004118	31.375
1040.0	0.000412	31.4059998989
1040.0	0.0004125	31.4529998302
1040.0	0.0004125	31.5
1040.0	0.0004128	31.5309998989
1040.0	0.000413	31.5779998302
1040.0	0.000413	31.625
1040.0	0.000413	31.6559998989
1040.0	0.000413	31.7029998302
1040.0	0.000413	31.7339999676
1040.0	0.000413	31.7809998989
1040.0	0.0004128	31.8279998302
1040.0	0.0004128	31.8589999676
1040.0	0.0004125	31.9059998989
1040.0	0.0004125	31.9529998302
1040.0	0.0004125	31.9839999676
1040.0	0.0004125	32.0309998989
1040.0	0.0004125	32.0620000362
1040.0	0.0004128	32.1089999676
1040.0	0.000413	32.1559998989
1040.0	0.000413	32.1870000362
1040.0	0.0004128	32.2339999676
1040.0	0.0004125	32.2809998989
1040.0	0.0004125	32.3120000362
1040.0	0.0004125	32.3589999676
1040.0	0.000412	32.4059998989
1040.0	0.0004125	32.4370000362
1040.0	0.0004125	32.4839999676
1040.0	0.000412	32.5149998665
1040.0	0.000412	32.5620000362
1050.0	0.000422	32.8429999352
1050.0	0.0004255	32.8899998665
1050.0	0.0004283	32.9210000038
1050.0	0.0004308	32.9679999352
1050.0	0.0004333	33.0149998665
1050.0	0.000435	33.0460000038
1050.0	0.0004363	33.0929999352
1050.0	0.000437	33.1399998665
1050.0	0.0004378	33.1710000038
1050.0	0.0004383	33.2179999352
1050.0	0.000438	33.25
1050.0	0.000438	33.2960000038
1050.0	0.0004388	33.3429999352
1050.0	0.000439	33.375
1050.0	0.000439	33.4210000038
1050.0	0.0004393	33.4679999352
1050.0	0.000439	33.5
1050.0	0.000439	33.5460000038
1050.0	0.0004388	33.5779998302
1050.0	0.0004388	33.625
1050.0	0.0004388	33.6710000038
1050.0	0.0004388	33.7029998302
1050.0	0.0004383	33.75
1050.0	0.0004383	33.7960000038
1050.0	0.0004388	33.8279998302
1050.0	0.0004388	33.875
1050.0	0.0004388	33.9059998989
1050.0	0.0004388	33.9529998302
1050.0	0.000439	34.0
1050.0	0.000439	34.0309998989
1050.0	0.0004393	34.0779998302
1050.0	0.0004393	34.125
1050.0	0.0004395	34.1559998989
1050.0	0.00044	34.2029998302
1050.0	0.0004405	34.25
1050.0	0.0004405	34.2809998989
1050.0	0.0004405	34.3279998302
1060.0	0.0004528	34.6089999676
1060.0	0.0004568	34.6559998989
1060.0	0.00046	34.6870000362
1060.0	0.0004625	34.7339999676
1060.0	0.0004643	34.7649998665
1060.0	0.0004658	34.8120000362
1060.0	0.000467	34.8589999676
1060.0	0.000468	34.8899998665
1060.0	0.0004688	34.9370000362
1060.0	0.0004688	34.9839999676
1060.0	0.000469	35.0149998665
1060.0	0.0004693	35.0620000362
1060.0	0.0004693	35.0929999352
1060.0	0.0004695	35.1399998665
1060.0	0.0004695	35.1870000362
1060.0	0.0004695	35.2179999352
1060.0	0.0004695	35.2649998665
1060.0	0.0004695	35.3120000362
1060.0	0.00047	35.3429999352
1060.0	0.0004695	35.3899998665
1060.0	0.0004695	35.4370000362
1060.0	0.0004695	35.4679999352
1060.0	0.0004693	35.5149998665
1060.0	0.0004693	35.5620000362
1060.0	0.0004693	35.5929999352
1060.0	0.0004693	35.6399998665
1060.0	0.0004693	35.6870000362
1060.0	0.0004695	35.7179999352
1060.0	0.0004703	35.7649998665
1060.0	0.0004703	35.7960000038
1060.0	0.00047	35.8429999352
1060.0	0.00047	35.8899998665
1060.0	0.00047	35.9210000038
1060.0	0.0004695	35.9679999352
1060.0	0.0004693	36.0149998665
1060.0	0.0004693	36.0460000038
1060.0	0.000469	36.0929999352
1070.0	0.0004808	36.375
1070.0	0.0004845	36.4210000038
1070.0	0.0004878	36.4529998302
1070.0	0.0004903	36.5
1070.0	0.0004915	36.5309998989
1070.0	0.0004928	36.5779998302
1070.0	0.0004933	36.625
1070.0	0.0004938	36.6559998989
1070.0	0.000494	36.7029998302
1070.0	0.0004943	36.75
1070.0	0.0004945	36.7809998989
1070.0	0.000495	36.8279998302
1070.0	0.0004945	36.8589999676
1070.0	0.0004943	36.9059998989
1070.0	0.000494	36.9529998302
1070.0	0.000494	36.9839999676
1070.0	0.0004943	37.0309998989
1070.0	0.000494	37.0779998302
1070.0	0.000494	37.1089999676
1070.0	0.000494	37.1559998989
1070.0	0.0004943	37.2029998302
1070.0	0.0004943	37.2339999676
1070.0	0.0004945	37.2809998989
1070.0	0.0004945	37.3120000362
1070.0	0.000495	37.3589999676
1070.0	0.000495	37.4059998989
1070.0	0.0004945	37.4529998302
1070.0	0.0004945	37.4839999676
1070.0	0.0004943	37.5309998989
1070.0	0.0004943	37.5620000362
1070.0	0.0004945	37.6089999676
1070.0	0.0004943	37.6559998989
1070.0	0.0004943	37.6870000362
1070.0	0.0004943	37.7339999676
1070.0	0.0004943	37.7809998989
1070.0	0.0004945	37.8120000362
1070.0	0.0004945	37.8589999676
1080.0	0.0005055	38.1399998665
1080.0	0.0005088	38.1870000362
1080.0	0.0005115	38.2179999352
1080.0	0.000514	38.2649998665
1080.0	0.0005158	38.3120000362
1080.0	0.000517	38.3429999352
1080.0	0.0005178	38.3899998665
1080.0	0.0005183	38.4210000038
1080.0	0.000519	38.4679999352
1080.0	0.0005193	38.5149998665
1080.0	0.00052	38.5460000038
1080.0	0.0005203	38.5929999352
1080.0	0.0005203	38.6399998665
1080.0	0.0005205	38.6710000038
1080.0	0.0005213	38.7179999352
1080.0	0.0005218	38.75
1080.0	0.000522	38.7960000038
1080.0	0.0005218	38.8429999352
1080.0	0.0005218	38.875
1080.0	0.0005218	38.9210000038
1080.0	0.0005218	38.9679999352
1080.0	0.0005218	39.0
1080.0	0.000522	39.0460000038
1080.0	0.0005225	39.0779998302
1080.0	0.000522	39.125
1080.0	0.000522	39.1710000038
1080.0	0.0005225	39.2029998302
1080.0	0.0005225	39.25
1080.0	0.0005228	39.2960000038
1080.0	0.0005228	39.3279998302
1080.0	0.0005228	39.375
1080.0	0.0005228	39.4059998989
1080.0	0.000523	39.4529998302
1080.0	0.000523	39.5
1080.0	0.000523	39.5460000038
1080.0	0.0005228	39.5779998302
1080.0	0.000523	39.625
1090.0	0.0005328	39.9059998989
1090.0	0.0005363	39.9529998302
1090.0	0.000539	39.9839999676
1090.0	0.0005413	40.0309998989
1090.0	0.0005428	40.0779998302
1090.0	0.000544	40.1089999676
1090.0	0.000545	40.1559998989
1090.0	0.0005455	40.1870000362
1090.0	0.0005458	40.2339999676
1090.0	0.0005463	40.2809998989
1090.0	0.0005468	40.3120000362
1090.0	0.0005468	40.3589999676
1090.0	0.0005475	40.4059998989
1090.0	0.000547	40.4370000362
1090.0	0.000547	40.4839999676
1090.0	0.000547	40.5149998665
1090.0	0.000547	40.5620000362
1090.0	0.0005475	40.6089999676
1090.0	0.000548	40.6399998665
1090.0	0.0005475	40.6870000362
1090.0	0.0005475	40.7339999676
1090.0	0.000547	40.7649998665
1090.0	0.0005468	40.8120000362
1090.0	0.0005468	40.8589999676
1090.0	0.0005468	40.8899998665
1090.0	0.0005465	40.9370000362
1090.0	0.0005468	40.9679999352
1090.0	0.0005465	41.0149998665
1090.0	0.000547	41.0620000362
1090.0	0.0005475	41.0929999352
1090.0	0.000547	41.1399998665
1090.0	0.0005468	41.1870000362
1090.0	0.0005465	41.2179999352
1090.0	0.0005463	41.2649998665
1090.0	0.0005458	41.2960000038
1090.0	0.0005458	41.3429999352
1090.0	0.0005458	41.3899998665
1100.0	0.0005543	41.6710000038
1100.0	0.0005568	41.7029998302
1100.0	0.0005588	41.75
1100.0	0.0005605	41.7809998989
1100.0	0.000562	41.8279998302
1100.0	0.0005638	41.875
1100.0	0.0005645	41.9059998989
1100.0	0.0005653	41.9529998302
1100.0	0.0005655	42.0
1100.0	0.0005658	42.0309998989
1100.0	0.0005663	42.0779998302
1100.0	0.0005658	42.1089999676
1100.0	0.0005658	42.1559998989
1100.0	0.0005663	42.2029998302
1100.0	0.0005663	42.2339999676
1100.0	0.0005663	42.2809998989
1100.0	0.0005665	42.3279998302
1100.0	0.0005668	42.3589999676
1100.0	0.0005665	42.4059998989
1100.0	0.0005665	42.4370000362
1100.0	0.0005665	42.4839999676
1100.0	0.0005665	42.5309998989
1100.0	0.0005665	42.5620000362
1100.0	0.0005665	42.6089999676
1100.0	0.0005668	42.6559998989
1100.0	0.0005668	42.6870000362
1100.0	0.0005668	42.7339999676
1100.0	0.000567	42.7649998665
1100.0	0.000567	42.8120000362
1100.0	0.0005675	42.8589999676
1100.0	0.0005675	42.8899998665
1100.0	0.000567	42.9370000362
1100.0	0.000567	42.9839999676
1100.0	0.000567	43.0149998665
1100.0	0.000567	43.0620000362
1100.0	0.0005675	43.1089999676
1100.0	0.0005675	43.1399998665
1110.0	0.0005745	43.4210000038
1110.0	0.000577	43.4679999352
1110.0	0.000579	43.5
1110.0	0.0005808	43.5460000038
1110.0	0.0005825	43.5929999352
1110.0	0.0005833	43.625
1110.0	0.000584	43.6710000038
1110.0	0.0005845	43.7029998302
1110.0	0.0005853	43.75
1110.0	0.0005855	43.7960000038
1110.0	0.0005863	43.8279998302
1110.0	0.0005858	43.875
1110.0	0.0005863	43.9210000038
1110.0	0.0005863	43.9529998302
1110.0	0.0005868	44.0
1110.0	0.0005868	44.0309998989
1110.0	0.0005875	44.0779998302
1110.0	0.0005878	44.125
1110.0	0.000588	44.1559998989
1110.0	0.0005878	44.2029998302
1110.0	0.0005875	44.25
1110.0	0.0005875	44.2809998989
1110.0	0.0005875	44.3279998302
1110.0	0.0005875	44.375
1110.0	0.000587	44.4059998989
1110.0	0.0005875	44.4529998302
1110.0	0.0005875	44.5
1110.0	0.0005878	44.5309998989
1110.0	0.0005878	44.5779998302
1110.0	0.000588	44.625
1110.0	0.000588	44.6559998989
1110.0	0.0005888	44.7029998302
1110.0	0.0005888	44.7339999676
1110.0	0.0005888	44.7809998989
1110.0	0.0005888	44.8279998302
1110.0	0.0005883	44.8589999676
1110.0	0.0005883	44.9059998989
1120.0	0.0005943	45.1870000362
1120.0	0.0005963	45.2179999352
1120.0	0.0005975	45.2649998665
1120.0	0.0005988	45.2960000038
1120.0	0.0005995	45.3429999352
1120.0	0.0006005	45.3899998665
1120.0	0.0006013	45.4210000038
1120.0	0.0006018	45.4679999352
1120.0	0.0006018	45.5149998665
1120.0	0.000602	45.5460000038
1120.0	0.000602	45.5929999352
1120.0	0.0006025	45.625
1120.0	0.000602	45.6710000038
1120.0	0.000602	45.7179999352
1120.0	0.000602	45.75
1120.0	0.000602	45.7960000038
1120.0	0.000602	45.8429999352
1120.0	0.0006025	45.875
1120.0	0.0006025	45.9210000038
1120.0	0.000602	45.9529998302
1120.0	0.000602	46.0
1120.0	0.0006025	46.0460000038
1120.0	0.000602	46.0779998302
1120.0	0.0006025	46.125
1120.0	0.0006025	46.1710000038
1120.0	0.0006025	46.2029998302
1120.0	0.0006025	46.25
1120.0	0.000602	46.2960000038
1120.0	0.0006018	46.3279998302
1120.0	0.0006018	46.375
1120.0	0.0006018	46.4210000038
1120.0	0.0006018	46.4529998302
1120.0	0.0006018	46.5
1120.0	0.0006018	46.5460000038
1120.0	0.0006018	46.5779998302
1120.0	0.0006015	46.625
1120.0	0.0006018	46.6559998989
1130.0	0.0006058	46.9370000362
1130.0	0.0006068	46.9839999676
1130.0	0.000608	47.0149998665
1130.0	0.000609	47.0620000362
1130.0	0.00061	47.1089999676
1130.0	0.0006108	47.1399998665
1130.0	0.0006115	47.1870000362
1130.0	0.0006125	47.2179999352
1130.0	0.0006128	47.2649998665
1130.0	0.000613	47.3120000362
1130.0	0.0006133	47.3429999352
1130.0	0.0006138	47.3899998665
1130.0	0.0006138	47.4370000362
1130.0	0.0006138	47.4679999352
1130.0	0.0006138	47.5149998665
1130.0	0.0006133	47.5620000362
1130.0	0.000613	47.5929999352
1130.0	0.000613	47.6399998665
1130.0	0.000613	47.6870000362
1130.0	0.000613	47.7179999352
1130.0	0.000613	47.7649998665
1130.0	0.0006133	47.8120000362
1130.0	0.0006138	47.8429999352
1130.0	0.0006138	47.8899998665
1130.0	0.0006143	47.9210000038
1130.0	0.000614	47.9679999352
1130.0	0.0006143	48.0149998665
1130.0	0.0006143	48.0460000038
1130.0	0.0006143	48.0929999352
1130.0	0.0006143	48.1399998665
1130.0	0.000614	48.1710000038
1130.0	0.0006143	48.2179999352
1130.0	0.0006143	48.25
1130.0	0.0006143	48.2960000038
1130.0	0.000614	48.3429999352
1130.0	0.0006143	48.375
1130.0	0.0006143	48.4210000038
1140.0	0.0006183	48.6870000362
1140.0	0.0006203	48.7339999676
1140.0	0.0006215	48.7809998989
1140.0	0.0006228	48.8120000362
1140.0	0.0006238	48.8589999676
1140.0	0.0006245	48.8899998665
1140.0	0.0006253	48.9370000362
1140.0	0.0006255	48.9839999676
1140.0	0.0006263	49.0149998665
1140.0	0.0006265	49.0620000362
1140.0	0.0006263	49.1089999676
1140.0	0.0006265	49.1399998665
1140.0	0.0006265	49.1870000362
1140.0	0.0006263	49.2339999676
1140.0	0.0006265	49.2649998665
1140.0	0.0006263	49.3120000362
1140.0	0.0006265	49.3589999676
1140.0	0.0006265	49.3899998665
1140.0	0.0006268	49.4370000362
1140.0	0.0006268	49.4839999676
1140.0	0.000627	49.5149998665
1140.0	0.0006268	49.5620000362
1140.0	0.0006265	49.5929999352
1140.0	0.0006265	49.6399998665
1140.0	0.0006265	49.6870000362
1140.0	0.0006268	49.7179999352
1140.0	0.0006268	49.7649998665
1140.0	0.0006268	49.8120000362
1140.0	0.0006265	49.8429999352
1140.0	0.0006265	49.8899998665
1140.0	0.0006265	49.9210000038
1140.0	0.0006265	49.9679999352
1140.0	0.0006263	50.0149998665
1140.0	0.0006265	50.0460000038
1140.0	0.0006263	50.0929999352
1140.0	0.0006263	50.1399998665
1140.0	0.0006263	50.1710000038
1150.0	0.0006295	50.4370000362
1150.0	0.0006308	50.4839999676
1150.0	0.000632	50.5309998989
1150.0	0.0006328	50.5620000362
1150.0	0.0006333	50.6089999676
1150.0	0.0006338	50.6399998665
1150.0	0.0006338	50.6870000362
1150.0	0.000634	50.7339999676
1150.0	0.0006343	50.7649998665
1150.0	0.0006345	50.8120000362
1150.0	0.0006345	50.8589999676
1150.0	0.0006343	50.8899998665
1150.0	0.0006345	50.9370000362
1150.0	0.0006345	50.9679999352
1150.0	0.0006345	51.0149998665
1150.0	0.0006345	51.0620000362
1150.0	0.0006345	51.0929999352
1150.0	0.000635	51.1399998665
1150.0	0.000635	51.1870000362
1150.0	0.000635	51.2179999352
1150.0	0.0006353	51.2649998665
1150.0	0.000635	51.2960000038
1150.0	0.0006345	51.3429999352
1150.0	0.0006345	51.3899998665
1150.0	0.0006343	51.4210000038
1150.0	0.000634	51.4679999352
1150.0	0.000634	51.5149998665
1150.0	0.000634	51.5460000038
1150.0	0.000634	51.5929999352
1150.0	0.0006338	51.6399998665
1150.0	0.0006338	51.6710000038
1150.0	0.0006338	51.7179999352
1150.0	0.0006338	51.7649998665
1150.0	0.0006333	51.7960000038
1150.0	0.000633	51.8429999352
1150.0	0.0006328	51.8899998665
1150.0	0.0006325	51.9210000038
1160.0	0.000635	52.1870000362
1160.0	0.0006358	52.2339999676
1160.0	0.0006365	52.2649998665
1160.0	0.000637	52.3120000362
1160.0	0.0006378	52.3429999352
1160.0	0.0006383	52.3899998665
1160.0	0.0006383	52.4370000362
1160.0	0.0006388	52.4839999676
1160.0	0.0006393	52.5149998665
1160.0	0.0006393	52.5620000362
1160.0	0.000639	52.6089999676
1160.0	0.0006388	52.6399998665
1160.0	0.0006383	52.6870000362
1160.0	0.0006383	52.7179999352
1160.0	0.0006383	52.7649998665
1160.0	0.0006383	52.8120000362
1160.0	0.0006383	52.8429999352
1160.0	0.0006388	52.8899998665
1160.0	0.000639	52.9370000362
1160.0	0.000639	52.9679999352
1160.0	0.000639	53.0149998665
1160.0	0.000639	53.0620000362
1160.0	0.000639	53.0929999352
1160.0	0.000639	53.1399998665
1160.0	0.0006393	53.1870000362
1160.0	0.0006393	53.2179999352
1160.0	0.0006395	53.2649998665
1160.0	0.0006395	53.3120000362
1160.0	0.0006395	53.3429999352
1160.0	0.0006393	53.3899998665
1160.0	0.0006393	53.4210000038
1160.0	0.0006393	53.4679999352
1160.0	0.0006393	53.5149998665
1160.0	0.0006395	53.5460000038
1160.0	0.0006395	53.5929999352
1160.0	0.0006395	53.6399998665
1170.0	0.0006423	53.8899998665
1170.0	0.000643	53.9370000362
1170.0	0.000644	53.9839999676
1170.0	0.0006448	54.0149998665
1170.0	0.000645	54.0620000362
1170.0	0.0006453	54.0929999352
1170.0	0.0006455	54.1399998665
1170.0	0.0006453	54.1870000362
1170.0	0.0006453	54.2179999352
1170.0	0.0006455	54.2649998665
1170.0	0.000646	54.3120000362
1170.0	0.0006463	54.3429999352
1170.0	0.0006463	54.3899998665
1170.0	0.0006465	54.4370000362
1170.0	0.0006465	54.4679999352
1170.0	0.0006468	54.5149998665
1170.0	0.0006468	54.5460000038
1170.0	0.0006468	54.5929999352
1170.0	0.0006468	54.6399998665
1170.0	0.0006473	54.6710000038
1170.0	0.0006473	54.7179999352
1170.0	0.0006475	54.7649998665
1170.0	0.0006475	54.7960000038
1170.0	0.0006478	54.8429999352
1170.0	0.0006478	54.875
1170.0	0.0006475	54.9210000038
1170.0	0.0006473	54.9679999352
1170.0	0.0006473	55.0
1170.0	0.0006473	55.0460000038
1170.0	0.0006475	55.0929999352
1170.0	0.0006475	55.125
1170.0	0.0006475	55.1710000038
1170.0	0.0006478	55.2029998302
1170.0	0.0006478	55.25
1170.0	0.000648	55.2960000038
1170.0	0.0006485	55.3279998302
1170.0	0.0006485	55.375
1180.0	0.000651	55.6399998665
1180.0	0.0006513	55.6710000038
1180.0	0.0006515	55.7179999352
1180.0	0.0006523	55.75
1180.0	0.0006523	55.7960000038
1180.0	0.0006523	55.8429999352
1180.0	0.0006525	55.875
1180.0	0.0006528	55.9210000038
1180.0	0.0006535	55.9679999352
1180.0	0.0006535	56.0
1180.0	0.0006535	56.0460000038
1180.0	0.000654	56.0779998302
1180.0	0.000654	56.125
1180.0	0.000654	56.1710000038
1180.0	0.000654	56.2029998302
1180.0	0.000654	56.25
1180.0	0.0006538	56.2960000038
1180.0	0.0006538	56.3279998302
1180.0	0.000654	56.375
1180.0	0.000654	56.4059998989
1180.0	0.000654	56.4529998302
1180.0	0.0006543	56.5
1180.0	0.0006548	56.5309998989
1180.0	0.000655	56.5779998302
1180.0	0.0006553	56.625
1180.0	0.0006553	56.6559998989
1180.0	0.0006553	56.7029998302
1180.0	0.0006553	56.7339999676
1180.0	0.000655	56.7809998989
1180.0	0.0006548	56.8279998302
1180.0	0.000654	56.8589999676
1180.0	0.0006535	56.9059998989
1180.0	0.000653	56.9529998302
1180.0	0.000653	57.0
1180.0	0.0006535	57.0309998989
1180.0	0.0006535	57.0779998302
1180.0	0.0006535	57.1089999676
1190.0	0.0006548	57.375
1190.0	0.0006555	57.4210000038
1190.0	0.0006565	57.4529998302
1190.0	0.0006568	57.5
1190.0	0.0006575	57.5309998989
1190.0	0.0006578	57.5779998302
1190.0	0.000658	57.625
1190.0	0.0006585	57.6559998989
1190.0	0.0006585	57.7029998302
1190.0	0.000658	57.75
1190.0	0.0006578	57.7809998989
1190.0	0.0006578	57.8279998302
1190.0	0.000658	57.875
1190.0	0.000658	57.9059998989
1190.0	0.000658	57.9529998302
1190.0	0.000658	57.9839999676
1190.0	0.0006585	58.0309998989
1190.0	0.0006585	58.0779998302
1190.0	0.0006585	58.1089999676
1190.0	0.0006588	58.1559998989
1190.0	0.0006585	58.2029998302
1190.0	0.0006585	58.2339999676
1190.0	0.0006585	58.2809998989
1190.0	0.000658	58.3120000362
1190.0	0.000658	58.3589999676
1190.0	0.000658	58.4059998989
1190.0	0.000658	58.4370000362
1190.0	0.000658	58.4839999676
1190.0	0.0006578	58.5309998989
1190.0	0.0006575	58.5620000362
1190.0	0.0006575	58.6089999676
1190.0	0.0006578	58.6559998989
1190.0	0.0006578	58.6870000362
1190.0	0.0006575	58.7339999676
1190.0	0.0006578	58.7809998989
1190.0	0.000658	58.8120000362
1190.0	0.0006578	58.8589999676
1200.0	0.0006603	59.125
1200.0	0.0006613	59.1559998989
1200.0	0.0006618	59.2029998302
1200.0	0.0006625	59.25
1200.0	0.000663	59.2809998989
1200.0	0.0006635	59.3279998302
1200.0	0.0006635	59.3589999676
1200.0	0.0006638	59.4059998989
1200.0	0.000664	59.4529998302
1200.0	0.0006643	59.4839999676
1200.0	0.0006643	59.5309998989
1200.0	0.0006648	59.5779998302
1200.0	0.0006648	59.6089999676
1200.0	0.000665	59.6559998989
1200.0	0.0006653	59.7029998302
1200.0	0.0006655	59.7339999676
1200.0	0.0006655	59.7809998989
1200.0	0.0006655	59.8279998302
1200.0	0.0006655	59.8589999676
1200.0	0.0006655	59.9059998989
1200.0	0.0006655	59.9529998302
1200.0	0.0006655	59.9839999676
1200.0	0.0006653	60.0309998989
1200.0	0.0006655	60.0620000362
1200.0	0.0006655	60.1089999676
1200.0	0.0006655	60.1559998989
1200.0	0.0006653	60.1870000362
1200.0	0.000665	60.2339999676
1200.0	0.0006653	60.2809998989
1200.0	0.0006655	60.3120000362
1200.0	0.000666	60.3589999676
1200.0	0.0006663	60.3899998665
1200.0	0.0006663	60.4370000362
1200.0	0.0006665	60.4839999676
1200.0	0.0006663	60.5149998665
1200.0	0.0006663	60.5620000362
1200.0	0.0006663	60.6089999676
1210.0	0.0006688	60.8589999676
1210.0	0.0006698	60.9059998989
1210.0	0.000671	60.9529998302
1210.0	0.0006718	60.9839999676
1210.0	0.0006728	61.0309998989
1210.0	0.0006735	61.0779998302
1210.0	0.0006735	61.1089999676
1210.0	0.0006738	61.1559998989
1210.0	0.0006738	61.1870000362
1210.0	0.000674	61.2339999676
1210.0	0.000674	61.2809998989
1210.0	0.0006743	61.3120000362
1210.0	0.0006748	61.3589999676
1210.0	0.000675	61.4059998989
1210.0	0.000675	61.4370000362
1210.0	0.0006755	61.4839999676
1210.0	0.0006753	61.5309998989
1210.0	0.000675	61.5620000362
1210.0	0.0006748	61.6089999676
1210.0	0.0006743	61.6559998989
1210.0	0.0006748	61.6870000362
1210.0	0.0006748	61.7339999676
1210.0	0.0006743	61.7649998665
1210.0	0.0006748	61.8120000362
1210.0	0.0006748	61.8589999676
1210.0	0.000675	61.8899998665
1210.0	0.000675	61.9370000362
1210.0	0.0006748	61.9839999676
1210.0	0.0006743	62.0309998989
1210.0	0.0006748	62.0620000362
1210.0	0.000675	62.1089999676
1210.0	0.0006753	62.1559998989
1210.0	0.0006753	62.1870000362
1210.0	0.0006755	62.2339999676
1210.0	0.0006755	62.2809998989
1210.0	0.0006753	62.3120000362
1210.0	0.0006753	62.3589999676
1220.0	0.0006773	62.625
1220.0	0.000678	62.6710000038
1220.0	0.0006793	62.7029998302
1220.0	0.0006803	62.75
1220.0	0.0006805	62.7809998989
1220.0	0.0006805	62.8279998302
1220.0	0.000681	62.875
1220.0	0.0006813	62.9059998989
1220.0	0.0006815	62.9529998302
1220.0	0.0006815	63.0
1220.0	0.0006818	63.0309998989
1220.0	0.0006823	63.0779998302
1220.0	0.0006823	63.125
1220.0	0.0006823	63.1559998989
1220.0	0.0006823	63.2029998302
1220.0	0.0006823	63.25
1220.0	0.0006825	63.2809998989
1220.0	0.0006823	63.3279998302
1220.0	0.0006823	63.3589999676
1220.0	0.0006823	63.4059998989
1220.0	0.0006818	63.4529998302
1220.0	0.0006818	63.4839999676
1220.0	0.0006823	63.5309998989
1220.0	0.0006823	63.5779998302
1220.0	0.0006823	63.6089999676
1220.0	0.0006823	63.6559998989
1220.0	0.0006823	63.7029998302
1220.0	0.0006823	63.7339999676
1220.0	0.0006823	63.7809998989
1220.0	0.0006818	63.8279998302
1220.0	0.0006815	63.8589999676
1220.0	0.0006813	63.9059998989
1220.0	0.000681	63.9529998302
1220.0	0.000681	63.9839999676
1220.0	0.000681	64.0309998989
1220.0	0.0006813	64.0620000362
1220.0	0.000681	64.1089999676
1230.0	0.0006843	64.375
1230.0	0.0006853	64.4210000038
1230.0	0.000686	64.4529998302
1230.0	0.0006865	64.5
1230.0	0.0006868	64.5460000038
1230.0	0.0006875	64.5779998302
1230.0	0.0006878	64.625
1230.0	0.000688	64.6710000038
1230.0	0.0006885	64.7029998302
1230.0	0.0006885	64.75
1230.0	0.0006885	64.7809998989
1230.0	0.0006888	64.8279998302
1230.0	0.0006888	64.875
1230.0	0.000689	64.9059998989
1230.0	0.0006893	64.9529998302
1230.0	0.0006893	65.0
1230.0	0.000689	65.0309998989
1230.0	0.0006885	65.0779998302
1230.0	0.0006885	65.1089999676
1230.0	0.0006885	65.1559998989
1230.0	0.0006888	65.2029998302
1230.0	0.0006888	65.2339999676
1230.0	0.0006888	65.2809998989
1230.0	0.000689	65.3279998302
1230.0	0.000689	65.3589999676
1230.0	0.000689	65.4059998989
1230.0	0.000689	65.4529998302
1230.0	0.0006888	65.4839999676
1230.0	0.0006888	65.5309998989
1230.0	0.0006888	65.5620000362
1230.0	0.0006888	65.6089999676
1230.0	0.000689	65.6559998989
1230.0	0.000689	65.7029998302
1230.0	0.0006888	65.7339999676
1230.0	0.000689	65.7809998989
1230.0	0.0006888	65.8120000362
1230.0	0.000689	65.8589999676
1240.0	0.0006918	66.125
1240.0	0.000693	66.1710000038
1240.0	0.0006943	66.2179999352
1240.0	0.0006955	66.25
1240.0	0.0006963	66.2960000038
1240.0	0.0006965	66.3429999352
1240.0	0.0006965	66.375
1240.0	0.0006973	66.4210000038
1240.0	0.0006975	66.4529998302
1240.0	0.0006978	66.5
1240.0	0.0006978	66.5460000038
1240.0	0.000698	66.5779998302
1240.0	0.0006978	66.625
1240.0	0.000698	66.6710000038
1240.0	0.0006985	66.7029998302
1240.0	0.0006985	66.75
1240.0	0.0006988	66.7809998989
1240.0	0.0006988	66.8279998302
1240.0	0.0006988	66.875
1240.0	0.000699	66.9059998989
1240.0	0.0006988	66.9529998302
1240.0	0.0006988	67.0
1240.0	0.0006985	67.0309998989
1240.0	0.000698	67.0779998302
1240.0	0.000698	67.1089999676
1240.0	0.000698	67.1559998989
1240.0	0.0006985	67.2029998302
1240.0	0.0006988	67.2339999676
1240.0	0.0006988	67.2809998989
1240.0	0.0006985	67.3279998302
1240.0	0.0006988	67.3589999676
1240.0	0.000699	67.4059998989
1240.0	0.000699	67.4529998302
1240.0	0.0006993	67.4839999676
1240.0	0.0006993	67.5309998989
1240.0	0.0006998	67.5620000362
1240.0	0.0007	67.6089999676
1250.0	0.0007035	67.875
1250.0	0.0007043	67.9210000038
1250.0	0.0007055	67.9679999352
1250.0	0.0007063	68.0
1250.0	0.0007068	68.0460000038
1250.0	0.0007068	68.0929999352
1250.0	0.0007073	68.125
1250.0	0.0007078	68.1710000038
1250.0	0.0007078	68.2029998302
1250.0	0.000708	68.25
1250.0	0.000708	68.2960000038
1250.0	0.0007088	68.3429999352
1250.0	0.0007085	68.375
1250.0	0.0007085	68.4210000038
1250.0	0.0007085	68.4529998302
1250.0	0.000708	68.5
1250.0	0.0007085	68.5460000038
1250.0	0.0007085	68.5779998302
1250.0	0.000709	68.625
1250.0	0.0007093	68.6710000038
1250.0	0.0007098	68.7029998302
1250.0	0.0007098	68.75
1250.0	0.0007098	68.7809998989
1250.0	0.0007093	68.8279998302
1250.0	0.0007098	68.875
1250.0	0.0007093	68.9059998989
1250.0	0.0007093	68.9529998302
1250.0	0.0007098	69.0
1250.0	0.0007098	69.0309998989
1250.0	0.00071	69.0779998302
1250.0	0.0007098	69.1089999676
1250.0	0.00071	69.1559998989
1250.0	0.0007098	69.2029998302
1250.0	0.0007098	69.2339999676
1250.0	0.0007098	69.2809998989
1250.0	0.00071	69.3279998302
1250.0	0.0007098	69.3589999676
1260.0	0.0007125	69.6399998665
1260.0	0.0007135	69.6710000038
1260.0	0.0007138	69.7179999352
1260.0	0.0007148	69.75
1260.0	0.0007153	69.7960000038
1260.0	0.000716	69.8429999352
1260.0	0.000716	69.875
1260.0	0.000716	69.9210000038
1260.0	0.000716	69.9679999352
1260.0	0.000716	70.0
1260.0	0.000716	70.0460000038
1260.0	0.000716	70.0779998302
1260.0	0.000716	70.125
1260.0	0.000716	70.1710000038
1260.0	0.000716	70.2029998302
1260.0	0.000716	70.25
1260.0	0.000716	70.2960000038
1260.0	0.000716	70.3279998302
1260.0	0.0007163	70.375
1260.0	0.0007163	70.4210000038
1260.0	0.0007163	70.4529998302
1260.0	0.0007163	70.5
1260.0	0.0007163	70.5309998989
1260.0	0.0007163	70.5779998302
1260.0	0.000716	70.625
1260.0	0.000716	70.6559998989
1260.0	0.000716	70.7029998302
1260.0	0.0007163	70.75
1260.0	0.000716	70.7809998989
1260.0	0.000716	70.8279998302
1260.0	0.000716	70.8589999676
1260.0	0.000716	70.9059998989
1260.0	0.000716	70.9529998302
1260.0	0.0007155	70.9839999676
1260.0	0.0007155	71.0309998989
1260.0	0.0007155	71.0779998302
1260.0	0.0007155	71.1089999676
1270.0	0.0007165	71.375
1270.0	0.0007175	71.4210000038
1270.0	0.0007188	71.4679999352
1270.0	0.000719	71.5
1270.0	0.000719	71.5460000038
1270.0	0.000719	71.5929999352
1270.0	0.000719	71.625
1270.0	0.0007193	71.6710000038
1270.0	0.0007198	71.7179999352
1270.0	0.0007193	71.75
1270.0	0.0007198	71.7960000038
1270.0	0.0007198	71.8279998302
1270.0	0.0007198	71.875
1270.0	0.000719	71.9210000038
1270.0	0.000719	71.9529998302
1270.0	0.000719	72.0
1270.0	0.000719	72.0460000038
1270.0	0.0007193	72.0779998302
1270.0	0.0007198	72.125
1270.0	0.0007198	72.1710000038
1270.0	0.0007198	72.2029998302
1270.0	0.0007193	72.25
1270.0	0.000719	72.2809998989
1270.0	0.000719	72.3279998302
1270.0	0.0007188	72.375
1270.0	0.0007188	72.4059998989
1270.0	0.000719	72.4529998302
1270.0	0.0007193	72.5
1270.0	0.0007193	72.5309998989
1270.0	0.00072	72.5779998302
1270.0	0.00072	72.6089999676
1270.0	0.00072	72.6559998989
1270.0	0.0007203	72.7029998302
1270.0	0.0007203	72.7339999676
1270.0	0.0007203	72.7809998989
1270.0	0.0007203	72.8279998302
1270.0	0.0007203	72.8589999676
1280.0	0.0007215	73.125
1280.0	0.0007218	73.1710000038
1280.0	0.0007218	73.2179999352
1280.0	0.0007223	73.25
1280.0	0.0007223	73.2960000038
1280.0	0.0007225	73.3279998302
1280.0	0.0007225	73.375
1280.0	0.0007225	73.4210000038
1280.0	0.0007228	73.4529998302
1280.0	0.000723	73.5
1280.0	0.000723	73.5460000038
1280.0	0.0007238	73.5779998302
1280.0	0.000724	73.625
1280.0	0.000724	73.6559998989
1280.0	0.000724	73.7029998302
1280.0	0.0007238	73.75
1280.0	0.0007235	73.7809998989
1280.0	0.0007235	73.8279998302
1280.0	0.000723	73.875
1280.0	0.000723	73.9059998989
1280.0	0.0007235	73.9529998302
1280.0	0.0007235	74.0
1280.0	0.0007238	74.0309998989
1280.0	0.000724	74.0779998302
1280.0	0.000724	74.125
1280.0	0.0007243	74.1559998989
1280.0	0.0007248	74.2029998302
1280.0	0.000725	74.25
1280.0	0.000725	74.2809998989
1280.0	0.0007248	74.3279998302
1280.0	0.0007248	74.3589999676
1280.0	0.0007243	74.4059998989
1280.0	0.0007243	74.4529998302
1280.0	0.0007248	74.4839999676
1280.0	0.0007243	74.5309998989
1280.0	0.0007243	74.5779998302
1280.0	0.0007248	74.6089999676
1290.0	0.0007255	74.875
1290.0	0.0007255	74.9210000038
1290.0	0.000726	74.9679999352
1290.0	0.000726	75.0
1290.0	0.000726	75.0460000038
1290.0	0.0007263	75.0779998302
1290.0	0.0007265	75.125
1290.0	0.0007265	75.1710000038
1290.0	0.0007265	75.2029998302
1290.0	0.0007265	75.25
1290.0	0.0007265	75.2960000038
1290.0	0.0007268	75.3279998302
1290.0	0.0007268	75.375
1290.0	0.0007265	75.4059998989
1290.0	0.0007268	75.4529998302
1290.0	0.0007268	75.5
1290.0	0.0007268	75.5309998989
1290.0	0.0007265	75.5779998302
1290.0	0.0007265	75.625
1290.0	0.0007265	75.6559998989
1290.0	0.0007265	75.7029998302
1290.0	0.0007265	75.75
1290.0	0.0007265	75.7809998989
1290.0	0.0007268	75.8279998302
1290.0	0.0007268	75.8589999676
1290.0	0.0007268	75.9059998989
1290.0	0.0007273	75.9529998302
1290.0	0.0007273	75.9839999676
1290.0	0.0007273	76.0309998989
1290.0	0.0007275	76.0779998302
1290.0	0.0007275	76.1710000038
1290.0	0.0007275	76.2029998302
1290.0	0.0007273	76.25
1290.0	0.0007268	76.2960000038
1290.0	0.0007268	76.3279998302
1290.0	0.0007265	76.375
1300.0	0.0007253	76.6399998665
1300.0	0.0007248	76.6710000038
1300.0	0.0007243	76.7179999352
1300.0	0.000724	76.7649998665
1300.0	0.0007238	76.7960000038
1300.0	0.000723	76.8429999352
1300.0	0.0007228	76.8899998665
1300.0	0.0007223	76.9210000038
1300.0	0.0007223	76.9679999352
1300.0	0.0007223	77.0
1300.0	0.0007223	77.0460000038
1300.0	0.0007218	77.0929999352
1300.0	0.0007218	77.125
1300.0	0.0007218	77.1710000038
1300.0	0.0007218	77.2179999352
1300.0	0.0007218	77.25
1300.0	0.0007218	77.2960000038
1300.0	0.0007218	77.3279998302
1300.0	0.0007223	77.375
1300.0	0.0007223	77.4210000038
1300.0	0.0007223	77.4529998302
1300.0	0.0007223	77.5
1300.0	0.0007225	77.5460000038
1300.0	0.0007223	77.5779998302
1300.0	0.0007223	77.625
1300.0	0.0007218	77.6710000038
1300.0	0.0007215	77.7029998302
1300.0	0.0007215	77.75
1300.0	0.0007215	77.7809998989
1300.0	0.0007213	77.8279998302
1300.0	0.0007213	77.875
1300.0	0.000721	77.9059998989
1300.0	0.000721	77.9529998302
1300.0	0.0007205	78.0
1300.0	0.0007203	78.0309998989
1300.0	0.0007203	78.0779998302
1300.0	0.0007203	78.1089999676
1310.0	0.0007173	78.375
1310.0	0.000716	78.4210000038
1310.0	0.000715	78.4679999352
1310.0	0.000714	78.5
1310.0	0.0007135	78.5460000038
1310.0	0.0007135	78.5929999352
1310.0	0.000713	78.625
1310.0	0.000713	78.6710000038
1310.0	0.0007128	78.7179999352
1310.0	0.0007123	78.75
1310.0	0.0007118	78.7960000038
1310.0	0.0007118	78.8279998302
1310.0	0.0007118	78.875
1310.0	0.0007115	78.9210000038
1310.0	0.0007115	78.9529998302
1310.0	0.0007115	79.0
1310.0	0.0007113	79.0460000038
1310.0	0.0007113	79.0779998302
1310.0	0.000711	79.125
1310.0	0.0007103	79.1559998989
1310.0	0.0007105	79.2029998302
1310.0	0.0007103	79.25
1310.0	0.0007105	79.2960000038
1310.0	0.0007105	79.3279998302
1310.0	0.0007103	79.375
1310.0	0.0007103	79.4210000038
1310.0	0.00071	79.4529998302
1310.0	0.0007098	79.5
1310.0	0.0007098	79.5460000038
1310.0	0.0007098	79.5929999352
1310.0	0.0007103	79.625
1310.0	0.0007103	79.6710000038
1310.0	0.0007103	79.7029998302
1310.0	0.0007105	79.75
1310.0	0.000711	79.7960000038
1310.0	0.0007105	79.8279998302
1310.0	0.000711	79.875
1320.0	0.000706	80.1399998665
1320.0	0.000704	80.1710000038
1320.0	0.0007025	80.2179999352
1320.0	0.000701	80.2649998665
1320.0	0.0007	80.2960000038
1320.0	0.000699	80.3429999352
1320.0	0.0006988	80.3899998665
1320.0	0.0006985	80.4210000038
1320.0	0.0006978	80.4679999352
1320.0	0.0006978	80.5
1320.0	0.0006978	80.5460000038
1320.0	0.0006975	80.5929999352
1320.0	0.0006975	80.625
1320.0	0.0006975	80.6710000038
1320.0	0.0006973	80.7179999352
1320.0	0.0006975	80.75
1320.0	0.0006975	80.7960000038
1320.0	0.0006978	80.8279998302
1320.0	0.0006978	80.875
1320.0	0.0006978	80.9210000038
1320.0	0.0006978	80.9529998302
1320.0	0.0006978	81.0
1320.0	0.0006978	81.0460000038
1320.0	0.000698	81.0779998302
1320.0	0.000698	81.125
1320.0	0.000698	81.1559998989
1320.0	0.000698	81.2029998302
1320.0	0.0006985	81.25
1320.0	0.0006985	81.2809998989
1320.0	0.0006988	81.3279998302
1320.0	0.000699	81.375
1320.0	0.0006993	81.4059998989
1320.0	0.0006998	81.4529998302
1320.0	0.0006998	81.5
1320.0	0.0006998	81.5309998989
1320.0	0.0006998	81.5779998302
1320.0	0.0006998	81.6089999676
1330.0	0.000694	81.875
1330.0	0.0006915	81.9210000038
1330.0	0.000689	81.9529998302
1330.0	0.0006875	82.0
1330.0	0.000686	82.0460000038
1330.0	0.0006843	82.0779998302
1330.0	0.0006835	82.125
1330.0	0.0006825	82.1710000038
1330.0	0.0006823	82.2029998302
1330.0	0.0006823	82.25
1330.0	0.0006823	82.2809998989
1330.0	0.0006823	82.3279998302
1330.0	0.0006818	82.375
1330.0	0.0006815	82.4059998989
1330.0	0.0006815	82.4529998302
1330.0	0.0006815	82.5
1330.0	0.000681	82.5460000038
1330.0	0.000681	82.5779998302
1330.0	0.000681	82.625
1330.0	0.000681	82.6559998989
1330.0	0.000681	82.7029998302
1330.0	0.0006813	82.75
1330.0	0.0006815	82.7809998989
1330.0	0.0006815	82.8279998302
1330.0	0.0006818	82.875
1330.0	0.0006818	82.9059998989
1330.0	0.0006815	82.9529998302
1330.0	0.0006815	82.9839999676
1330.0	0.0006815	83.0309998989
1330.0	0.0006813	83.0779998302
1330.0	0.0006815	83.1089999676
1330.0	0.0006815	83.1559998989
1330.0	0.0006815	83.2029998302
1330.0	0.0006815	83.2339999676
1330.0	0.0006813	83.2809998989
1330.0	0.0006813	83.3120000362
1340.0	0.0006735	83.5779998302
1340.0	0.0006703	83.625
1340.0	0.0006673	83.6710000038
1340.0	0.0006648	83.7029998302
1340.0	0.0006625	83.75
1340.0	0.000661	83.7809998989
1340.0	0.00066	83.8279998302
1340.0	0.0006593	83.875
1340.0	0.0006588	83.9059998989
1340.0	0.000658	83.9529998302
1340.0	0.0006578	84.0
1340.0	0.0006575	84.0309998989
1340.0	0.0006575	84.0779998302
1340.0	0.0006578	84.1089999676
1340.0	0.0006578	84.1559998989
1340.0	0.0006575	84.2029998302
1340.0	0.0006578	84.2339999676
1340.0	0.0006578	84.2809998989
1340.0	0.0006578	84.3279998302
1340.0	0.000658	84.3589999676
1340.0	0.000658	84.4059998989
1340.0	0.0006578	84.4529998302
1340.0	0.0006575	84.4839999676
1340.0	0.0006568	84.5309998989
1340.0	0.0006568	84.5620000362
1340.0	0.0006565	84.6089999676
1340.0	0.0006565	84.6559998989
1340.0	0.000656	84.6870000362
1340.0	0.0006553	84.7339999676
1340.0	0.0006553	84.7809998989
1340.0	0.0006555	84.8120000362
1340.0	0.000656	84.8589999676
1340.0	0.0006565	84.8899998665
1340.0	0.0006565	84.9370000362
1340.0	0.0006565	84.9839999676
1340.0	0.0006563	85.0149998665
1340.0	0.0006565	85.0620000362
1350.0	0.0006465	85.3279998302
1350.0	0.000643	85.3589999676
1350.0	0.00064	85.4059998989
1350.0	0.0006383	85.4529998302
1350.0	0.0006368	85.4839999676
1350.0	0.0006355	85.5309998989
1350.0	0.0006345	85.5779998302
1350.0	0.0006338	85.6089999676
1350.0	0.0006333	85.6559998989
1350.0	0.0006328	85.6870000362
1350.0	0.000632	85.7339999676
1350.0	0.0006318	85.7809998989
1350.0	0.0006318	85.8120000362
1350.0	0.0006318	85.8589999676
1350.0	0.0006315	85.9059998989
1350.0	0.0006313	85.9370000362
1350.0	0.0006313	85.9839999676
1350.0	0.0006315	86.0309998989
1350.0	0.0006315	86.0620000362
1350.0	0.0006315	86.1089999676
1350.0	0.0006315	86.1559998989
1350.0	0.0006315	86.1870000362
1350.0	0.0006315	86.2339999676
1350.0	0.0006313	86.2649998665
1350.0	0.0006308	86.3120000362
1350.0	0.0006313	86.3589999676
1350.0	0.0006313	86.4059998989
1350.0	0.0006313	86.4370000362
1350.0	0.0006313	86.4839999676
1350.0	0.0006313	86.5309998989
1350.0	0.0006315	86.5620000362
1350.0	0.0006315	86.6089999676
1350.0	0.0006313	86.6399998665
1350.0	0.0006313	86.6870000362
1350.0	0.0006308	86.7339999676
1350.0	0.0006313	86.7649998665
1350.0	0.0006313	86.8120000362
1360.0	0.0006228	87.0779998302
1360.0	0.0006193	87.1089999676
1360.0	0.0006165	87.1559998989
1360.0	0.000614	87.2029998302
1360.0	0.000612	87.2339999676
1360.0	0.0006108	87.2809998989
1360.0	0.00061	87.3279998302
1360.0	0.0006093	87.3589999676
1360.0	0.0006088	87.4059998989
1360.0	0.0006083	87.4529998302
1360.0	0.000608	87.5
1360.0	0.0006078	87.5309998989
1360.0	0.0006075	87.5779998302
1360.0	0.000607	87.6089999676
1360.0	0.0006065	87.6559998989
1360.0	0.0006063	87.7029998302
1360.0	0.0006063	87.7339999676
1360.0	0.0006058	87.7809998989
1360.0	0.0006058	87.8279998302
1360.0	0.0006063	87.8589999676
1360.0	0.0006065	87.9059998989
1360.0	0.0006068	87.9370000362
1360.0	0.0006068	87.9839999676
1360.0	0.0006068	88.0309998989
1360.0	0.0006068	88.0620000362
1360.0	0.0006068	88.1089999676
1360.0	0.0006068	88.1559998989
1360.0	0.0006068	88.1870000362
1360.0	0.0006065	88.2339999676
1360.0	0.0006065	88.2649998665
1360.0	0.0006068	88.3120000362
1360.0	0.000607	88.3589999676
1360.0	0.0006075	88.3899998665
1360.0	0.0006078	88.4370000362
1360.0	0.000608	88.4839999676
1360.0	0.0006083	88.5149998665
1360.0	0.000608	88.5620000362
1370.0	0.0005993	88.8279998302
1370.0	0.0005958	88.8589999676
1370.0	0.000593	88.9059998989
1370.0	0.0005913	88.9529998302
1370.0	0.000589	88.9839999676
1370.0	0.0005878	89.0309998989
1370.0	0.0005865	89.0620000362
1370.0	0.0005855	89.1089999676
1370.0	0.000585	89.1559998989
1370.0	0.0005845	89.1870000362
1370.0	0.0005845	89.2339999676
1370.0	0.0005843	89.2809998989
1370.0	0.0005843	89.3279998302
1370.0	0.0005843	89.3589999676
1370.0	0.0005843	89.4059998989
1370.0	0.0005843	89.4370000362
1370.0	0.000584	89.4839999676
1370.0	0.0005838	89.5309998989
1370.0	0.0005838	89.5620000362
1370.0	0.0005833	89.6089999676
1370.0	0.000583	89.6559998989
1370.0	0.000583	89.6870000362
1370.0	0.000583	89.7339999676
1370.0	0.000583	89.7649998665
1370.0	0.0005833	89.8120000362
1370.0	0.0005833	89.8589999676
1370.0	0.0005833	89.8899998665
1370.0	0.000583	89.9370000362
1370.0	0.000583	89.9839999676
1370.0	0.000583	90.0149998665
1370.0	0.000583	90.0620000362
1370.0	0.000583	90.0929999352
1370.0	0.0005833	90.1399998665
1370.0	0.0005838	90.1870000362
1370.0	0.0005838	90.2179999352
1370.0	0.0005833	90.2649998665
1370.0	0.0005833	90.3120000362
1380.0	0.0005743	90.5620000362
1380.0	0.0005708	90.6089999676
1380.0	0.000568	90.6559998989
1380.0	0.0005663	90.6870000362
1380.0	0.0005643	90.7339999676
1380.0	0.0005625	90.7809998989
1380.0	0.0005613	90.8120000362
1380.0	0.0005605	90.8589999676
1380.0	0.00056	90.8899998665
1380.0	0.0005593	90.9370000362
1380.0	0.000559	90.9839999676
1380.0	0.0005588	91.0149998665
1380.0	0.0005588	91.0620000362
1380.0	0.0005583	91.1089999676
1380.0	0.000558	91.1399998665
1380.0	0.000558	91.1870000362
1380.0	0.0005578	91.2339999676
1380.0	0.0005575	91.2649998665
1380.0	0.0005578	91.3120000362
1380.0	0.000558	91.3429999352
1380.0	0.0005578	91.3899998665
1380.0	0.0005575	91.4370000362
1380.0	0.0005575	91.4679999352
1380.0	0.0005578	91.5149998665
1380.0	0.0005575	91.5620000362
1380.0	0.000557	91.5929999352
1380.0	0.000557	91.6399998665
1380.0	0.0005565	91.6710000038
1380.0	0.0005568	91.7179999352
1380.0	0.000557	91.7649998665
1380.0	0.000557	91.7960000038
1380.0	0.0005575	91.8429999352
1380.0	0.0005575	91.8899998665
1380.0	0.0005575	91.9210000038
1380.0	0.000557	91.9679999352
1380.0	0.000557	92.0
1380.0	0.0005575	92.0460000038
1390.0	0.0005483	92.3120000362
1390.0	0.0005458	92.3589999676
1390.0	0.0005438	92.3899998665
1390.0	0.0005418	92.4370000362
1390.0	0.00054	92.4839999676
1390.0	0.000539	92.5309998989
1390.0	0.000538	92.5620000362
1390.0	0.000537	92.6089999676
1390.0	0.0005368	92.6399998665
1390.0	0.0005368	92.6870000362
1390.0	0.0005365	92.7339999676
1390.0	0.0005365	92.7649998665
1390.0	0.0005363	92.8120000362
1390.0	0.0005363	92.8589999676
1390.0	0.0005365	92.8899998665
1390.0	0.0005368	92.9370000362
1390.0	0.000537	92.9839999676
1390.0	0.000537	93.0149998665
1390.0	0.0005375	93.0620000362
1390.0	0.0005375	93.0929999352
1390.0	0.0005378	93.1399998665
1390.0	0.0005378	93.1870000362
1390.0	0.0005375	93.2339999676
1390.0	0.0005375	93.2649998665
1390.0	0.0005375	93.3120000362
1390.0	0.0005375	93.3429999352
1390.0	0.0005375	93.3899998665
1390.0	0.0005375	93.4370000362
1390.0	0.0005375	93.4679999352
1390.0	0.000537	93.5149998665
1390.0	0.000537	93.5620000362
1390.0	0.0005368	93.5929999352
1390.0	0.000537	93.6399998665
1390.0	0.0005375	93.6710000038
1390.0	0.0005375	93.7179999352
1390.0	0.0005378	93.7649998665
1400.0	0.0005313	94.0309998989
1400.0	0.000529	94.0620000362
1400.0	0.0005275	94.1089999676
1400.0	0.0005258	94.1559998989
1400.0	0.000525	94.1870000362
1400.0	0.0005245	94.2339999676
1400.0	0.000524	94.2809998989
1400.0	0.0005238	94.3120000362
1400.0	0.0005233	94.3589999676
1400.0	0.000523	94.3899998665
1400.0	0.0005228	94.4370000362
1400.0	0.0005228	94.4839999676
1400.0	0.0005225	94.5149998665
1400.0	0.000523	94.5620000362
1400.0	0.0005233	94.6089999676
1400.0	0.0005233	94.6399998665
1400.0	0.0005233	94.6870000362
1400.0	0.000523	94.7179999352
1400.0	0.0005233	94.7649998665
1400.0	0.000523	94.8120000362
1400.0	0.000523	94.8429999352
1400.0	0.000523	94.8899998665
1400.0	0.000523	94.9370000362
1400.0	0.0005233	94.9679999352
1400.0	0.0005233	95.0149998665
1400.0	0.0005228	95.0620000362
1400.0	0.0005225	95.0929999352
1400.0	0.000522	95.1399998665
1400.0	0.0005218	95.1710000038
1400.0	0.0005218	95.2179999352
1400.0	0.0005218	95.2649998665
1400.0	0.0005218	95.2960000038
1400.0	0.0005218	95.3429999352
1400.0	0.0005218	95.375
1400.0	0.0005218	95.4210000038
1400.0	0.000522	95.4679999352
1400.0	0.0005218	95.5
1410.0	0.000517	95.7649998665
1410.0	0.0005155	95.8120000362
1410.0	0.0005143	95.8589999676
1410.0	0.000513	95.8899998665
1410.0	0.0005118	95.9370000362
1410.0	0.0005108	95.9839999676
1410.0	0.00051	96.0149998665
1410.0	0.0005093	96.0620000362
1410.0	0.0005088	96.1089999676
1410.0	0.0005088	96.1399998665
1410.0	0.0005088	96.1870000362
1410.0	0.0005088	96.2179999352
1410.0	0.0005088	96.2649998665
1410.0	0.0005083	96.3120000362
1410.0	0.0005083	96.3429999352
1410.0	0.0005083	96.3899998665
1410.0	0.000508	96.4370000362
1410.0	0.0005078	96.4679999352
1410.0	0.0005075	96.5149998665
1410.0	0.000507	96.5460000038
1410.0	0.000507	96.5929999352
1410.0	0.000507	96.6399998665
1410.0	0.000507	96.6710000038
1410.0	0.0005068	96.7179999352
1410.0	0.0005065	96.7649998665
1410.0	0.0005068	96.7960000038
1410.0	0.0005068	96.8429999352
1410.0	0.0005068	96.875
1410.0	0.0005068	96.9210000038
1410.0	0.0005068	96.9679999352
1410.0	0.0005068	97.0
1410.0	0.0005068	97.0460000038
1410.0	0.0005068	97.0929999352
1410.0	0.0005068	97.125
1410.0	0.0005068	97.1710000038
1410.0	0.000507	97.2029998302
1410.0	0.000507	97.25
1420.0	0.0005028	97.5149998665
1420.0	0.0005018	97.5620000362
1420.0	0.0005005	97.5929999352
1420.0	0.0005	97.6399998665
1420.0	0.0004995	97.6870000362
1420.0	0.000499	97.7179999352
1420.0	0.0004988	97.7649998665
1420.0	0.0004988	97.8120000362
1420.0	0.000498	97.8429999352
1420.0	0.0004978	97.8899998665
1420.0	0.0004978	97.9370000362
1420.0	0.0004978	97.9679999352
1420.0	0.0004975	98.0149998665
1420.0	0.000497	98.0460000038
1420.0	0.000497	98.0929999352
1420.0	0.000497	98.1399998665
1420.0	0.000497	98.1710000038
1420.0	0.0004975	98.2179999352
1420.0	0.0004978	98.25
1420.0	0.0004978	98.2960000038
1420.0	0.000498	98.3429999352
1420.0	0.0004983	98.375
1420.0	0.0004983	98.4210000038
1420.0	0.0004988	98.4679999352
1420.0	0.0004988	98.5
1420.0	0.0004988	98.5460000038
1420.0	0.0004988	98.5929999352
1420.0	0.0004988	98.625
1420.0	0.0004988	98.6710000038
1420.0	0.0004988	98.7029998302
1420.0	0.0004988	98.75
1420.0	0.0004988	98.7960000038
1420.0	0.0004988	98.8279998302
1420.0	0.0004983	98.875
1420.0	0.0004983	98.9210000038
1420.0	0.000498	98.9529998302
1420.0	0.0004978	99.0
1430.0	0.0004968	99.2649998665
1430.0	0.0004965	99.3120000362
1430.0	0.0004958	99.3429999352
1430.0	0.0004955	99.3899998665
1430.0	0.0004953	99.4210000038
1430.0	0.0004955	99.4679999352
1430.0	0.0004955	99.5149998665
1430.0	0.0004955	99.5460000038
1430.0	0.0004955	99.5929999352
1430.0	0.000495	99.6399998665
1430.0	0.000495	99.6710000038
1430.0	0.000495	99.7179999352
1430.0	0.000495	99.75
1430.0	0.000495	99.7960000038
1430.0	0.000495	99.8429999352
1430.0	0.000495	99.875
1430.0	0.000495	99.9210000038
1430.0	0.0004945	99.9679999352
1430.0	0.000495	100.0
1430.0	0.000495	100.046000004
1430.0	0.000495	100.07799983
1430.0	0.0004945	100.125
1430.0	0.0004945	100.171000004
1430.0	0.0004945	100.20299983
1430.0	0.000495	100.25
1430.0	0.000495	100.296000004
1430.0	0.000495	100.32799983
1430.0	0.0004955	100.375
1430.0	0.0004955	100.421000004
1430.0	0.0004953	100.45299983
1430.0	0.0004955	100.5
1430.0	0.0004953	100.530999899
1430.0	0.000495	100.57799983
1430.0	0.0004945	100.625
1430.0	0.000495	100.671000004
1430.0	0.0004955	100.70299983
1430.0	0.0004955	100.75
1440.0	0.0004943	101.014999866
1440.0	0.000494	101.062000036
1440.0	0.000494	101.092999935
1440.0	0.000494	101.139999866
1440.0	0.000494	101.171000004
1440.0	0.0004938	101.217999935
1440.0	0.0004938	101.264999866
1440.0	0.0004938	101.296000004
1440.0	0.0004933	101.342999935
1440.0	0.0004938	101.389999866
1440.0	0.0004938	101.421000004
1440.0	0.0004933	101.467999935
1440.0	0.000493	101.5
1440.0	0.000493	101.546000004
1440.0	0.0004933	101.592999935
1440.0	0.0004938	101.625
1440.0	0.0004933	101.671000004
1440.0	0.000493	101.717999935
1440.0	0.000493	101.75
1440.0	0.000493	101.796000004
1440.0	0.0004928	101.82799983
1440.0	0.0004928	101.875
1440.0	0.000493	101.921000004
1440.0	0.000493	101.95299983
1440.0	0.000493	102.0
1440.0	0.000493	102.046000004
1440.0	0.0004928	102.07799983
1440.0	0.0004925	102.125
1440.0	0.0004925	102.155999899
1440.0	0.0004925	102.20299983
1440.0	0.0004928	102.25
1440.0	0.000493	102.280999899
1440.0	0.000493	102.32799983
1440.0	0.000493	102.375
1440.0	0.000493	102.405999899
1440.0	0.000493	102.45299983
1440.0	0.0004933	102.5
1450.0	0.0004955	102.764999866
1450.0	0.0004963	102.796000004
1450.0	0.0004965	102.842999935
1450.0	0.0004968	102.875
1450.0	0.0004978	102.921000004
1450.0	0.0004983	102.967999935
1450.0	0.0004983	103.0
1450.0	0.0004988	103.046000004
1450.0	0.000499	103.092999935
1450.0	0.000499	103.125
1450.0	0.000499	103.171000004
1450.0	0.0004993	103.20299983
1450.0	0.0004993	103.25
1450.0	0.0004993	103.296000004
1450.0	0.0004993	103.32799983
1450.0	0.0004995	103.375
1450.0	0.0004995	103.421000004
1450.0	0.0004995	103.45299983
1450.0	0.0004995	103.5
1450.0	0.0004993	103.546000004
1450.0	0.0004993	103.57799983
1450.0	0.0004993	103.625
1450.0	0.0004993	103.655999899
1450.0	0.0005	103.70299983
1450.0	0.0005003	103.75
1450.0	0.0005008	103.780999899
1450.0	0.0005013	103.82799983
1450.0	0.0005008	103.875
1450.0	0.0005008	103.905999899
1450.0	0.0005005	103.95299983
1450.0	0.0005005	103.983999968
1450.0	0.0005008	104.030999899
1450.0	0.0005005	104.07799983
1450.0	0.0005003	104.108999968
1450.0	0.0005	104.155999899
1450.0	0.0005	104.20299983
1450.0	0.0004995	104.233999968
1460.0	0.000502	104.5
1460.0	0.000503	104.546000004
1460.0	0.000504	104.592999935
1460.0	0.0005045	104.625
1460.0	0.000505	104.671000004
1460.0	0.0005055	104.70299983
1460.0	0.0005063	104.75
1460.0	0.0005065	104.796000004
1460.0	0.0005063	104.82799983
1460.0	0.0005058	104.875
1460.0	0.0005055	104.921000004
1460.0	0.0005055	104.95299983
1460.0	0.0005055	105.0
1460.0	0.0005055	105.030999899
1460.0	0.0005055	105.07799983
1460.0	0.0005055	105.125
1460.0	0.0005055	105.155999899
1460.0	0.0005055	105.20299983
1460.0	0.0005058	105.25
1460.0	0.0005058	105.280999899
1460.0	0.0005063	105.32799983
1460.0	0.0005058	105.375
1460.0	0.0005058	105.405999899
1460.0	0.0005055	105.45299983
1460.0	0.0005055	105.483999968
1460.0	0.0005053	105.530999899
1460.0	0.0005053	105.57799983
1460.0	0.0005053	105.608999968
1460.0	0.000505	105.655999899
1460.0	0.000505	105.70299983
1460.0	0.000505	105.733999968
1460.0	0.000505	105.780999899
1460.0	0.0005045	105.82799983
1460.0	0.0005045	105.858999968
1460.0	0.0005045	105.905999899
1460.0	0.0005045	105.95299983
1460.0	0.0005045	105.983999968
1470.0	0.0005075	106.25
1470.0	0.0005088	106.296000004
1470.0	0.00051	106.342999935
1470.0	0.0005105	106.375
1470.0	0.0005115	106.421000004
1470.0	0.000512	106.45299983
1470.0	0.0005125	106.5
1470.0	0.0005128	106.546000004
1470.0	0.000513	106.57799983
1470.0	0.000513	106.625
1470.0	0.0005133	106.671000004
1470.0	0.0005133	106.70299983
1470.0	0.0005133	106.75
1470.0	0.0005138	106.796000004
1470.0	0.0005138	106.82799983
1470.0	0.000514	106.875
1470.0	0.0005143	106.921000004
1470.0	0.0005145	106.95299983
1470.0	0.000515	107.0
1470.0	0.000515	107.030999899
1470.0	0.0005153	107.07799983
1470.0	0.000515	107.125
1470.0	0.000515	107.155999899
1470.0	0.0005153	107.20299983
1470.0	0.0005155	107.25
1470.0	0.0005158	107.280999899
1470.0	0.0005163	107.32799983
1470.0	0.0005158	107.375
1470.0	0.0005158	107.405999899
1470.0	0.0005158	107.45299983
1470.0	0.0005158	107.483999968
1470.0	0.0005158	107.530999899
1470.0	0.0005163	107.57799983
1470.0	0.0005163	107.608999968
1470.0	0.0005163	107.655999899
1470.0	0.0005163	107.70299983
1470.0	0.0005163	107.733999968
1480.0	0.000519	108.0
1480.0	0.0005195	108.046000004
1480.0	0.0005208	108.092999935
1480.0	0.0005218	108.125
1480.0	0.000522	108.171000004
1480.0	0.0005225	108.20299983
1480.0	0.0005228	108.25
1480.0	0.000523	108.296000004
1480.0	0.0005233	108.32799983
1480.0	0.0005233	108.375
1480.0	0.0005233	108.421000004
1480.0	0.0005233	108.45299983
1480.0	0.0005233	108.5
1480.0	0.0005233	108.530999899
1480.0	0.000523	108.57799983
1480.0	0.000523	108.625
1480.0	0.000523	108.655999899
1480.0	0.000523	108.70299983
1480.0	0.000523	108.75
1480.0	0.0005228	108.780999899
1480.0	0.0005228	108.82799983
1480.0	0.0005228	108.858999968
1480.0	0.0005228	108.905999899
1480.0	0.0005225	108.95299983
1480.0	0.0005225	108.983999968
1480.0	0.000522	109.030999899
1480.0	0.000522	109.07799983
1480.0	0.0005225	109.108999968
1480.0	0.0005225	109.155999899
1480.0	0.0005225	109.20299983
1480.0	0.0005225	109.233999968
1480.0	0.0005228	109.280999899
1480.0	0.0005225	109.312000036
1480.0	0.0005225	109.358999968
1480.0	0.0005225	109.405999899
1480.0	0.000522	109.45299983
1480.0	0.000522	109.483999968
1490.0	0.0005245	109.75
1490.0	0.0005255	109.796000004
1490.0	0.0005265	109.842999935
1490.0	0.0005275	109.875
1490.0	0.000528	109.921000004
1490.0	0.0005283	109.95299983
1490.0	0.000529	110.0
1490.0	0.0005295	110.046000004
1490.0	0.00053	110.07799983
1490.0	0.00053	110.125
1490.0	0.0005295	110.171000004
1490.0	0.0005295	110.20299983
1490.0	0.0005295	110.25
1490.0	0.0005295	110.280999899
1490.0	0.0005293	110.32799983
1490.0	0.0005293	110.375
1490.0	0.0005293	110.405999899
1490.0	0.0005293	110.45299983
1490.0	0.000529	110.5
1490.0	0.000529	110.530999899
1490.0	0.000529	110.57799983
1490.0	0.0005293	110.608999968
1490.0	0.0005295	110.655999899
1490.0	0.00053	110.70299983
1490.0	0.00053	110.733999968
1490.0	0.00053	110.780999899
1490.0	0.0005295	110.82799983
1490.0	0.0005295	110.858999968
1490.0	0.0005295	110.905999899
1490.0	0.0005295	110.937000036
1490.0	0.0005295	110.983999968
1490.0	0.00053	111.030999899
1490.0	0.0005303	111.062000036
1490.0	0.0005308	111.108999968
1490.0	0.0005313	111.155999899
1490.0	0.0005315	111.187000036
1490.0	0.0005315	111.233999968
1500.0	0.0005338	111.5
1500.0	0.0005343	111.546000004
1500.0	0.0005345	111.57799983
1500.0	0.000535	111.625
1500.0	0.0005355	111.671000004
1500.0	0.0005358	111.70299983
1500.0	0.0005363	111.75
1500.0	0.0005363	111.796000004
1500.0	0.0005355	111.82799983
1500.0	0.0005358	111.875
1500.0	0.0005363	111.921000004
1500.0	0.0005363	111.95299983
1500.0	0.0005365	112.0
1500.0	0.0005368	112.030999899
1500.0	0.0005368	112.07799983
1500.0	0.0005368	112.125
1500.0	0.000537	112.155999899
1500.0	0.0005375	112.20299983
1500.0	0.0005375	112.25
1500.0	0.0005378	112.280999899
1500.0	0.0005378	112.32799983
1500.0	0.0005378	112.375
1500.0	0.0005378	112.421000004
1500.0	0.0005378	112.45299983
1500.0	0.0005378	112.5
1500.0	0.0005378	112.530999899
1500.0	0.000538	112.57799983
1500.0	0.0005383	112.625
1500.0	0.0005383	112.655999899
1500.0	0.000538	112.70299983
1500.0	0.0005378	112.75
1500.0	0.0005375	112.780999899
1500.0	0.000537	112.82799983
1500.0	0.0005368	112.875
1500.0	0.0005368	112.905999899
1500.0	0.0005368	112.95299983
1500.0	0.000537	112.983999968
1510.0	0.0005383	113.264999866
1510.0	0.0005388	113.312000036
1510.0	0.000539	113.342999935
1510.0	0.000539	113.389999866
1510.0	0.0005388	113.437000036
1510.0	0.0005388	113.467999935
1510.0	0.0005388	113.514999866
1510.0	0.0005388	113.546000004
1510.0	0.0005383	113.592999935
1510.0	0.000538	113.639999866
1510.0	0.0005383	113.671000004
1510.0	0.0005383	113.717999935
1510.0	0.0005383	113.764999866
1510.0	0.0005383	113.796000004
1510.0	0.0005383	113.842999935
1510.0	0.000538	113.875
1510.0	0.000538	113.921000004
1510.0	0.000538	113.967999935
1510.0	0.000538	114.0
1510.0	0.000538	114.046000004
1510.0	0.000538	114.092999935
1510.0	0.000538	114.125
1510.0	0.000538	114.171000004
1510.0	0.0005383	114.20299983
1510.0	0.0005388	114.25
1510.0	0.0005388	114.296000004
1510.0	0.0005388	114.32799983
1510.0	0.0005388	114.375
1510.0	0.000538	114.421000004
1510.0	0.000538	114.45299983
1510.0	0.000538	114.5
1510.0	0.000538	114.546000004
1510.0	0.000538	114.57799983
1510.0	0.000538	114.625
1510.0	0.000538	114.655999899
1510.0	0.000538	114.70299983
1510.0	0.0005378	114.75
1520.0	0.000537	115.014999866
1520.0	0.0005368	115.062000036
1520.0	0.0005368	115.108999968
1520.0	0.000537	115.139999866
1520.0	0.0005375	115.187000036
1520.0	0.0005378	115.217999935
1520.0	0.0005378	115.264999866
1520.0	0.0005378	115.312000036
1520.0	0.000538	115.342999935
1520.0	0.000538	115.389999866
1520.0	0.0005388	115.437000036
1520.0	0.0005388	115.467999935
1520.0	0.0005388	115.514999866
1520.0	0.0005383	115.546000004
1520.0	0.0005383	115.592999935
1520.0	0.0005388	115.639999866
1520.0	0.0005383	115.671000004
1520.0	0.0005383	115.717999935
1520.0	0.0005383	115.764999866
1520.0	0.0005388	115.796000004
1520.0	0.0005388	115.842999935
1520.0	0.0005388	115.875
1520.0	0.000539	115.921000004
1520.0	0.000539	115.967999935
1520.0	0.000539	116.0
1520.0	0.000539	116.046000004
1520.0	0.0005388	116.092999935
1520.0	0.0005383	116.125
1520.0	0.0005383	116.171000004
1520.0	0.0005388	116.217999935
1520.0	0.000539	116.25
1520.0	0.000539	116.296000004
1520.0	0.0005393	116.342999935
1520.0	0.0005395	116.375
1520.0	0.00054	116.421000004
1520.0	0.0005393	116.467999935
1530.0	0.000539	116.733999968
1530.0	0.0005388	116.780999899
1530.0	0.0005383	116.812000036
1530.0	0.0005383	116.858999968
1530.0	0.000538	116.905999899
1530.0	0.000538	116.937000036
1530.0	0.000538	116.983999968
1530.0	0.0005378	117.030999899
1530.0	0.0005378	117.062000036
1530.0	0.000538	117.108999968
1530.0	0.0005388	117.139999866
1530.0	0.000539	117.187000036
1530.0	0.0005388	117.233999968
1530.0	0.0005388	117.264999866
1530.0	0.000539	117.312000036
1530.0	0.0005393	117.358999968
1530.0	0.000539	117.389999866
1530.0	0.0005393	117.437000036
1530.0	0.000539	117.467999935
1530.0	0.000539	117.514999866
1530.0	0.0005388	117.562000036
1530.0	0.000539	117.592999935
1530.0	0.0005388	117.639999866
1530.0	0.0005388	117.687000036
1530.0	0.0005388	117.717999935
1530.0	0.0005388	117.764999866
1530.0	0.0005388	117.796000004
1530.0	0.0005393	117.842999935
1530.0	0.0005393	117.889999866
1530.0	0.000539	117.937000036
1530.0	0.0005393	117.967999935
1530.0	0.0005393	118.014999866
1530.0	0.0005395	118.046000004
1530.0	0.00054	118.092999935
1530.0	0.00054	118.139999866
1530.0	0.0005403	118.171000004
1530.0	0.00054	118.217999935
1540.0	0.0005368	118.5
1540.0	0.0005363	118.530999899
1540.0	0.0005355	118.57799983
1540.0	0.000535	118.625
1540.0	0.0005345	118.655999899
1540.0	0.0005345	118.70299983
1540.0	0.0005345	118.733999968
1540.0	0.000535	118.780999899
1540.0	0.000535	118.82799983
1540.0	0.0005353	118.858999968
1540.0	0.0005353	118.905999899
1540.0	0.0005353	118.95299983
1540.0	0.000535	118.983999968
1540.0	0.0005345	119.030999899
1540.0	0.0005345	119.062000036
1540.0	0.0005345	119.108999968
1540.0	0.0005343	119.155999899
1540.0	0.0005345	119.187000036
1540.0	0.0005345	119.233999968
1540.0	0.0005343	119.280999899
1540.0	0.0005343	119.312000036
1540.0	0.000534	119.358999968
1540.0	0.000534	119.389999866
1540.0	0.000534	119.437000036
1540.0	0.000534	119.483999968
1540.0	0.000534	119.514999866
1540.0	0.000534	119.562000036
1540.0	0.000534	119.608999968
1540.0	0.000534	119.639999866
1540.0	0.000534	119.687000036
1540.0	0.0005338	119.733999968
1540.0	0.000534	119.764999866
1540.0	0.0005343	119.812000036
1540.0	0.0005343	119.858999968
1540.0	0.0005345	119.889999866
1540.0	0.000535	119.937000036
1540.0	0.000535	119.983999968
1550.0	0.0005313	120.25
1550.0	0.0005295	120.296000004
1550.0	0.0005288	120.32799983
1550.0	0.0005278	120.375
1550.0	0.000527	120.421000004
1550.0	0.0005268	120.45299983
1550.0	0.0005265	120.5
1550.0	0.0005263	120.546000004
1550.0	0.0005258	120.57799983
1550.0	0.0005255	120.625
1550.0	0.0005255	120.655999899
1550.0	0.0005255	120.70299983
1550.0	0.0005255	120.75
1550.0	0.0005255	120.780999899
1550.0	0.0005255	120.82799983
1550.0	0.0005255	120.875
1550.0	0.0005255	120.905999899
1550.0	0.0005255	120.95299983
1550.0	0.0005255	120.983999968
1550.0	0.0005255	121.030999899
1550.0	0.0005258	121.07799983
1550.0	0.0005263	121.108999968
1550.0	0.0005258	121.155999899
1550.0	0.0005263	121.20299983
1550.0	0.0005258	121.233999968
1550.0	0.0005258	121.280999899
1550.0	0.0005263	121.312000036
1550.0	0.0005263	121.358999968
1550.0	0.0005265	121.405999899
1550.0	0.0005265	121.437000036
1550.0	0.0005263	121.483999968
1550.0	0.0005263	121.530999899
1550.0	0.0005265	121.562000036
1550.0	0.0005265	121.608999968
1550.0	0.0005265	121.655999899
1550.0	0.0005263	121.687000036
1550.0	0.0005258	121.733999968
1560.0	0.0005205	122.014999866
1560.0	0.0005188	122.046000004
1560.0	0.0005175	122.092999935
1560.0	0.0005163	122.139999866
1560.0	0.0005155	122.171000004
1560.0	0.0005153	122.217999935
1560.0	0.0005145	122.25
1560.0	0.0005143	122.296000004
1560.0	0.0005138	122.342999935
1560.0	0.000513	122.375
1560.0	0.0005128	122.421000004
1560.0	0.0005125	122.467999935
1560.0	0.0005125	122.5
1560.0	0.0005125	122.546000004
1560.0	0.0005128	122.57799983
1560.0	0.0005128	122.625
1560.0	0.0005128	122.671000004
1560.0	0.0005125	122.70299983
1560.0	0.0005125	122.75
1560.0	0.0005128	122.796000004
1560.0	0.0005128	122.82799983
1560.0	0.000513	122.875
1560.0	0.0005133	122.905999899
1560.0	0.0005133	122.95299983
1560.0	0.0005138	123.0
1560.0	0.0005138	123.030999899
1560.0	0.0005133	123.07799983
1560.0	0.000513	123.125
1560.0	0.0005133	123.155999899
1560.0	0.0005133	123.20299983
1560.0	0.0005133	123.25
1560.0	0.000513	123.280999899
1560.0	0.000513	123.32799983
1560.0	0.000513	123.358999968
1560.0	0.0005128	123.405999899
1560.0	0.0005128	123.45299983
1560.0	0.0005125	123.483999968
1570.0	0.0005068	123.764999866
1570.0	0.0005045	123.796000004
1570.0	0.0005025	123.842999935
1570.0	0.0005008	123.875
1570.0	0.0004995	123.921000004
1570.0	0.0004988	123.967999935
1570.0	0.000498	124.0
1570.0	0.000497	124.046000004
1570.0	0.0004965	124.092999935
1570.0	0.0004958	124.125
1570.0	0.0004955	124.171000004
1570.0	0.0004958	124.217999935
1570.0	0.0004958	124.25
1570.0	0.0004963	124.296000004
1570.0	0.0004963	124.32799983
1570.0	0.0004963	124.375
1570.0	0.0004963	124.421000004
1570.0	0.0004963	124.45299983
1570.0	0.0004958	124.5
1570.0	0.0004958	124.546000004
1570.0	0.0004963	124.57799983
1570.0	0.0004963	124.625
1570.0	0.0004965	124.671000004
1570.0	0.0004963	124.70299983
1570.0	0.0004955	124.75
1570.0	0.0004953	124.796000004
1570.0	0.000495	124.82799983
1570.0	0.000495	124.875
1570.0	0.000495	124.905999899
1570.0	0.000495	124.95299983
1570.0	0.000495	125.0
1570.0	0.000495	125.030999899
1570.0	0.000495	125.07799983
1570.0	0.0004953	125.125
1570.0	0.0004953	125.155999899
1570.0	0.0004953	125.20299983
1570.0	0.000495	125.25
1580.0	0.0004883	125.514999866
1580.0	0.0004858	125.562000036
1580.0	0.0004833	125.592999935
1580.0	0.0004813	125.639999866
1580.0	0.0004793	125.687000036
1580.0	0.000478	125.717999935
1580.0	0.0004768	125.764999866
1580.0	0.0004765	125.796000004
1580.0	0.0004758	125.842999935
1580.0	0.0004755	125.889999866
1580.0	0.0004755	125.921000004
1580.0	0.0004753	125.967999935
1580.0	0.000475	126.014999866
1580.0	0.000475	126.046000004
1580.0	0.000475	126.092999935
1580.0	0.000475	126.139999866
1580.0	0.000475	126.171000004
1580.0	0.000475	126.217999935
1580.0	0.0004745	126.25
1580.0	0.0004745	126.296000004
1580.0	0.0004743	126.342999935
1580.0	0.0004745	126.375
1580.0	0.0004745	126.421000004
1580.0	0.000475	126.467999935
1580.0	0.000475	126.5
1580.0	0.0004753	126.546000004
1580.0	0.0004755	126.57799983
1580.0	0.0004755	126.625
1580.0	0.0004755	126.671000004
1580.0	0.0004758	126.70299983
1580.0	0.0004755	126.75
1580.0	0.0004753	126.796000004
1580.0	0.000475	126.82799983
1580.0	0.0004745	126.875
1580.0	0.0004743	126.905999899
1580.0	0.0004745	126.95299983
1580.0	0.0004745	127.0
1590.0	0.0004658	127.264999866
1590.0	0.000462	127.312000036
1590.0	0.00046	127.358999968
1590.0	0.0004578	127.405999899
1590.0	0.0004558	127.437000036
1590.0	0.0004543	127.483999968
1590.0	0.000453	127.514999866
1590.0	0.000452	127.562000036
1590.0	0.0004515	127.608999968
1590.0	0.0004508	127.639999866
1590.0	0.0004505	127.687000036
1590.0	0.0004503	127.733999968
1590.0	0.0004505	127.764999866
1590.0	0.0004508	127.812000036
1590.0	0.0004508	127.842999935
1590.0	0.0004505	127.889999866
1590.0	0.0004508	127.937000036
1590.0	0.0004505	127.967999935
1590.0	0.0004505	128.014999866
1590.0	0.0004505	128.062000036
1590.0	0.0004505	128.092999935
1590.0	0.0004505	128.139999866
1590.0	0.0004505	128.187000036
1590.0	0.0004505	128.217999935
1590.0	0.0004508	128.264999866
1590.0	0.0004513	128.312000036
1590.0	0.0004508	128.342999935
1590.0	0.0004505	128.389999866
1590.0	0.0004508	128.421000004
1590.0	0.0004508	128.467999935
1590.0	0.0004508	128.514999866
1590.0	0.0004505	128.546000004
1590.0	0.0004503	128.592999935
1590.0	0.00045	128.639999866
1590.0	0.00045	128.671000004
1590.0	0.0004503	128.717999935
1590.0	0.0004505	128.764999866
1600.0	0.0004418	129.030999899
1600.0	0.000438	129.07799983
1600.0	0.000435	129.108999968
1600.0	0.0004325	129.155999899
1600.0	0.0004305	129.20299983
1600.0	0.0004293	129.233999968
1600.0	0.000428	129.280999899
1600.0	0.000427	129.32799983
1600.0	0.0004265	129.358999968
1600.0	0.0004263	129.405999899
1600.0	0.0004258	129.437000036
1600.0	0.0004253	129.483999968
1600.0	0.0004245	129.530999899
1600.0	0.0004243	129.562000036
1600.0	0.0004243	129.608999968
1600.0	0.0004243	129.655999899
1600.0	0.0004243	129.687000036
1600.0	0.0004243	129.733999968
1600.0	0.0004243	129.764999866
1600.0	0.0004243	129.812000036
1600.0	0.0004243	129.858999968
1600.0	0.0004245	129.889999866
1600.0	0.0004243	129.937000036
1600.0	0.0004245	129.983999968
1600.0	0.0004243	130.030999899
1600.0	0.0004243	130.062000036
1600.0	0.0004243	130.108999968
1600.0	0.0004243	130.139999866
1600.0	0.000424	130.187000036
1600.0	0.000424	130.233999968
1600.0	0.0004243	130.264999866
1600.0	0.000424	130.312000036
1600.0	0.000424	130.358999968
1600.0	0.0004243	130.389999866
1600.0	0.0004243	130.437000036
1600.0	0.0004243	130.467999935
1600.0	0.0004243	130.514999866
1610.0	0.0004133	130.796000004
1610.0	0.0004093	130.82799983
1610.0	0.0004063	130.875
1610.0	0.0004033	130.921000004
1610.0	0.0004015	130.95299983
1610.0	0.0003995	131.0
1610.0	0.000398	131.030999899
1610.0	0.000397	131.07799983
1610.0	0.0003963	131.125
1610.0	0.0003955	131.155999899
1610.0	0.0003953	131.20299983
1610.0	0.000395	131.25
1610.0	0.000395	131.280999899
1610.0	0.0003945	131.32799983
1610.0	0.0003945	131.358999968
1610.0	0.0003945	131.405999899
1610.0	0.0003943	131.45299983
1610.0	0.0003938	131.483999968
1610.0	0.0003938	131.530999899
1610.0	0.0003938	131.57799983
1610.0	0.000394	131.608999968
1610.0	0.000394	131.655999899
1610.0	0.0003943	131.70299983
1610.0	0.0003943	131.733999968
1610.0	0.0003943	131.780999899
1610.0	0.0003943	131.82799983
1610.0	0.000395	131.858999968
1610.0	0.0003953	131.905999899
1610.0	0.0003955	131.95299983
1610.0	0.0003953	131.983999968
1610.0	0.0003953	132.030999899
1610.0	0.0003953	132.062000036
1610.0	0.0003953	132.108999968
1610.0	0.000395	132.155999899
1610.0	0.000395	132.187000036
1610.0	0.000395	132.233999968
1610.0	0.000395	132.280999899
1620.0	0.0003828	132.546000004
1620.0	0.0003783	132.592999935
1620.0	0.0003753	132.639999866
1620.0	0.0003725	132.671000004
1620.0	0.0003703	132.717999935
1620.0	0.0003688	132.764999866
1620.0	0.0003678	132.796000004
1620.0	0.0003668	132.842999935
1620.0	0.0003658	132.875
1620.0	0.000365	132.921000004
1620.0	0.0003645	132.967999935
1620.0	0.000364	133.0
1620.0	0.0003638	133.046000004
1620.0	0.0003638	133.092999935
1620.0	0.0003638	133.125
1620.0	0.000363	133.171000004
1620.0	0.000363	133.20299983
1620.0	0.000363	133.25
1620.0	0.000363	133.296000004
1620.0	0.000363	133.32799983
1620.0	0.000363	133.375
1620.0	0.0003633	133.421000004
1620.0	0.0003633	133.45299983
1620.0	0.0003633	133.5
1620.0	0.0003633	133.530999899
1620.0	0.0003633	133.57799983
1620.0	0.0003638	133.625
1620.0	0.0003638	133.655999899
1620.0	0.0003638	133.70299983
1620.0	0.0003638	133.75
1620.0	0.0003638	133.796000004
1620.0	0.0003638	133.82799983
1620.0	0.0003638	133.875
1620.0	0.0003638	133.905999899
1620.0	0.000363	133.95299983
1620.0	0.0003628	134.0
1620.0	0.0003628	134.030999899
1630.0	0.0003505	134.312000036
1630.0	0.0003463	134.358999968
1630.0	0.0003428	134.389999866
1630.0	0.0003395	134.437000036
1630.0	0.0003375	134.483999968
1630.0	0.0003355	134.514999866
1630.0	0.0003343	134.562000036
1630.0	0.0003333	134.608999968
1630.0	0.0003328	134.639999866
1630.0	0.000332	134.687000036
1630.0	0.0003318	134.717999935
1630.0	0.0003318	134.764999866
1630.0	0.0003315	134.812000036
1630.0	0.0003315	134.842999935
1630.0	0.0003313	134.889999866
1630.0	0.0003313	134.937000036
1630.0	0.0003313	134.967999935
1630.0	0.0003308	135.014999866
1630.0	0.0003308	135.062000036
1630.0	0.0003308	135.092999935
1630.0	0.0003308	135.139999866
1630.0	0.0003308	135.187000036
1630.0	0.0003313	135.217999935
1630.0	0.0003308	135.264999866
1630.0	0.0003313	135.312000036
1630.0	0.0003313	135.342999935
1630.0	0.0003313	135.389999866
1630.0	0.0003313	135.421000004
1630.0	0.0003313	135.467999935
1630.0	0.0003313	135.514999866
1630.0	0.0003315	135.546000004
1630.0	0.0003315	135.592999935
1630.0	0.0003313	135.639999866
1630.0	0.0003313	135.671000004
1630.0	0.0003308	135.717999935
1630.0	0.0003308	135.75
1630.0	0.0003308	135.796000004
1640.0	0.0003188	136.07799983
1640.0	0.0003143	136.125
1640.0	0.0003108	136.155999899
1640.0	0.0003078	136.20299983
1640.0	0.0003055	136.25
1640.0	0.0003038	136.280999899
1640.0	0.0003025	136.32799983
1640.0	0.0003013	136.375
1640.0	0.0003003	136.405999899
1640.0	0.0003	136.45299983
1640.0	0.0002995	136.5
1640.0	0.0002993	136.530999899
1640.0	0.000299	136.57799983
1640.0	0.000299	136.608999968
1640.0	0.0002993	136.655999899
1640.0	0.0002993	136.70299983
1640.0	0.0002993	136.733999968
1640.0	0.0002993	136.780999899
1640.0	0.000299	136.82799983
1640.0	0.000299	136.858999968
1640.0	0.000299	136.905999899
1640.0	0.0002993	136.937000036
1640.0	0.0002993	136.983999968
1640.0	0.0002995	137.030999899
1640.0	0.0002995	137.062000036
1640.0	0.0002993	137.108999968
1640.0	0.0002995	137.155999899
1640.0	0.0002993	137.187000036
1640.0	0.0002993	137.233999968
1640.0	0.000299	137.264999866
1640.0	0.000299	137.312000036
1640.0	0.0002988	137.358999968
1640.0	0.0002988	137.389999866
1640.0	0.0002988	137.437000036
1640.0	0.0002988	137.483999968
1640.0	0.000299	137.514999866
1640.0	0.0002993	137.562000036
1650.0	0.000287	137.842999935
1650.0	0.000283	137.889999866
1650.0	0.0002795	137.921000004
1650.0	0.0002765	137.967999935
1650.0	0.0002743	138.0
1650.0	0.0002725	138.046000004
1650.0	0.0002708	138.092999935
1650.0	0.00027	138.125
1650.0	0.000269	138.171000004
1650.0	0.0002688	138.217999935
1650.0	0.0002688	138.25
1650.0	0.000269	138.296000004
1650.0	0.000269	138.32799983
1650.0	0.000269	138.375
1650.0	0.0002688	138.421000004
1650.0	0.0002688	138.45299983
1650.0	0.0002688	138.5
1650.0	0.0002688	138.546000004
1650.0	0.0002683	138.57799983
1650.0	0.0002683	138.625
1650.0	0.000268	138.671000004
1650.0	0.000268	138.70299983
1650.0	0.0002678	138.75
1650.0	0.000268	138.780999899
1650.0	0.000268	138.82799983
1650.0	0.000268	138.875
1650.0	0.000268	138.905999899
1650.0	0.0002678	138.95299983
1650.0	0.0002678	139.0
1650.0	0.0002678	139.030999899
1650.0	0.000268	139.07799983
1650.0	0.000268	139.108999968
1650.0	0.0002678	139.155999899
1650.0	0.0002678	139.20299983
1650.0	0.0002678	139.233999968
1650.0	0.000268	139.280999899
1650.0	0.000268	139.32799983
1660.0	0.0002558	139.608999968
1660.0	0.0002518	139.639999866
1660.0	0.0002488	139.687000036
1660.0	0.0002463	139.733999968
1660.0	0.0002445	139.764999866
1660.0	0.000243	139.812000036
1660.0	0.0002418	139.858999968
1660.0	0.0002408	139.889999866
1660.0	0.0002405	139.937000036
1660.0	0.0002395	139.967999935
1660.0	0.0002393	140.014999866
1660.0	0.000239	140.062000036
1660.0	0.0002388	140.092999935
1660.0	0.0002383	140.139999866
1660.0	0.000238	140.187000036
1660.0	0.000238	140.217999935
1660.0	0.000238	140.264999866
1660.0	0.000238	140.296000004
1660.0	0.000238	140.342999935
1660.0	0.0002388	140.389999866
1660.0	0.0002388	140.421000004
1660.0	0.000239	140.467999935
1660.0	0.000239	140.514999866
1660.0	0.000239	140.546000004
1660.0	0.0002393	140.592999935
1660.0	0.000239	140.625
1660.0	0.0002388	140.671000004
1660.0	0.000239	140.717999935
1660.0	0.0002388	140.75
1660.0	0.000239	140.796000004
1660.0	0.000239	140.842999935
1660.0	0.000239	140.875
1660.0	0.000239	140.921000004
1660.0	0.0002388	140.95299983
1660.0	0.0002388	141.0
1660.0	0.0002388	141.046000004
1660.0	0.0002388	141.07799983
1670.0	0.0002278	141.375
1670.0	0.0002238	141.405999899
1670.0	0.0002208	141.45299983
1670.0	0.0002188	141.5
1670.0	0.0002168	141.530999899
1670.0	0.0002153	141.57799983
1670.0	0.000214	141.625
1670.0	0.0002128	141.655999899
1670.0	0.000212	141.70299983
1670.0	0.0002118	141.733999968
1670.0	0.0002118	141.780999899
1670.0	0.0002118	141.82799983
1670.0	0.0002118	141.858999968
1670.0	0.0002118	141.905999899
1670.0	0.0002118	141.95299983
1670.0	0.0002118	141.983999968
1670.0	0.0002118	142.030999899
1670.0	0.0002115	142.062000036
1670.0	0.0002115	142.108999968
1670.0	0.0002118	142.155999899
1670.0	0.0002118	142.187000036
1670.0	0.0002115	142.233999968
1670.0	0.0002118	142.280999899
1670.0	0.0002115	142.312000036
1670.0	0.0002113	142.358999968
1670.0	0.0002113	142.389999866
1670.0	0.0002113	142.437000036
1670.0	0.0002115	142.483999968
1670.0	0.0002113	142.514999866
1670.0	0.0002113	142.562000036
1670.0	0.0002113	142.608999968
1670.0	0.0002115	142.639999866
1670.0	0.0002113	142.687000036
1670.0	0.0002113	142.733999968
1670.0	0.0002113	142.764999866
1670.0	0.0002113	142.812000036
1670.0	0.0002115	142.842999935
1680.0	0.0002008	143.139999866
1680.0	0.000198	143.171000004
1680.0	0.0001955	143.217999935
1680.0	0.0001938	143.264999866
1680.0	0.000192	143.296000004
1680.0	0.0001913	143.342999935
1680.0	0.0001903	143.389999866
1680.0	0.0001895	143.421000004
1680.0	0.000189	143.467999935
1680.0	0.0001888	143.514999866
1680.0	0.0001888	143.546000004
1680.0	0.0001883	143.592999935
1680.0	0.0001883	143.639999866
1680.0	0.000188	143.671000004
1680.0	0.000188	143.717999935
1680.0	0.000188	143.75
1680.0	0.000188	143.796000004
1680.0	0.0001883	143.842999935
1680.0	0.000188	143.875
1680.0	0.000188	143.921000004
1680.0	0.000188	143.967999935
1680.0	0.0001878	144.0
1680.0	0.0001878	144.046000004
1680.0	0.0001875	144.092999935
1680.0	0.000187	144.125
1680.0	0.0001868	144.171000004
1680.0	0.0001868	144.20299983
1680.0	0.000187	144.25
1680.0	0.0001875	144.296000004
1680.0	0.000187	144.32799983
1680.0	0.000187	144.375
1680.0	0.0001875	144.421000004
1680.0	0.0001875	144.45299983
1680.0	0.0001878	144.5
1680.0	0.000188	144.530999899
1680.0	0.000188	144.57799983
1680.0	0.0001875	144.625
1690.0	0.0001778	144.905999899
1690.0	0.0001753	144.95299983
1690.0	0.000173	144.983999968
1690.0	0.0001713	145.030999899
1690.0	0.0001693	145.07799983
1690.0	0.0001683	145.108999968
1690.0	0.0001675	145.155999899
1690.0	0.000167	145.20299983
1690.0	0.0001668	145.233999968
1690.0	0.0001665	145.280999899
1690.0	0.0001668	145.312000036
1690.0	0.0001668	145.358999968
1690.0	0.0001665	145.405999899
1690.0	0.0001665	145.45299983
1690.0	0.0001663	145.483999968
1690.0	0.0001663	145.530999899
1690.0	0.0001658	145.562000036
1690.0	0.0001658	145.608999968
1690.0	0.0001658	145.655999899
1690.0	0.0001658	145.687000036
1690.0	0.0001663	145.733999968
1690.0	0.0001665	145.780999899
1690.0	0.000167	145.812000036
1690.0	0.0001675	145.858999968
1690.0	0.0001675	145.889999866
1690.0	0.0001675	145.937000036
1690.0	0.0001678	145.983999968
1690.0	0.0001678	146.014999866
1690.0	0.0001678	146.062000036
1690.0	0.0001678	146.108999968
1690.0	0.0001675	146.139999866
1690.0	0.0001675	146.187000036
1690.0	0.0001675	146.233999968
1690.0	0.0001678	146.264999866
1690.0	0.0001678	146.312000036
1690.0	0.0001678	146.342999935
1690.0	0.0001678	146.389999866
1700.0	0.0001603	146.671000004
1700.0	0.0001575	146.717999935
1700.0	0.0001555	146.764999866
1700.0	0.000154	146.796000004
1700.0	0.0001525	146.842999935
1700.0	0.0001518	146.889999866
1700.0	0.0001508	146.921000004
1700.0	0.0001503	146.967999935
1700.0	0.00015	147.0
1700.0	0.0001493	147.046000004
1700.0	0.0001493	147.092999935
1700.0	0.0001493	147.125
1700.0	0.0001495	147.171000004
1700.0	0.0001495	147.217999935
1700.0	0.0001495	147.25
1700.0	0.00015	147.296000004
1700.0	0.0001503	147.32799983
1700.0	0.00015	147.375
1700.0	0.0001495	147.421000004
1700.0	0.0001493	147.45299983
1700.0	0.000149	147.5
1700.0	0.000149	147.546000004
1700.0	0.000149	147.57799983
1700.0	0.000149	147.625
1700.0	0.000149	147.655999899
1700.0	0.000149	147.70299983
1700.0	0.0001493	147.75
1700.0	0.0001493	147.780999899
1700.0	0.000149	147.82799983
1700.0	0.000149	147.875
1700.0	0.000149	147.905999899
1700.0	0.0001493	147.95299983
1700.0	0.000149	148.0
1700.0	0.0001488	148.030999899
1700.0	0.0001488	148.07799983
1700.0	0.0001488	148.108999968
1700.0	0.0001483	148.155999899
1710.0	0.0001418	148.437000036
1710.0	0.0001395	148.483999968
1710.0	0.0001375	148.530999899
1710.0	0.0001358	148.562000036
1710.0	0.000135	148.608999968
1710.0	0.000134	148.655999899
1710.0	0.000133	148.687000036
1710.0	0.0001325	148.733999968
1710.0	0.000132	148.764999866
1710.0	0.0001318	148.812000036
1710.0	0.0001318	148.858999968
1710.0	0.0001315	148.889999866
1710.0	0.0001313	148.937000036
1710.0	0.0001308	148.983999968
1710.0	0.0001308	149.014999866
1710.0	0.0001305	149.062000036
1710.0	0.0001305	149.108999968
1710.0	0.0001303	149.139999866
1710.0	0.0001303	149.187000036
1710.0	0.0001305	149.217999935
1710.0	0.0001305	149.264999866
1710.0	0.0001305	149.312000036
1710.0	0.0001305	149.342999935
1710.0	0.0001305	149.389999866
1710.0	0.0001305	149.437000036
1710.0	0.0001303	149.467999935
1710.0	0.00013	149.514999866
1710.0	0.00013	149.546000004
1710.0	0.0001303	149.592999935
1710.0	0.00013	149.639999866
1710.0	0.00013	149.671000004
1710.0	0.00013	149.717999935
1710.0	0.0001303	149.764999866
1710.0	0.0001303	149.796000004
1710.0	0.0001305	149.842999935
1710.0	0.0001308	149.875
1710.0	0.0001305	149.921000004
1720.0	0.0001243	150.20299983
1720.0	0.000122	150.25
1720.0	0.0001203	150.296000004
1720.0	0.000119	150.32799983
1720.0	0.0001183	150.375
1720.0	0.0001178	150.421000004
1720.0	0.0001175	150.45299983
1720.0	0.0001168	150.5
1720.0	0.0001165	150.530999899
1720.0	0.0001163	150.57799983
1720.0	0.0001163	150.625
1720.0	0.0001158	150.655999899
1720.0	0.0001155	150.70299983
1720.0	0.0001153	150.75
1720.0	0.0001155	150.796000004
1720.0	0.0001158	150.82799983
1720.0	0.0001163	150.875
1720.0	0.0001158	150.905999899
1720.0	0.0001155	150.95299983
1720.0	0.0001153	151.0
1720.0	0.0001153	151.030999899
1720.0	0.000115	151.07799983
1720.0	0.0001153	151.125
1720.0	0.000115	151.155999899
1720.0	0.000115	151.20299983
1720.0	0.000115	151.233999968
1720.0	0.0001153	151.280999899
1720.0	0.0001155	151.32799983
1720.0	0.0001158	151.358999968
1720.0	0.0001155	151.405999899
1720.0	0.0001153	151.45299983
1720.0	0.000115	151.483999968
1720.0	0.0001153	151.530999899
1720.0	0.0001155	151.562000036
1720.0	0.0001158	151.608999968
1720.0	0.0001163	151.655999899
1720.0	0.0001165	151.687000036
1730.0	0.0001113	151.983999968
1730.0	0.00011	152.014999866
1730.0	0.0001088	152.062000036
1730.0	0.0001075	152.092999935
1730.0	0.0001068	152.139999866
1730.0	0.0001058	152.187000036
1730.0	0.0001055	152.217999935
1730.0	0.0001055	152.264999866
1730.0	0.0001053	152.296000004
1730.0	0.0001045	152.342999935
1730.0	0.0001043	152.389999866
1730.0	0.0001043	152.421000004
1730.0	0.0001043	152.467999935
1730.0	0.0001043	152.514999866
1730.0	0.0001043	152.546000004
1730.0	0.0001045	152.592999935
1730.0	0.0001045	152.639999866
1730.0	0.0001053	152.671000004
1730.0	0.0001053	152.717999935
1730.0	0.0001053	152.75
1730.0	0.0001053	152.796000004
1730.0	0.0001053	152.842999935
1730.0	0.000105	152.875
1730.0	0.0001045	152.921000004
1730.0	0.0001043	152.967999935
1730.0	0.000104	153.0
1730.0	0.0001038	153.046000004
1730.0	0.000104	153.07799983
1730.0	0.000104	153.125
1730.0	0.000104	153.171000004
1730.0	0.000104	153.20299983
1730.0	0.0001043	153.25
1730.0	0.0001043	153.296000004
1730.0	0.0001043	153.32799983
1730.0	0.0001043	153.375
1730.0	0.0001045	153.405999899
1730.0	0.0001045	153.45299983
1740.0	0.0001005	153.75
1740.0	9.88e-05	153.780999899
1740.0	9.75e-05	153.82799983
1740.0	9.63e-05	153.875
1740.0	9.55e-05	153.905999899
1740.0	9.5e-05	153.95299983
1740.0	9.45e-05	154.0
1740.0	9.45e-05	154.030999899
1740.0	9.43e-05	154.07799983
1740.0	9.43e-05	154.125
1740.0	9.4e-05	154.155999899
1740.0	9.38e-05	154.20299983
1740.0	9.3e-05	154.25
1740.0	9.3e-05	154.280999899
1740.0	9.28e-05	154.32799983
1740.0	9.3e-05	154.375
1740.0	9.3e-05	154.405999899
1740.0	9.28e-05	154.45299983
1740.0	9.28e-05	154.483999968
1740.0	9.28e-05	154.530999899
1740.0	9.28e-05	154.57799983
1740.0	9.28e-05	154.608999968
1740.0	9.28e-05	154.655999899
1740.0	9.25e-05	154.70299983
1740.0	9.25e-05	154.733999968
1740.0	9.25e-05	154.780999899
1740.0	9.28e-05	154.812000036
1740.0	9.25e-05	154.858999968
1740.0	9.2e-05	154.905999899
1740.0	9.25e-05	154.937000036
1740.0	9.25e-05	154.983999968
1740.0	9.25e-05	155.030999899
1740.0	9.25e-05	155.062000036
1740.0	9.25e-05	155.108999968
1740.0	9.2e-05	155.139999866
1740.0	9.2e-05	155.187000036
1740.0	9.2e-05	155.233999968
1750.0	8.75e-05	155.530999899
1750.0	8.63e-05	155.562000036
1750.0	8.53e-05	155.608999968
1750.0	8.45e-05	155.655999899
1750.0	8.4e-05	155.687000036
1750.0	8.33e-05	155.733999968
1750.0	8.28e-05	155.764999866
1750.0	8.28e-05	155.812000036
1750.0	8.25e-05	155.858999968
1750.0	8.18e-05	155.889999866
1750.0	8.2e-05	155.937000036
1750.0	8.2e-05	155.983999968
1750.0	8.25e-05	156.014999866
1750.0	8.25e-05	156.062000036
1750.0	8.25e-05	156.092999935
1750.0	8.2e-05	156.139999866
1750.0	8.2e-05	156.187000036
1750.0	8.18e-05	156.217999935
1750.0	8.15e-05	156.264999866
1750.0	8.15e-05	156.312000036
1750.0	8.18e-05	156.342999935
1750.0	8.2e-05	156.389999866
1750.0	8.18e-05	156.421000004
1750.0	8.15e-05	156.467999935
1750.0	8.15e-05	156.514999866
1750.0	8.13e-05	156.546000004
1750.0	8.13e-05	156.592999935
1750.0	8.13e-05	156.639999866
1750.0	8.13e-05	156.671000004
1750.0	8.18e-05	156.717999935
1750.0	8.2e-05	156.75
1750.0	8.2e-05	156.796000004
1750.0	8.28e-05	156.842999935
1750.0	8.28e-05	156.875
1750.0	8.25e-05	156.921000004
1750.0	8.25e-05	156.967999935
1750.0	8.28e-05	157.0
1760.0	7.83e-05	157.296000004
1760.0	7.7e-05	157.342999935
1760.0	7.63e-05	157.389999866
1760.0	7.55e-05	157.421000004
1760.0	7.5e-05	157.467999935
1760.0	7.5e-05	157.514999866
1760.0	7.45e-05	157.546000004
1760.0	7.5e-05	157.592999935
1760.0	7.5e-05	157.625
1760.0	7.45e-05	157.671000004
1760.0	7.5e-05	157.717999935
1760.0	7.5e-05	157.75
1760.0	7.5e-05	157.796000004
1760.0	7.45e-05	157.842999935
1760.0	7.43e-05	157.875
1760.0	7.4e-05	157.921000004
1760.0	7.38e-05	157.95299983
1760.0	7.38e-05	158.0
1760.0	7.33e-05	158.046000004
1760.0	7.38e-05	158.07799983
1760.0	7.4e-05	158.125
1760.0	7.43e-05	158.171000004
1760.0	7.43e-05	158.20299983
1760.0	7.43e-05	158.25
1760.0	7.45e-05	158.296000004
1760.0	7.5e-05	158.32799983
1760.0	7.5e-05	158.375
1760.0	7.5e-05	158.421000004
1760.0	7.5e-05	158.45299983
1760.0	7.53e-05	158.5
1760.0	7.5e-05	158.546000004
1760.0	7.5e-05	158.57799983
1760.0	7.53e-05	158.625
1760.0	7.5e-05	158.655999899
1760.0	7.5e-05	158.70299983
1760.0	7.53e-05	158.75
1760.0	7.53e-05	158.780999899
1770.0	7.2e-05	159.092999935
1770.0	7.13e-05	159.125
1770.0	7.03e-05	159.171000004
1770.0	6.95e-05	159.217999935
1770.0	6.9e-05	159.264999866
1770.0	6.88e-05	159.296000004
1770.0	6.88e-05	159.342999935
1770.0	6.8e-05	159.375
1770.0	6.78e-05	159.421000004
1770.0	6.75e-05	159.467999935
1770.0	6.75e-05	159.514999866
1770.0	6.75e-05	159.546000004
1770.0	6.7e-05	159.592999935
1770.0	6.68e-05	159.625
1770.0	6.68e-05	159.671000004
1770.0	6.68e-05	159.717999935
1770.0	6.68e-05	159.75
1770.0	6.65e-05	159.796000004
1770.0	6.68e-05	159.842999935
1770.0	6.68e-05	159.875
1770.0	6.68e-05	159.921000004
1770.0	6.68e-05	159.95299983
1770.0	6.68e-05	160.0
1770.0	6.65e-05	160.046000004
1770.0	6.63e-05	160.07799983
1770.0	6.63e-05	160.125
1770.0	6.65e-05	160.171000004
1770.0	6.65e-05	160.20299983
1770.0	6.65e-05	160.25
1770.0	6.65e-05	160.296000004
1770.0	6.65e-05	160.32799983
1770.0	6.65e-05	160.375
1770.0	6.63e-05	160.405999899
1770.0	6.63e-05	160.45299983
1770.0	6.58e-05	160.5
1770.0	6.58e-05	160.530999899
1770.0	6.58e-05	160.57799983
1780.0	6.18e-05	160.875
1780.0	6.05e-05	160.921000004
1780.0	6e-05	160.967999935
1780.0	5.93e-05	161.0
1780.0	5.88e-05	161.046000004
1780.0	5.83e-05	161.092999935
1780.0	5.8e-05	161.125
1780.0	5.7e-05	161.171000004
1780.0	5.7e-05	161.20299983
1780.0	5.7e-05	161.25
1780.0	5.75e-05	161.296000004
1780.0	5.75e-05	161.32799983
1780.0	5.7e-05	161.375
1780.0	5.7e-05	161.421000004
1780.0	5.7e-05	161.45299983
1780.0	5.7e-05	161.5
1780.0	5.7e-05	161.530999899
1780.0	5.68e-05	161.57799983
1780.0	5.68e-05	161.625
1780.0	5.65e-05	161.655999899
1780.0	5.65e-05	161.70299983
1780.0	5.68e-05	161.75
1780.0	5.7e-05	161.780999899
1780.0	5.7e-05	161.82799983
1780.0	5.7e-05	161.858999968
1780.0	5.7e-05	161.905999899
1780.0	5.7e-05	161.95299983
1780.0	5.75e-05	161.983999968
1780.0	5.75e-05	162.030999899
1780.0	5.75e-05	162.07799983
1780.0	5.75e-05	162.108999968
1780.0	5.75e-05	162.155999899
1780.0	5.78e-05	162.20299983
1780.0	5.8e-05	162.233999968
1780.0	5.8e-05	162.280999899
1780.0	5.8e-05	162.312000036
1780.0	5.78e-05	162.358999968
1790.0	5.63e-05	162.655999899
1790.0	5.53e-05	162.70299983
1790.0	5.45e-05	162.75
1790.0	5.4e-05	162.780999899
1790.0	5.33e-05	162.82799983
1790.0	5.3e-05	162.875
1790.0	5.28e-05	162.905999899
1790.0	5.28e-05	162.95299983
1790.0	5.28e-05	163.0
1790.0	5.25e-05	163.030999899
1790.0	5.25e-05	163.07799983
1790.0	5.25e-05	163.108999968
1790.0	5.25e-05	163.155999899
1790.0	5.2e-05	163.20299983
1790.0	5.2e-05	163.233999968
1790.0	5.2e-05	163.280999899
1790.0	5.2e-05	163.32799983
1790.0	5.2e-05	163.358999968
1790.0	5.2e-05	163.405999899
1790.0	5.25e-05	163.437000036
1790.0	5.3e-05	163.483999968
1790.0	5.33e-05	163.530999899
1790.0	5.33e-05	163.562000036
1790.0	5.33e-05	163.608999968
1790.0	5.33e-05	163.655999899
1790.0	5.33e-05	163.687000036
1790.0	5.33e-05	163.733999968
1790.0	5.33e-05	163.764999866
1790.0	5.33e-05	163.812000036
1790.0	5.38e-05	163.858999968
1790.0	5.38e-05	163.889999866
1790.0	5.33e-05	163.937000036
1790.0	5.3e-05	163.983999968
1790.0	5.3e-05	164.014999866
1790.0	5.3e-05	164.062000036
1790.0	5.3e-05	164.092999935
1790.0	5.3e-05	164.139999866
1800.0	5.13e-05	164.437000036
1800.0	5.05e-05	164.483999968
1800.0	5e-05	164.530999899
1800.0	4.95e-05	164.562000036
1800.0	4.9e-05	164.608999968
1800.0	4.83e-05	164.639999866
1800.0	4.8e-05	164.687000036
1800.0	4.75e-05	164.733999968
1800.0	4.75e-05	164.764999866
1800.0	4.68e-05	164.812000036
1800.0	4.65e-05	164.858999968
1800.0	4.63e-05	164.889999866
1800.0	4.63e-05	164.937000036
1800.0	4.58e-05	164.983999968
1800.0	4.58e-05	165.014999866
1800.0	4.58e-05	165.062000036
1800.0	4.58e-05	165.108999968
1800.0	4.58e-05	165.139999866
1800.0	4.55e-05	165.187000036
1800.0	4.55e-05	165.233999968
1800.0	4.53e-05	165.264999866
1800.0	4.55e-05	165.312000036
1800.0	4.55e-05	165.342999935
1800.0	4.55e-05	165.389999866
1800.0	4.55e-05	165.437000036
1800.0	4.58e-05	165.467999935
1800.0	4.63e-05	165.514999866
1800.0	4.58e-05	165.546000004
1800.0	4.58e-05	165.592999935
1800.0	4.55e-05	165.639999866
1800.0	4.58e-05	165.671000004
1800.0	4.58e-05	165.717999935
1800.0	4.58e-05	165.764999866
1800.0	4.58e-05	165.796000004
1800.0	4.58e-05	165.842999935
1800.0	4.63e-05	165.889999866
1800.0	4.63e-05	165.921000004
