Your edit line - do NOT delete this line
Wavelength [nm], Voltage [V], Elapsed time [s]
800.0	4.28e-05	9.01600003242
800.0	4.25e-05	9.06200003624
800.0	4.21e-05	9.09400010109
800.0	4.2e-05	9.125
800.0	4.18e-05	9.17200016975
800.0	4.18e-05	9.20300006866
800.0	4.2e-05	9.23399996758
800.0	4.15e-05	9.28100013733
800.0	4.1e-05	9.31200003624
800.0	4.1e-05	9.35899996758
800.0	4.1e-05	9.39100003242
800.0	4.07e-05	9.42200016975
800.0	4.08e-05	9.46900010109
800.0	4.08e-05	9.5
800.0	4.08e-05	9.53100013733
800.0	4.08e-05	9.57800006866
800.0	4.1e-05	9.60899996758
800.0	4.15e-05	9.65600013733
800.0	4.18e-05	9.68700003624
800.0	4.2e-05	9.71900010109
800.0	4.16e-05	9.76600003242
800.0	4.1e-05	9.79700016975
800.0	4.06e-05	9.82800006866
800.0	4.02e-05	9.875
800.0	4e-05	9.90600013733
800.0	3.96e-05	9.93700003624
800.0	3.95e-05	9.98399996758
800.0	3.95e-05	10.0160000324
800.0	3.95e-05	10.0620000362
800.0	3.96e-05	10.0940001011
800.0	4e-05	10.125
800.0	4e-05	10.1720001698
800.0	3.97e-05	10.2030000687
800.0	3.96e-05	10.2339999676
800.0	3.95e-05	10.2810001373
800.0	3.96e-05	10.3120000362
800.0	3.97e-05	10.3440001011
800.0	3.97e-05	10.3910000324
800.0	4e-05	10.4220001698
800.0	4e-05	10.4690001011
800.0	4e-05	10.5
810.0	4.2e-05	10.8280000687
810.0	4.21e-05	10.875
810.0	4.25e-05	10.9060001373
810.0	4.28e-05	10.9370000362
810.0	4.31e-05	10.9839999676
810.0	4.33e-05	11.0160000324
810.0	4.33e-05	11.0470001698
810.0	4.28e-05	11.0940001011
810.0	4.28e-05	11.125
810.0	4.32e-05	11.1720001698
810.0	4.35e-05	11.2030000687
810.0	4.35e-05	11.2339999676
810.0	4.33e-05	11.2810001373
810.0	4.31e-05	11.3120000362
810.0	4.27e-05	11.3440001011
810.0	4.27e-05	11.3910000324
810.0	4.26e-05	11.4220001698
810.0	4.27e-05	11.4530000687
810.0	4.26e-05	11.5
810.0	4.26e-05	11.5310001373
810.0	4.27e-05	11.5780000687
810.0	4.31e-05	11.6089999676
810.0	4.28e-05	11.6410000324
810.0	4.31e-05	11.6870000362
810.0	4.31e-05	11.7190001011
810.0	4.31e-05	11.75
810.0	4.31e-05	11.7970001698
810.0	4.28e-05	11.8280000687
810.0	4.28e-05	11.8589999676
810.0	4.31e-05	11.9060001373
810.0	4.32e-05	11.9370000362
810.0	4.33e-05	11.9839999676
810.0	4.33e-05	12.0160000324
810.0	4.32e-05	12.0470001698
810.0	4.31e-05	12.0940001011
810.0	4.28e-05	12.125
810.0	4.28e-05	12.1560001373
810.0	4.31e-05	12.2030000687
810.0	4.33e-05	12.2339999676
810.0	4.37e-05	12.2810001373
810.0	4.37e-05	12.3120000362
820.0	4.58e-05	12.6410000324
820.0	4.62e-05	12.6720001698
820.0	4.6e-05	12.7190001011
820.0	4.62e-05	12.75
820.0	4.62e-05	12.7810001373
820.0	4.65e-05	12.8280000687
820.0	4.66e-05	12.8589999676
820.0	4.68e-05	12.8910000324
820.0	4.72e-05	12.9370000362
820.0	4.75e-05	12.9690001011
820.0	4.77e-05	13.0160000324
820.0	4.75e-05	13.0470001698
820.0	4.72e-05	13.0780000687
820.0	4.71e-05	13.125
820.0	4.68e-05	13.1560001373
820.0	4.62e-05	13.1870000362
820.0	4.6e-05	13.2339999676
820.0	4.6e-05	13.2660000324
820.0	4.6e-05	13.2970001698
820.0	4.62e-05	13.3440001011
820.0	4.62e-05	13.375
820.0	4.62e-05	13.4220001698
820.0	4.62e-05	13.4530000687
820.0	4.62e-05	13.4839999676
820.0	4.62e-05	13.5310001373
820.0	4.6e-05	13.5620000362
820.0	4.62e-05	13.5940001011
820.0	4.62e-05	13.6410000324
820.0	4.62e-05	13.6720001698
820.0	4.6e-05	13.7030000687
820.0	4.57e-05	13.75
820.0	4.56e-05	13.7810001373
820.0	4.58e-05	13.8280000687
820.0	4.57e-05	13.8589999676
820.0	4.62e-05	13.8910000324
820.0	4.66e-05	13.9370000362
820.0	4.7e-05	13.9690001011
820.0	4.71e-05	14.0
820.0	4.71e-05	14.0470001698
820.0	4.71e-05	14.0780000687
820.0	4.71e-05	14.125
830.0	4.87e-05	14.4370000362
830.0	4.93e-05	14.4690001011
830.0	5e-05	14.5160000324
830.0	5.06e-05	14.5470001698
830.0	5.08e-05	14.5780000687
830.0	5.08e-05	14.625
830.0	5.08e-05	14.6560001373
830.0	5.1e-05	14.7030000687
830.0	5.12e-05	14.7339999676
830.0	5.12e-05	14.7660000324
830.0	5.12e-05	14.8120000362
830.0	5.15e-05	14.8440001011
830.0	5.12e-05	14.875
830.0	5.1e-05	14.9220001698
830.0	5.08e-05	14.9530000687
830.0	5.07e-05	14.9839999676
830.0	5.06e-05	15.0310001373
830.0	5.06e-05	15.0620000362
830.0	5.06e-05	15.1089999676
830.0	5.06e-05	15.1410000324
830.0	5.07e-05	15.1720001698
830.0	5.07e-05	15.2190001011
830.0	5.1e-05	15.25
830.0	5.15e-05	15.2810001373
830.0	5.18e-05	15.3280000687
830.0	5.15e-05	15.3589999676
830.0	5.1e-05	15.4060001373
830.0	5.08e-05	15.4370000362
830.0	5.07e-05	15.4690001011
830.0	5.08e-05	15.5160000324
830.0	5.08e-05	15.5470001698
830.0	5.07e-05	15.5780000687
830.0	5.03e-05	15.625
830.0	5.06e-05	15.6560001373
830.0	5.06e-05	15.6870000362
830.0	5.08e-05	15.7339999676
830.0	5.12e-05	15.7660000324
830.0	5.15e-05	15.8120000362
830.0	5.16e-05	15.8440001011
830.0	5.15e-05	15.875
830.0	5.13e-05	15.9220001698
840.0	5.28e-05	16.2339999676
840.0	5.33e-05	16.2810001373
840.0	5.38e-05	16.3120000362
840.0	5.4e-05	16.3440001011
840.0	5.43e-05	16.3910000324
840.0	5.41e-05	16.4220001698
840.0	5.41e-05	16.4530000687
840.0	5.43e-05	16.5
840.0	5.45e-05	16.5310001373
840.0	5.47e-05	16.5620000362
840.0	5.47e-05	16.6089999676
840.0	5.47e-05	16.6410000324
840.0	5.47e-05	16.6870000362
840.0	5.51e-05	16.7190001011
840.0	5.56e-05	16.75
840.0	5.6e-05	16.7970001698
840.0	5.62e-05	16.8280000687
840.0	5.6e-05	16.8589999676
840.0	5.57e-05	16.9060001373
840.0	5.57e-05	16.9370000362
840.0	5.57e-05	16.9690001011
840.0	5.56e-05	17.0160000324
840.0	5.56e-05	17.0470001698
840.0	5.57e-05	17.0940001011
840.0	5.58e-05	17.125
840.0	5.58e-05	17.1560001373
840.0	5.6e-05	17.2030000687
840.0	5.65e-05	17.2339999676
840.0	5.68e-05	17.2660000324
840.0	5.7e-05	17.3120000362
840.0	5.68e-05	17.3440001011
840.0	5.68e-05	17.375
840.0	5.66e-05	17.4220001698
840.0	5.63e-05	17.4530000687
840.0	5.65e-05	17.5
840.0	5.62e-05	17.5310001373
840.0	5.62e-05	17.5620000362
840.0	5.63e-05	17.6089999676
840.0	5.65e-05	17.6410000324
840.0	5.63e-05	17.6720001698
840.0	5.63e-05	17.7190001011
850.0	5.9e-05	18.0310001373
850.0	5.93e-05	18.0620000362
850.0	5.96e-05	18.1089999676
850.0	6.01e-05	18.1410000324
850.0	6.03e-05	18.1720001698
850.0	6.08e-05	18.2190001011
850.0	6.12e-05	18.25
850.0	6.15e-05	18.2970001698
850.0	6.15e-05	18.3280000687
850.0	6.16e-05	18.3589999676
850.0	6.15e-05	18.4060001373
850.0	6.12e-05	18.4370000362
850.0	6.12e-05	18.4690001011
850.0	6.12e-05	18.5160000324
850.0	6.08e-05	18.5470001698
850.0	6.03e-05	18.5780000687
850.0	6.02e-05	18.625
850.0	6.01e-05	18.6560001373
850.0	6.03e-05	18.7030000687
850.0	6.07e-05	18.7339999676
850.0	6.07e-05	18.7660000324
850.0	6.1e-05	18.8120000362
850.0	6.08e-05	18.8440001011
850.0	6.08e-05	18.875
850.0	6.08e-05	18.9220001698
850.0	6.07e-05	18.9530000687
850.0	6.07e-05	19.0
850.0	6.08e-05	19.0310001373
850.0	6.13e-05	19.0620000362
850.0	6.16e-05	19.1089999676
850.0	6.18e-05	19.1410000324
850.0	6.15e-05	19.1720001698
850.0	6.12e-05	19.2190001011
850.0	6.12e-05	19.25
850.0	6.13e-05	19.2810001373
850.0	6.12e-05	19.3280000687
850.0	6.1e-05	19.3589999676
850.0	6.08e-05	19.4060001373
850.0	6.07e-05	19.4370000362
850.0	6.06e-05	19.4690001011
850.0	6.06e-05	19.5160000324
860.0	6.33e-05	19.8280000687
860.0	6.43e-05	19.8589999676
860.0	6.46e-05	19.8910000324
860.0	6.5e-05	19.9370000362
860.0	6.52e-05	19.9690001011
860.0	6.56e-05	20.0
860.0	6.6e-05	20.0470001698
860.0	6.63e-05	20.0780000687
860.0	6.68e-05	20.125
860.0	6.72e-05	20.1560001373
860.0	6.75e-05	20.1870000362
860.0	6.75e-05	20.2339999676
860.0	6.76e-05	20.2660000324
860.0	6.77e-05	20.2970001698
860.0	6.77e-05	20.3440001011
860.0	6.77e-05	20.375
860.0	6.77e-05	20.4060001373
860.0	6.78e-05	20.4530000687
860.0	6.81e-05	20.4839999676
860.0	6.82e-05	20.5310001373
860.0	6.82e-05	20.5620000362
860.0	6.82e-05	20.5940001011
860.0	6.82e-05	20.6410000324
860.0	6.83e-05	20.6720001698
860.0	6.83e-05	20.7030000687
860.0	6.87e-05	20.75
860.0	6.88e-05	20.7810001373
860.0	6.87e-05	20.8280000687
860.0	6.88e-05	20.8589999676
860.0	6.88e-05	20.8910000324
860.0	6.87e-05	20.9370000362
860.0	6.85e-05	20.9690001011
860.0	6.87e-05	21.0
860.0	6.83e-05	21.0470001698
860.0	6.85e-05	21.0780000687
860.0	6.87e-05	21.1089999676
860.0	6.85e-05	21.1560001373
860.0	6.85e-05	21.1870000362
860.0	6.83e-05	21.2339999676
860.0	6.85e-05	21.2660000324
860.0	6.85e-05	21.2970001698
870.0	7.03e-05	21.6089999676
870.0	7.13e-05	21.6410000324
870.0	7.22e-05	21.6870000362
870.0	7.33e-05	21.7190001011
870.0	7.41e-05	21.75
870.0	7.47e-05	21.7970001698
870.0	7.51e-05	21.8280000687
870.0	7.56e-05	21.875
870.0	7.6e-05	21.9060001373
870.0	7.62e-05	21.9370000362
870.0	7.62e-05	21.9839999676
870.0	7.65e-05	22.0160000324
870.0	7.7e-05	22.0470001698
870.0	7.71e-05	22.0940001011
870.0	7.72e-05	22.125
870.0	7.71e-05	22.1560001373
870.0	7.68e-05	22.2030000687
870.0	7.65e-05	22.2339999676
870.0	7.65e-05	22.2810001373
870.0	7.63e-05	22.3120000362
870.0	7.65e-05	22.3440001011
870.0	7.65e-05	22.3910000324
870.0	7.65e-05	22.4220001698
870.0	7.63e-05	22.4530000687
870.0	7.6e-05	22.5
870.0	7.58e-05	22.5310001373
870.0	7.6e-05	22.5620000362
870.0	7.62e-05	22.6089999676
870.0	7.62e-05	22.6410000324
870.0	7.65e-05	22.6870000362
870.0	7.65e-05	22.7190001011
870.0	7.62e-05	22.75
870.0	7.62e-05	22.7970001698
870.0	7.6e-05	22.8280000687
870.0	7.6e-05	22.8589999676
870.0	7.58e-05	22.9060001373
870.0	7.57e-05	22.9370000362
870.0	7.56e-05	22.9690001011
870.0	7.56e-05	23.0160000324
870.0	7.57e-05	23.0470001698
870.0	7.57e-05	23.0940001011
880.0	7.97e-05	23.3910000324
880.0	8.08e-05	23.4220001698
880.0	8.15e-05	23.4690001011
880.0	8.22e-05	23.5
880.0	8.31e-05	23.5470001698
880.0	8.35e-05	23.5780000687
880.0	8.4e-05	23.6089999676
880.0	8.41e-05	23.6560001373
880.0	8.41e-05	23.6870000362
880.0	8.43e-05	23.7190001011
880.0	8.46e-05	23.7660000324
880.0	8.5e-05	23.7970001698
880.0	8.51e-05	23.8280000687
880.0	8.52e-05	23.875
880.0	8.52e-05	23.9060001373
880.0	8.51e-05	23.9530000687
880.0	8.5e-05	23.9839999676
880.0	8.47e-05	24.0160000324
880.0	8.47e-05	24.0620000362
880.0	8.51e-05	24.0940001011
880.0	8.52e-05	24.125
880.0	8.57e-05	24.1720001698
880.0	8.6e-05	24.2030000687
880.0	8.58e-05	24.2339999676
880.0	8.57e-05	24.2810001373
880.0	8.53e-05	24.3120000362
880.0	8.51e-05	24.3589999676
880.0	8.45e-05	24.3910000324
880.0	8.41e-05	24.4220001698
880.0	8.38e-05	24.4690001011
880.0	8.37e-05	24.5
880.0	8.37e-05	24.5310001373
880.0	8.35e-05	24.5780000687
880.0	8.37e-05	24.6089999676
880.0	8.38e-05	24.6560001373
880.0	8.41e-05	24.6870000362
880.0	8.45e-05	24.7190001011
880.0	8.5e-05	24.7660000324
880.0	8.5e-05	24.7970001698
880.0	8.52e-05	24.8280000687
880.0	8.5e-05	24.875
890.0	8.87e-05	25.1720001698
890.0	9.01e-05	25.2030000687
890.0	9.13e-05	25.25
890.0	9.26e-05	25.2810001373
890.0	9.32e-05	25.3280000687
890.0	9.35e-05	25.3589999676
890.0	9.4e-05	25.3910000324
890.0	9.45e-05	25.4370000362
890.0	9.46e-05	25.4690001011
890.0	9.52e-05	25.5
890.0	9.53e-05	25.5470001698
890.0	9.53e-05	25.5780000687
890.0	9.57e-05	25.625
890.0	9.62e-05	25.6560001373
890.0	9.62e-05	25.6870000362
890.0	9.6e-05	25.7339999676
890.0	9.53e-05	25.7660000324
890.0	9.51e-05	25.7970001698
890.0	9.51e-05	25.8440001011
890.0	9.51e-05	25.875
890.0	9.5e-05	25.9060001373
890.0	9.5e-05	25.9530000687
890.0	9.51e-05	25.9839999676
890.0	9.52e-05	26.0310001373
890.0	9.56e-05	26.0620000362
890.0	9.58e-05	26.0940001011
890.0	9.62e-05	26.1410000324
890.0	9.58e-05	26.1720001698
890.0	9.56e-05	26.2030000687
890.0	9.53e-05	26.25
890.0	9.56e-05	26.2810001373
890.0	9.56e-05	26.3280000687
890.0	9.52e-05	26.3589999676
890.0	9.51e-05	26.3910000324
890.0	9.51e-05	26.4370000362
890.0	9.5e-05	26.4690001011
890.0	9.51e-05	26.5
890.0	9.57e-05	26.5470001698
890.0	9.6e-05	26.5780000687
890.0	9.58e-05	26.6089999676
890.0	9.56e-05	26.6560001373
900.0	9.96e-05	26.9530000687
900.0	0.000101	27.0
900.0	0.0001028	27.0310001373
900.0	0.0001041	27.0780000687
900.0	0.000105	27.125
900.0	0.0001056	27.1560001373
900.0	0.000106	27.2030000687
900.0	0.0001063	27.25
900.0	0.0001066	27.2810001373
900.0	0.000107	27.3280000687
900.0	0.0001072	27.375
900.0	0.0001071	27.4060001373
900.0	0.0001075	27.4530000687
900.0	0.0001072	27.4839999676
900.0	0.000107	27.5310001373
900.0	0.0001068	27.5780000687
900.0	0.000107	27.6089999676
900.0	0.000107	27.6560001373
900.0	0.000107	27.7030000687
900.0	0.0001071	27.7339999676
900.0	0.000107	27.7810001373
900.0	0.0001068	27.8120000362
900.0	0.0001068	27.8589999676
900.0	0.000107	27.9060001373
900.0	0.0001072	27.9370000362
900.0	0.0001077	27.9839999676
900.0	0.0001081	28.0310001373
900.0	0.0001081	28.0620000362
900.0	0.0001081	28.1089999676
900.0	0.0001082	28.1410000324
900.0	0.0001078	28.1870000362
900.0	0.0001077	28.2339999676
900.0	0.0001076	28.2660000324
900.0	0.0001072	28.3120000362
900.0	0.0001066	28.3589999676
900.0	0.0001063	28.3910000324
900.0	0.0001065	28.4370000362
910.0	0.0001132	28.7339999676
910.0	0.0001143	28.7810001373
910.0	0.0001153	28.8280000687
910.0	0.0001166	28.8589999676
910.0	0.0001172	28.9060001373
910.0	0.0001177	28.9370000362
910.0	0.0001185	28.9839999676
910.0	0.0001191	29.0310001373
910.0	0.0001193	29.0620000362
910.0	0.0001193	29.1089999676
910.0	0.0001197	29.1560001373
910.0	0.0001202	29.1870000362
910.0	0.0001202	29.2339999676
910.0	0.0001202	29.2660000324
910.0	0.0001201	29.3120000362
910.0	0.00012	29.3589999676
910.0	0.00012	29.3910000324
910.0	0.0001201	29.4370000362
910.0	0.0001196	29.4839999676
910.0	0.0001195	29.5160000324
910.0	0.0001193	29.5620000362
910.0	0.0001191	29.5940001011
910.0	0.0001193	29.6410000324
910.0	0.0001196	29.6870000362
910.0	0.0001196	29.7190001011
910.0	0.0001196	29.7660000324
910.0	0.0001196	29.8120000362
910.0	0.0001197	29.8440001011
910.0	0.00012	29.8910000324
910.0	0.0001202	29.9220001698
910.0	0.0001203	29.9690001011
910.0	0.0001202	30.0160000324
910.0	0.0001203	30.0470001698
910.0	0.0001203	30.0940001011
910.0	0.0001203	30.1410000324
910.0	0.0001206	30.1720001698
910.0	0.0001203	30.2190001011
920.0	0.0001256	30.5160000324
920.0	0.0001275	30.5620000362
920.0	0.0001288	30.6089999676
920.0	0.0001301	30.6410000324
920.0	0.0001312	30.6870000362
920.0	0.0001322	30.7190001011
920.0	0.0001332	30.7660000324
920.0	0.0001337	30.8120000362
920.0	0.0001341	30.8440001011
920.0	0.0001345	30.8910000324
920.0	0.000135	30.9370000362
920.0	0.0001352	30.9690001011
920.0	0.0001353	31.0160000324
920.0	0.0001356	31.0620000362
920.0	0.0001353	31.0940001011
920.0	0.0001352	31.1410000324
920.0	0.0001351	31.1720001698
920.0	0.0001352	31.2190001011
920.0	0.0001352	31.2660000324
920.0	0.0001351	31.2970001698
920.0	0.000135	31.3440001011
920.0	0.0001346	31.3910000324
920.0	0.0001346	31.4220001698
920.0	0.000135	31.4690001011
920.0	0.0001351	31.5
920.0	0.0001351	31.5470001698
920.0	0.0001352	31.5940001011
920.0	0.0001352	31.625
920.0	0.0001352	31.6720001698
920.0	0.0001353	31.7190001011
920.0	0.0001352	31.75
920.0	0.0001351	31.7970001698
920.0	0.0001351	31.8280000687
920.0	0.0001351	31.875
920.0	0.0001352	31.9220001698
920.0	0.0001352	31.9530000687
920.0	0.0001352	32.0
930.0	0.0001413	32.2970001698
930.0	0.0001431	32.3440001011
930.0	0.0001443	32.3910000324
930.0	0.0001456	32.4220001698
930.0	0.0001468	32.4690001011
930.0	0.0001477	32.5160000324
930.0	0.0001482	32.5470001698
930.0	0.0001488	32.5940001011
930.0	0.0001493	32.625
930.0	0.0001495	32.6720001698
930.0	0.0001497	32.7190001011
930.0	0.0001502	32.75
930.0	0.0001503	32.7970001698
930.0	0.0001501	32.8440001011
930.0	0.00015	32.875
930.0	0.00015	32.9220001698
930.0	0.0001502	32.9690001011
930.0	0.0001507	33.0
930.0	0.0001512	33.0470001698
930.0	0.0001513	33.0780000687
930.0	0.0001515	33.125
930.0	0.0001513	33.1720001698
930.0	0.0001508	33.2030000687
930.0	0.0001508	33.25
930.0	0.0001508	33.2970001698
930.0	0.0001503	33.3280000687
930.0	0.0001506	33.375
930.0	0.0001508	33.4060001373
930.0	0.0001508	33.4530000687
930.0	0.0001506	33.5
930.0	0.0001502	33.5310001373
930.0	0.0001502	33.5780000687
930.0	0.0001502	33.625
930.0	0.0001503	33.6560001373
930.0	0.0001508	33.7030000687
930.0	0.0001513	33.7339999676
930.0	0.000152	33.7810001373
940.0	0.0001578	34.0780000687
940.0	0.00016	34.125
940.0	0.0001618	34.1720001698
940.0	0.0001633	34.2030000687
940.0	0.0001643	34.25
940.0	0.0001651	34.2810001373
940.0	0.0001657	34.3280000687
940.0	0.0001663	34.375
940.0	0.000167	34.4060001373
940.0	0.0001672	34.4530000687
940.0	0.0001676	34.5
940.0	0.0001678	34.5310001373
940.0	0.0001682	34.5780000687
940.0	0.0001683	34.6089999676
940.0	0.0001682	34.6560001373
940.0	0.0001676	34.7030000687
940.0	0.0001671	34.7339999676
940.0	0.0001668	34.7810001373
940.0	0.000167	34.8280000687
940.0	0.0001672	34.8589999676
940.0	0.0001671	34.9060001373
940.0	0.0001671	34.9370000362
940.0	0.0001671	34.9839999676
940.0	0.0001668	35.0310001373
940.0	0.0001668	35.0620000362
940.0	0.000167	35.1089999676
940.0	0.0001668	35.1560001373
940.0	0.000167	35.1870000362
940.0	0.0001672	35.2339999676
940.0	0.0001676	35.2660000324
940.0	0.0001676	35.3120000362
940.0	0.0001677	35.3589999676
940.0	0.0001681	35.3910000324
940.0	0.0001681	35.4370000362
940.0	0.0001683	35.4839999676
940.0	0.0001683	35.5160000324
940.0	0.0001685	35.5620000362
950.0	0.0001721	35.8589999676
950.0	0.000175	35.8910000324
950.0	0.0001768	35.9370000362
950.0	0.0001782	35.9690001011
950.0	0.00018	36.0160000324
950.0	0.0001812	36.0620000362
950.0	0.0001822	36.0940001011
950.0	0.0001828	36.1410000324
950.0	0.0001827	36.3589999676
950.0	0.0001832	36.4060001373
950.0	0.0001831	36.4370000362
950.0	0.0001833	36.4839999676
950.0	0.0001838	36.5310001373
950.0	0.0001841	36.5620000362
950.0	0.0001847	36.6089999676
950.0	0.0001847	36.6560001373
950.0	0.000185	36.6870000362
950.0	0.0001851	36.7339999676
950.0	0.0001856	36.7660000324
950.0	0.0001856	36.8120000362
950.0	0.0001851	36.8589999676
950.0	0.0001846	36.8910000324
950.0	0.0001843	36.9370000362
950.0	0.0001843	36.9839999676
950.0	0.0001846	37.0160000324
950.0	0.0001845	37.0620000362
950.0	0.0001845	37.0940001011
950.0	0.000184	37.1410000324
950.0	0.0001833	37.1870000362
950.0	0.0001828	37.2190001011
950.0	0.0001831	37.2660000324
950.0	0.0001835	37.3120000362
960.0	0.000191	37.5940001011
960.0	0.0001928	37.6410000324
960.0	0.0001946	37.6720001698
960.0	0.0001962	37.7190001011
960.0	0.0001976	37.7660000324
960.0	0.0001988	37.7970001698
960.0	0.0001997	37.8440001011
960.0	0.0002001	37.875
960.0	0.0002006	37.9220001698
960.0	0.0002008	37.9690001011
960.0	0.000201	38.0
960.0	0.000201	38.0470001698
960.0	0.000201	38.0940001011
960.0	0.0002008	38.125
960.0	0.0002008	38.1720001698
960.0	0.000201	38.2030000687
960.0	0.0002012	38.25
960.0	0.0002003	38.2970001698
960.0	0.0002001	38.3280000687
960.0	0.0002001	38.375
960.0	0.0002006	38.4220001698
960.0	0.0002013	38.4530000687
960.0	0.000202	38.5
960.0	0.0002022	38.5310001373
960.0	0.0002028	38.5780000687
960.0	0.0002031	38.625
960.0	0.0002027	38.6560001373
960.0	0.0002027	38.7030000687
960.0	0.0002027	38.75
960.0	0.0002025	38.7810001373
960.0	0.0002021	38.8280000687
960.0	0.0002018	38.875
960.0	0.0002013	38.9060001373
960.0	0.000201	38.9530000687
960.0	0.0002012	38.9839999676
960.0	0.0002013	39.0310001373
960.0	0.0002013	39.0780000687
970.0	0.0002068	39.3440001011
970.0	0.0002085	39.3910000324
970.0	0.0002103	39.4370000362
970.0	0.0002118	39.4690001011
970.0	0.0002128	39.5160000324
970.0	0.000214	39.5620000362
970.0	0.0002152	39.5940001011
970.0	0.0002163	39.6410000324
970.0	0.0002176	39.6870000362
970.0	0.0002182	39.7190001011
970.0	0.0002187	39.7660000324
970.0	0.0002188	39.7970001698
970.0	0.0002191	39.8440001011
970.0	0.0002193	39.8910000324
970.0	0.0002193	39.9220001698
970.0	0.0002191	39.9690001011
970.0	0.0002193	40.0160000324
970.0	0.000219	40.0470001698
970.0	0.0002193	40.0940001011
970.0	0.0002191	40.125
970.0	0.0002185	40.1720001698
970.0	0.0002183	40.2190001011
970.0	0.0002185	40.25
970.0	0.0002188	40.2970001698
970.0	0.0002193	40.3440001011
970.0	0.0002196	40.375
970.0	0.0002197	40.4220001698
970.0	0.0002196	40.4530000687
970.0	0.0002193	40.5
970.0	0.0002188	40.5470001698
970.0	0.0002183	40.5780000687
970.0	0.0002181	40.625
970.0	0.0002178	40.6720001698
970.0	0.0002176	40.7030000687
970.0	0.0002175	40.75
970.0	0.0002172	40.7970001698
970.0	0.0002176	40.8280000687
980.0	0.0002246	41.125
980.0	0.0002266	41.1560001373
980.0	0.0002283	41.2030000687
980.0	0.0002296	41.2339999676
980.0	0.000231	41.2810001373
980.0	0.0002318	41.3280000687
980.0	0.0002326	41.3589999676
980.0	0.0002332	41.4060001373
980.0	0.0002338	41.4530000687
980.0	0.0002343	41.4839999676
980.0	0.0002346	41.5310001373
980.0	0.000235	41.5780000687
980.0	0.0002352	41.6089999676
980.0	0.0002356	41.6560001373
980.0	0.0002358	41.6870000362
980.0	0.0002357	41.7339999676
980.0	0.0002356	41.7810001373
980.0	0.0002356	41.8120000362
980.0	0.0002357	41.8589999676
980.0	0.0002358	41.8910000324
980.0	0.000236	41.9370000362
980.0	0.0002365	41.9839999676
980.0	0.0002366	42.0160000324
980.0	0.0002368	42.0620000362
980.0	0.0002365	42.1089999676
980.0	0.0002362	42.1410000324
980.0	0.0002362	42.1870000362
980.0	0.000236	42.2339999676
980.0	0.0002357	42.2660000324
980.0	0.0002357	42.3120000362
980.0	0.0002358	42.3440001011
980.0	0.000236	42.3910000324
980.0	0.000236	42.4370000362
980.0	0.000236	42.4690001011
980.0	0.000236	42.5160000324
980.0	0.000236	42.5620000362
980.0	0.0002358	42.5940001011
990.0	0.0002415	42.875
990.0	0.0002438	42.9060001373
990.0	0.0002457	42.9530000687
990.0	0.0002471	43.0
990.0	0.0002482	43.0310001373
990.0	0.0002493	43.0780000687
990.0	0.0002501	43.125
990.0	0.0002507	43.1560001373
990.0	0.0002515	43.2030000687
990.0	0.000252	43.2339999676
990.0	0.0002521	43.2810001373
990.0	0.0002521	43.3280000687
990.0	0.0002521	43.3589999676
990.0	0.000252	43.4060001373
990.0	0.0002521	43.4530000687
990.0	0.0002527	43.4839999676
990.0	0.0002531	43.5310001373
990.0	0.0002531	43.5780000687
990.0	0.0002527	43.6089999676
990.0	0.0002525	43.6560001373
990.0	0.0002521	43.6870000362
990.0	0.0002522	43.7339999676
990.0	0.0002521	43.7810001373
990.0	0.000252	43.8120000362
990.0	0.0002522	43.8589999676
990.0	0.0002521	43.8910000324
990.0	0.0002521	43.9370000362
990.0	0.0002526	43.9839999676
990.0	0.0002527	44.0160000324
990.0	0.0002528	44.0620000362
990.0	0.0002528	44.1089999676
990.0	0.0002531	44.1410000324
990.0	0.0002528	44.1870000362
990.0	0.0002531	44.2339999676
990.0	0.0002532	44.2660000324
990.0	0.0002532	44.3120000362
990.0	0.0002537	44.3440001011
1000.0	0.0002585	44.625
1000.0	0.0002608	44.6720001698
1000.0	0.0002632	44.7030000687
1000.0	0.0002645	44.75
1000.0	0.0002656	44.7970001698
1000.0	0.0002666	44.8280000687
1000.0	0.0002672	44.875
1000.0	0.0002677	44.9060001373
1000.0	0.0002683	44.9530000687
1000.0	0.0002687	45.0
1000.0	0.0002685	45.0310001373
1000.0	0.0002687	45.0780000687
1000.0	0.0002687	45.125
1000.0	0.0002685	45.1560001373
1000.0	0.0002687	45.2030000687
1000.0	0.0002693	45.25
1000.0	0.0002696	45.2810001373
1000.0	0.00027	45.3280000687
1000.0	0.0002701	45.3589999676
1000.0	0.0002702	45.4060001373
1000.0	0.0002706	45.4530000687
1000.0	0.0002708	45.4839999676
1000.0	0.0002712	45.5310001373
1000.0	0.0002708	45.5780000687
1000.0	0.0002712	45.6089999676
1000.0	0.0002713	45.6560001373
1000.0	0.000271	45.6870000362
1000.0	0.0002706	45.7339999676
1000.0	0.0002708	45.7810001373
1000.0	0.000271	45.8120000362
1000.0	0.0002713	45.8589999676
1000.0	0.0002713	45.9060001373
1000.0	0.0002712	45.9370000362
1000.0	0.000271	45.9839999676
1000.0	0.0002708	46.0160000324
1000.0	0.000271	46.0620000362
1000.0	0.0002708	46.1089999676
1010.0	0.0002762	46.375
1010.0	0.0002783	46.4220001698
1010.0	0.0002806	46.4690001011
1010.0	0.0002826	46.5
1010.0	0.000284	46.5470001698
1010.0	0.0002851	46.5780000687
1010.0	0.000286	46.625
1010.0	0.0002862	46.6720001698
1010.0	0.0002866	46.7030000687
1010.0	0.0002868	46.75
1010.0	0.0002868	46.7970001698
1010.0	0.0002868	46.8280000687
1010.0	0.0002871	46.875
1010.0	0.0002875	46.9060001373
1010.0	0.0002877	46.9530000687
1010.0	0.0002881	47.0
1010.0	0.0002885	47.0310001373
1010.0	0.0002888	47.0780000687
1010.0	0.0002893	47.125
1010.0	0.0002895	47.1560001373
1010.0	0.0002896	47.2030000687
1010.0	0.0002896	47.25
1010.0	0.0002893	47.2810001373
1010.0	0.000289	47.3280000687
1010.0	0.0002888	47.3589999676
1010.0	0.0002888	47.4060001373
1010.0	0.0002885	47.4530000687
1010.0	0.0002883	47.4839999676
1010.0	0.0002887	47.5310001373
1010.0	0.000289	47.5780000687
1010.0	0.000289	47.6089999676
1010.0	0.0002888	47.6560001373
1010.0	0.0002883	47.6870000362
1010.0	0.0002878	47.7339999676
1010.0	0.0002878	47.7810001373
1010.0	0.0002878	47.8120000362
1010.0	0.0002877	47.8589999676
1020.0	0.0002945	48.1410000324
1020.0	0.0002968	48.1870000362
1020.0	0.000299	48.2190001011
1020.0	0.0003008	48.2660000324
1020.0	0.0003025	48.3120000362
1020.0	0.000304	48.3440001011
1020.0	0.0003046	48.3910000324
1020.0	0.0003052	48.4220001698
1020.0	0.0003062	48.4690001011
1020.0	0.0003063	48.5160000324
1020.0	0.0003065	48.5470001698
1020.0	0.000307	48.5940001011
1020.0	0.0003071	48.6410000324
1020.0	0.000307	48.6720001698
1020.0	0.0003071	48.7190001011
1020.0	0.0003071	48.75
1020.0	0.000307	48.7970001698
1020.0	0.000307	48.8440001011
1020.0	0.0003071	48.875
1020.0	0.0003071	48.9220001698
1020.0	0.000307	48.9690001011
1020.0	0.0003068	49.0
1020.0	0.0003066	49.0470001698
1020.0	0.0003068	49.0940001011
1020.0	0.000307	49.125
1020.0	0.0003071	49.1720001698
1020.0	0.0003072	49.2030000687
1020.0	0.0003077	49.25
1020.0	0.0003081	49.2970001698
1020.0	0.0003078	49.3280000687
1020.0	0.0003076	49.375
1020.0	0.0003075	49.4220001698
1020.0	0.0003075	49.4530000687
1020.0	0.0003075	49.5
1020.0	0.0003075	49.5310001373
1020.0	0.0003071	49.5780000687
1020.0	0.000307	49.625
1030.0	0.0003156	49.9060001373
1030.0	0.0003181	49.9370000362
1030.0	0.0003201	49.9839999676
1030.0	0.0003218	50.0310001373
1030.0	0.0003231	50.0620000362
1030.0	0.0003238	50.1089999676
1030.0	0.0003245	50.1560001373
1030.0	0.0003251	50.1870000362
1030.0	0.0003255	50.2339999676
1030.0	0.0003255	50.2660000324
1030.0	0.0003255	50.3120000362
1030.0	0.0003255	50.3589999676
1030.0	0.0003255	50.3910000324
1030.0	0.0003256	50.4370000362
1030.0	0.0003258	50.4839999676
1030.0	0.0003255	50.5160000324
1030.0	0.000325	50.5620000362
1030.0	0.000325	50.6089999676
1030.0	0.0003248	50.6410000324
1030.0	0.0003248	50.6870000362
1030.0	0.000325	50.7190001011
1030.0	0.0003252	50.7660000324
1030.0	0.0003257	50.8120000362
1030.0	0.0003262	50.8440001011
1030.0	0.0003265	50.8910000324
1030.0	0.0003263	50.9370000362
1030.0	0.0003263	50.9690001011
1030.0	0.0003265	51.0160000324
1030.0	0.0003263	51.0470001698
1030.0	0.0003258	51.0940001011
1030.0	0.0003262	51.1410000324
1030.0	0.0003262	51.1720001698
1030.0	0.0003262	51.2190001011
1030.0	0.0003262	51.2660000324
1030.0	0.0003262	51.2970001698
1030.0	0.0003258	51.3440001011
1030.0	0.0003261	51.375
1040.0	0.0003338	51.6560001373
1040.0	0.0003361	51.7030000687
1040.0	0.0003382	51.75
1040.0	0.00034	51.7810001373
1040.0	0.0003418	51.8280000687
1040.0	0.0003432	51.8589999676
1040.0	0.000344	51.9060001373
1040.0	0.0003446	51.9530000687
1040.0	0.0003451	51.9839999676
1040.0	0.0003451	52.0310001373
1040.0	0.0003451	52.0780000687
1040.0	0.0003451	52.1089999676
1040.0	0.0003451	52.1560001373
1040.0	0.000345	52.2030000687
1040.0	0.0003455	52.2339999676
1040.0	0.0003458	52.2810001373
1040.0	0.0003463	52.3120000362
1040.0	0.0003467	52.3589999676
1040.0	0.0003468	52.4060001373
1040.0	0.000347	52.4370000362
1040.0	0.000347	52.4839999676
1040.0	0.000347	52.5160000324
1040.0	0.000347	52.5620000362
1040.0	0.000347	52.6089999676
1040.0	0.0003468	52.6410000324
1040.0	0.0003465	52.6870000362
1040.0	0.0003465	52.7339999676
1040.0	0.0003468	52.7660000324
1040.0	0.0003465	52.8120000362
1040.0	0.0003461	52.8589999676
1040.0	0.0003456	52.8910000324
1040.0	0.0003456	52.9370000362
1040.0	0.0003458	52.9690001011
1040.0	0.0003461	53.0160000324
1040.0	0.0003461	53.0620000362
1040.0	0.0003457	53.0940001011
1040.0	0.0003455	53.1410000324
1050.0	0.000353	53.4220001698
1050.0	0.0003561	53.4690001011
1050.0	0.0003586	53.5
1050.0	0.0003607	53.5470001698
1050.0	0.0003625	53.5940001011
1050.0	0.0003637	53.625
1050.0	0.0003643	53.6720001698
1050.0	0.0003645	53.7190001011
1050.0	0.0003645	53.75
1050.0	0.0003645	53.7970001698
1050.0	0.0003648	53.8280000687
1050.0	0.0003651	53.875
1050.0	0.0003655	53.9220001698
1050.0	0.0003658	53.9530000687
1050.0	0.0003665	54.0
1050.0	0.0003668	54.0470001698
1050.0	0.0003667	54.0780000687
1050.0	0.0003662	54.125
1050.0	0.0003661	54.1560001373
1050.0	0.0003656	54.2030000687
1050.0	0.0003652	54.25
1050.0	0.0003646	54.2810001373
1050.0	0.0003642	54.3280000687
1050.0	0.000364	54.375
1050.0	0.0003642	54.4060001373
1050.0	0.0003645	54.4530000687
1050.0	0.0003646	54.4839999676
1050.0	0.0003646	54.5310001373
1050.0	0.0003645	54.5780000687
1050.0	0.0003645	54.6089999676
1050.0	0.0003646	54.6560001373
1050.0	0.0003648	54.7030000687
1050.0	0.000365	54.7339999676
1050.0	0.0003655	54.7810001373
1050.0	0.0003657	54.8280000687
1050.0	0.0003655	54.8589999676
1050.0	0.0003655	54.9060001373
1060.0	0.0003731	55.1870000362
1060.0	0.0003756	55.2190001011
1060.0	0.0003777	55.2660000324
1060.0	0.0003798	55.2970001698
1060.0	0.0003813	55.3440001011
1060.0	0.0003827	55.3910000324
1060.0	0.0003838	55.4220001698
1060.0	0.0003843	55.4690001011
1060.0	0.0003846	55.5160000324
1060.0	0.0003846	55.5470001698
1060.0	0.000385	55.5940001011
1060.0	0.0003851	55.6410000324
1060.0	0.0003855	55.6720001698
1060.0	0.0003855	55.7190001011
1060.0	0.0003855	55.75
1060.0	0.0003855	55.7970001698
1060.0	0.0003856	55.8440001011
1060.0	0.0003858	55.875
1060.0	0.0003858	55.9220001698
1060.0	0.0003856	55.9690001011
1060.0	0.0003851	56.0
1060.0	0.0003848	56.0470001698
1060.0	0.0003842	56.0780000687
1060.0	0.0003843	56.125
1060.0	0.0003843	56.1720001698
1060.0	0.000384	56.2030000687
1060.0	0.0003843	56.25
1060.0	0.0003848	56.2970001698
1060.0	0.000385	56.3280000687
1060.0	0.0003855	56.375
1060.0	0.0003856	56.4060001373
1060.0	0.0003855	56.4530000687
1060.0	0.0003852	56.5
1060.0	0.0003851	56.5310001373
1060.0	0.0003848	56.5780000687
1060.0	0.0003845	56.625
1060.0	0.0003842	56.6560001373
1070.0	0.0003913	56.9370000362
1070.0	0.0003942	56.9839999676
1070.0	0.0003958	57.0160000324
1070.0	0.0003975	57.0620000362
1070.0	0.0003987	57.1089999676
1070.0	0.0003995	57.1410000324
1070.0	0.0004002	57.1870000362
1070.0	0.0004008	57.2190001011
1070.0	0.0004013	57.2660000324
1070.0	0.000402	57.3120000362
1070.0	0.0004021	57.3440001011
1070.0	0.000402	57.3910000324
1070.0	0.0004017	57.4370000362
1070.0	0.000402	57.4690001011
1070.0	0.0004023	57.5160000324
1070.0	0.0004026	57.5620000362
1070.0	0.0004031	57.5940001011
1070.0	0.0004031	57.6410000324
1070.0	0.0004032	57.6720001698
1070.0	0.0004036	57.7190001011
1070.0	0.0004037	57.7660000324
1070.0	0.0004032	57.7970001698
1070.0	0.000403	57.8440001011
1070.0	0.000403	57.8910000324
1070.0	0.000403	57.9220001698
1070.0	0.0004031	57.9690001011
1070.0	0.0004032	58.0
1070.0	0.0004033	58.0470001698
1070.0	0.0004032	58.0940001011
1070.0	0.0004033	58.125
1070.0	0.000404	58.1720001698
1070.0	0.0004042	58.2190001011
1070.0	0.0004043	58.25
1070.0	0.0004045	58.2970001698
1070.0	0.0004042	58.3280000687
1070.0	0.0004038	58.375
1070.0	0.0004033	58.4220001698
1080.0	0.0004086	58.6870000362
1080.0	0.0004102	58.7339999676
1080.0	0.0004117	58.7810001373
1080.0	0.0004131	58.8120000362
1080.0	0.0004143	58.8589999676
1080.0	0.0004157	58.8910000324
1080.0	0.0004165	58.9370000362
1080.0	0.0004171	58.9839999676
1080.0	0.000418	59.0160000324
1080.0	0.0004183	59.0620000362
1080.0	0.0004188	59.1089999676
1080.0	0.0004192	59.1410000324
1080.0	0.0004193	59.1870000362
1080.0	0.0004198	59.2339999676
1080.0	0.00042	59.2660000324
1080.0	0.0004201	59.3120000362
1080.0	0.0004202	59.3440001011
1080.0	0.0004201	59.3910000324
1080.0	0.00042	59.4370000362
1080.0	0.0004196	59.4690001011
1080.0	0.0004195	59.5160000324
1080.0	0.0004192	59.5620000362
1080.0	0.0004188	59.5940001011
1080.0	0.0004192	59.6410000324
1080.0	0.0004196	59.6720001698
1080.0	0.00042	59.7190001011
1080.0	0.00042	59.7660000324
1080.0	0.00042	59.7970001698
1080.0	0.00042	59.8440001011
1080.0	0.00042	59.8910000324
1080.0	0.00042	59.9220001698
1080.0	0.0004196	59.9690001011
1080.0	0.0004196	60.0
1080.0	0.0004198	60.0470001698
1080.0	0.00042	60.0940001011
1080.0	0.0004198	60.125
1080.0	0.0004198	60.1720001698
1090.0	0.0004251	60.4370000362
1090.0	0.000427	60.4839999676
1090.0	0.0004283	60.5310001373
1090.0	0.0004296	60.5620000362
1090.0	0.0004302	60.6089999676
1090.0	0.0004307	60.6560001373
1090.0	0.0004317	60.6870000362
1090.0	0.0004326	60.7339999676
1090.0	0.0004332	60.7810001373
1090.0	0.0004332	60.8120000362
1090.0	0.0004331	60.8589999676
1090.0	0.0004331	60.8910000324
1090.0	0.000433	60.9370000362
1090.0	0.0004326	60.9839999676
1090.0	0.0004326	61.0160000324
1090.0	0.0004326	61.0620000362
1090.0	0.0004325	61.1089999676
1090.0	0.0004323	61.1410000324
1090.0	0.0004325	61.1870000362
1090.0	0.0004326	61.2339999676
1090.0	0.0004327	61.2660000324
1090.0	0.000433	61.3120000362
1090.0	0.0004327	61.3440001011
1090.0	0.000433	61.3910000324
1090.0	0.0004333	61.4370000362
1090.0	0.0004336	61.4690001011
1090.0	0.0004338	61.5160000324
1090.0	0.0004337	61.5620000362
1090.0	0.0004332	61.5940001011
1090.0	0.0004327	61.6410000324
1090.0	0.0004331	61.6720001698
1090.0	0.0004332	61.7190001011
1090.0	0.0004336	61.7660000324
1090.0	0.0004336	61.7970001698
1090.0	0.0004333	61.8440001011
1090.0	0.0004331	61.8910000324
1090.0	0.0004332	61.9220001698
1100.0	0.000437	62.2030000687
1100.0	0.0004386	62.2339999676
1100.0	0.00044	62.2810001373
1100.0	0.0004406	62.3120000362
1100.0	0.0004412	62.3589999676
1100.0	0.0004418	62.4060001373
1100.0	0.0004417	62.4370000362
1100.0	0.0004415	62.4839999676
1100.0	0.0004415	62.5310001373
1100.0	0.0004415	62.5620000362
1100.0	0.0004415	62.6089999676
1100.0	0.0004418	62.6410000324
1100.0	0.000442	62.6870000362
1100.0	0.0004421	62.7339999676
1100.0	0.0004423	62.7660000324
1100.0	0.0004423	62.8120000362
1100.0	0.0004426	62.8589999676
1100.0	0.000443	62.8910000324
1100.0	0.000443	62.9370000362
1100.0	0.000443	62.9690001011
1100.0	0.0004432	63.0160000324
1100.0	0.0004436	63.0620000362
1100.0	0.0004436	63.0940001011
1100.0	0.0004436	63.1410000324
1100.0	0.0004438	63.1870000362
1100.0	0.000444	63.2190001011
1100.0	0.0004437	63.2660000324
1100.0	0.0004436	63.3120000362
1100.0	0.0004436	63.3440001011
1100.0	0.0004436	63.3910000324
1100.0	0.0004436	63.4220001698
1100.0	0.0004432	63.4690001011
1100.0	0.000443	63.5160000324
1100.0	0.0004432	63.5470001698
1100.0	0.0004438	63.5940001011
1100.0	0.0004438	63.6410000324
1100.0	0.000444	63.6720001698
1110.0	0.0004462	63.9530000687
1110.0	0.0004473	63.9839999676
1110.0	0.0004482	64.0310001373
1110.0	0.0004493	64.0620000362
1110.0	0.0004498	64.1089999676
1110.0	0.0004501	64.1560001373
1110.0	0.0004502	64.1870000362
1110.0	0.0004498	64.2339999676
1110.0	0.0004495	64.2810001373
1110.0	0.0004495	64.3120000362
1110.0	0.0004495	64.3589999676
1110.0	0.0004495	64.3910000324
1110.0	0.0004496	64.4370000362
1110.0	0.0004496	64.4839999676
1110.0	0.0004496	64.5160000324
1110.0	0.0004498	64.5620000362
1110.0	0.0004498	64.6089999676
1110.0	0.0004496	64.6410000324
1110.0	0.0004498	64.6870000362
1110.0	0.0004498	64.7190001011
1110.0	0.0004498	64.7660000324
1110.0	0.0004498	64.8120000362
1110.0	0.0004501	64.8440001011
1110.0	0.0004501	64.8910000324
1110.0	0.00045	64.9370000362
1110.0	0.0004501	64.9690001011
1110.0	0.0004502	65.0160000324
1110.0	0.0004501	65.0620000362
1110.0	0.0004501	65.0940001011
1110.0	0.0004502	65.1410000324
1110.0	0.0004505	65.1720001698
1110.0	0.0004505	65.2190001011
1110.0	0.0004508	65.2660000324
1110.0	0.0004511	65.2970001698
1110.0	0.0004511	65.3440001011
1110.0	0.0004512	65.3910000324
1110.0	0.0004508	65.4220001698
1120.0	0.000453	65.6870000362
1120.0	0.0004533	65.7339999676
1120.0	0.0004537	65.7810001373
1120.0	0.0004538	65.8120000362
1120.0	0.000454	65.8589999676
1120.0	0.000454	65.8910000324
1120.0	0.000454	65.9370000362
1120.0	0.0004538	65.9839999676
1120.0	0.0004533	66.0160000324
1120.0	0.0004533	66.0620000362
1120.0	0.0004538	66.1089999676
1120.0	0.0004542	66.1410000324
1120.0	0.0004542	66.1870000362
1120.0	0.0004543	66.2190001011
1120.0	0.0004543	66.2660000324
1120.0	0.0004542	66.3120000362
1120.0	0.0004542	66.3440001011
1120.0	0.0004545	66.3910000324
1120.0	0.000455	66.4370000362
1120.0	0.0004551	66.4690001011
1120.0	0.000455	66.5160000324
1120.0	0.000455	66.5470001698
1120.0	0.0004551	66.5940001011
1120.0	0.0004555	66.6410000324
1120.0	0.0004555	66.6720001698
1120.0	0.0004555	66.7190001011
1120.0	0.0004555	66.7660000324
1120.0	0.0004555	66.7970001698
1120.0	0.0004548	66.8440001011
1120.0	0.000455	66.875
1120.0	0.000455	66.9220001698
1120.0	0.0004548	66.9690001011
1120.0	0.0004548	67.0
1120.0	0.0004548	67.0470001698
1120.0	0.0004548	67.0940001011
1120.0	0.0004545	67.125
1120.0	0.0004545	67.1720001698
1130.0	0.0004548	67.4370000362
1130.0	0.0004551	67.4839999676
1130.0	0.0004556	67.5160000324
1130.0	0.0004561	67.5620000362
1130.0	0.0004567	67.5940001011
1130.0	0.000457	67.6410000324
1130.0	0.000457	67.6870000362
1130.0	0.000457	67.7190001011
1130.0	0.0004575	67.7660000324
1130.0	0.0004577	67.8120000362
1130.0	0.0004576	67.8440001011
1130.0	0.0004576	67.8910000324
1130.0	0.0004573	67.9370000362
1130.0	0.000457	67.9690001011
1130.0	0.0004571	68.0160000324
1130.0	0.0004571	68.0470001698
1130.0	0.0004567	68.0940001011
1130.0	0.0004568	68.1410000324
1130.0	0.0004571	68.1720001698
1130.0	0.000457	68.2190001011
1130.0	0.0004571	68.2660000324
1130.0	0.000457	68.2970001698
1130.0	0.0004568	68.3440001011
1130.0	0.0004567	68.375
1130.0	0.0004565	68.4220001698
1130.0	0.0004561	68.4690001011
1130.0	0.0004557	68.5
1130.0	0.0004557	68.5470001698
1130.0	0.0004562	68.5940001011
1130.0	0.0004563	68.625
1130.0	0.0004563	68.6720001698
1130.0	0.0004565	68.7030000687
1130.0	0.0004567	68.75
1130.0	0.000457	68.7970001698
1130.0	0.0004571	68.8280000687
1130.0	0.0004571	68.875
1130.0	0.0004571	68.9220001698
1140.0	0.0004558	69.1870000362
1140.0	0.0004557	69.2190001011
1140.0	0.0004557	69.2660000324
1140.0	0.0004558	69.3120000362
1140.0	0.0004557	69.3440001011
1140.0	0.0004561	69.3910000324
1140.0	0.0004563	69.4220001698
1140.0	0.0004565	69.4690001011
1140.0	0.0004565	69.5160000324
1140.0	0.0004567	69.5470001698
1140.0	0.0004567	69.5940001011
1140.0	0.0004573	69.6410000324
1140.0	0.0004581	69.6720001698
1140.0	0.0004583	69.7190001011
1140.0	0.0004582	69.75
1140.0	0.0004582	69.7970001698
1140.0	0.0004581	69.8440001011
1140.0	0.0004576	69.875
1140.0	0.0004575	69.9220001698
1140.0	0.0004576	69.9690001011
1140.0	0.0004576	70.0
1140.0	0.0004576	70.0470001698
1140.0	0.000458	70.0940001011
1140.0	0.000458	70.125
1140.0	0.0004577	70.1720001698
1140.0	0.0004576	70.2030000687
1140.0	0.0004575	70.25
1140.0	0.0004575	70.2970001698
1140.0	0.0004573	70.3280000687
1140.0	0.0004576	70.375
1140.0	0.0004576	70.4220001698
1140.0	0.000458	70.4530000687
1140.0	0.000458	70.5
1140.0	0.0004573	70.5310001373
1140.0	0.000457	70.5780000687
1140.0	0.000457	70.625
1140.0	0.0004567	70.6560001373
1150.0	0.0004568	70.9220001698
1150.0	0.0004567	70.9690001011
1150.0	0.0004565	71.0
1150.0	0.0004561	71.0470001698
1150.0	0.0004561	71.0940001011
1150.0	0.0004561	71.125
1150.0	0.0004557	71.1720001698
1150.0	0.0004558	71.2190001011
1150.0	0.0004562	71.25
1150.0	0.0004565	71.2970001698
1150.0	0.0004567	71.3280000687
1150.0	0.000457	71.375
1150.0	0.000457	71.4220001698
1150.0	0.0004567	71.4530000687
1150.0	0.0004567	71.5
1150.0	0.0004563	71.5470001698
1150.0	0.0004561	71.5780000687
1150.0	0.0004561	71.625
1150.0	0.0004563	71.6560001373
1150.0	0.0004562	71.7030000687
1150.0	0.0004561	71.75
1150.0	0.0004558	71.7810001373
1150.0	0.0004557	71.8280000687
1150.0	0.0004556	71.875
1150.0	0.0004555	71.9060001373
1150.0	0.0004555	71.9530000687
1150.0	0.0004557	72.0
1150.0	0.0004563	72.0310001373
1150.0	0.0004563	72.0780000687
1150.0	0.0004562	72.1089999676
1150.0	0.0004563	72.1560001373
1150.0	0.0004563	72.2030000687
1150.0	0.0004561	72.2339999676
1150.0	0.0004558	72.2810001373
1150.0	0.0004556	72.3280000687
1150.0	0.000455	72.3589999676
1150.0	0.0004548	72.4060001373
1160.0	0.0004548	72.6720001698
1160.0	0.0004545	72.7190001011
1160.0	0.0004548	72.75
1160.0	0.0004548	72.7970001698
1160.0	0.0004548	72.8280000687
1160.0	0.0004552	72.875
1160.0	0.000455	72.9220001698
1160.0	0.0004548	72.9530000687
1160.0	0.0004552	73.0
1160.0	0.0004557	73.0470001698
1160.0	0.0004558	73.0780000687
1160.0	0.0004558	73.125
1160.0	0.0004557	73.1560001373
1160.0	0.0004556	73.2030000687
1160.0	0.000455	73.25
1160.0	0.0004545	73.2810001373
1160.0	0.0004538	73.3280000687
1160.0	0.0004533	73.375
1160.0	0.0004532	73.4060001373
1160.0	0.0004533	73.4530000687
1160.0	0.0004536	73.4839999676
1160.0	0.0004538	73.5310001373
1160.0	0.0004542	73.5780000687
1160.0	0.0004545	73.6089999676
1160.0	0.000455	73.6560001373
1160.0	0.0004552	73.7030000687
1160.0	0.0004556	73.7339999676
1160.0	0.0004556	73.7810001373
1160.0	0.0004555	73.8120000362
1160.0	0.0004551	73.8589999676
1160.0	0.0004548	73.9060001373
1160.0	0.0004546	73.9370000362
1160.0	0.0004545	73.9839999676
1160.0	0.0004542	74.0310001373
1160.0	0.000454	74.0620000362
1160.0	0.000454	74.1089999676
1160.0	0.0004537	74.1410000324
1170.0	0.0004548	74.4220001698
1170.0	0.0004545	74.4530000687
1170.0	0.0004542	74.5
1170.0	0.0004538	74.5470001698
1170.0	0.0004536	74.5780000687
1170.0	0.0004532	74.625
1170.0	0.0004537	74.6720001698
1170.0	0.0004537	74.7030000687
1170.0	0.0004533	74.75
1170.0	0.0004531	74.7970001698
1170.0	0.0004531	74.8280000687
1170.0	0.0004532	74.875
1170.0	0.0004536	74.9060001373
1170.0	0.0004542	74.9530000687
1170.0	0.0004542	75.0
1170.0	0.0004542	75.0310001373
1170.0	0.0004542	75.0780000687
1170.0	0.0004538	75.125
1170.0	0.0004532	75.1560001373
1170.0	0.0004532	75.2030000687
1170.0	0.000453	75.2339999676
1170.0	0.0004527	75.2810001373
1170.0	0.0004525	75.3280000687
1170.0	0.0004523	75.3589999676
1170.0	0.0004521	75.4060001373
1170.0	0.0004523	75.4530000687
1170.0	0.000453	75.4839999676
1170.0	0.000453	75.5310001373
1170.0	0.0004531	75.5620000362
1170.0	0.000453	75.6089999676
1170.0	0.000453	75.6560001373
1170.0	0.0004527	75.6870000362
1170.0	0.0004527	75.7339999676
1170.0	0.0004527	75.7810001373
1170.0	0.0004527	75.8120000362
1170.0	0.000453	75.8589999676
1170.0	0.000453	75.8910000324
1180.0	0.0004537	76.1720001698
1180.0	0.0004543	76.2030000687
1180.0	0.0004545	76.25
1180.0	0.0004548	76.2970001698
1180.0	0.0004551	76.3280000687
1180.0	0.000455	76.375
1180.0	0.0004548	76.4220001698
1180.0	0.0004548	76.4530000687
1180.0	0.0004545	76.5
1180.0	0.0004542	76.5470001698
1180.0	0.000455	76.5780000687
1180.0	0.0004555	76.625
1180.0	0.0004551	76.6560001373
1180.0	0.0004548	76.7030000687
1180.0	0.0004545	76.75
1180.0	0.0004542	76.7810001373
1180.0	0.0004538	76.8280000687
1180.0	0.0004542	76.875
1180.0	0.0004538	76.9060001373
1180.0	0.0004538	76.9530000687
1180.0	0.0004537	76.9839999676
1180.0	0.0004536	77.0310001373
1180.0	0.0004533	77.0780000687
1180.0	0.0004538	77.1089999676
1180.0	0.0004543	77.1560001373
1180.0	0.0004548	77.2030000687
1180.0	0.0004551	77.2339999676
1180.0	0.000455	77.2810001373
1180.0	0.0004545	77.3120000362
1180.0	0.0004545	77.3589999676
1180.0	0.0004545	77.4060001373
1180.0	0.0004543	77.4370000362
1180.0	0.0004543	77.4839999676
1180.0	0.0004548	77.5310001373
1180.0	0.0004546	77.5620000362
1180.0	0.0004543	77.6089999676
1180.0	0.0004546	77.6410000324
1190.0	0.0004551	77.9220001698
1190.0	0.0004558	77.9530000687
1190.0	0.0004562	78.0
1190.0	0.0004562	78.0470001698
1190.0	0.0004563	78.0780000687
1190.0	0.0004563	78.125
1190.0	0.0004562	78.1720001698
1190.0	0.0004563	78.2030000687
1190.0	0.0004568	78.25
1190.0	0.000457	78.2810001373
1190.0	0.0004571	78.3280000687
1190.0	0.0004573	78.375
1190.0	0.000457	78.4060001373
1190.0	0.0004567	78.4530000687
1190.0	0.0004567	78.5
1190.0	0.0004565	78.5310001373
1190.0	0.0004563	78.5780000687
1190.0	0.0004563	78.625
1190.0	0.0004562	78.6560001373
1190.0	0.0004561	78.7030000687
1190.0	0.0004562	78.7339999676
1190.0	0.0004563	78.7810001373
1190.0	0.0004565	78.8280000687
1190.0	0.0004563	78.8589999676
1190.0	0.0004565	78.9060001373
1190.0	0.0004563	78.9530000687
1190.0	0.0004562	78.9839999676
1190.0	0.0004562	79.0310001373
1190.0	0.0004561	79.0620000362
1190.0	0.0004563	79.1089999676
1190.0	0.0004565	79.1560001373
1190.0	0.0004568	79.1870000362
1190.0	0.0004568	79.2339999676
1190.0	0.0004568	79.2810001373
1190.0	0.0004568	79.3120000362
1190.0	0.0004567	79.3589999676
1190.0	0.0004563	79.3910000324
1200.0	0.0004581	79.6720001698
1200.0	0.0004583	79.7030000687
1200.0	0.0004592	79.75
1200.0	0.00046	79.7810001373
1200.0	0.0004601	79.8280000687
1200.0	0.0004605	79.875
1200.0	0.0004608	79.9060001373
1200.0	0.0004607	79.9530000687
1200.0	0.0004608	80.0
1200.0	0.0004607	80.0310001373
1200.0	0.0004605	80.0780000687
1200.0	0.0004606	80.1089999676
1200.0	0.0004608	80.1560001373
1200.0	0.0004608	80.2030000687
1200.0	0.0004611	80.2339999676
1200.0	0.0004612	80.2810001373
1200.0	0.0004615	80.3280000687
1200.0	0.0004617	80.3589999676
1200.0	0.0004618	80.4060001373
1200.0	0.000462	80.4370000362
1200.0	0.0004618	80.4839999676
1200.0	0.000462	80.5310001373
1200.0	0.000462	80.5620000362
1200.0	0.000462	80.6089999676
1200.0	0.0004617	80.6560001373
1200.0	0.0004615	80.6870000362
1200.0	0.0004615	80.7339999676
1200.0	0.0004617	80.7660000324
1200.0	0.0004618	80.8120000362
1200.0	0.0004617	80.8589999676
1200.0	0.0004617	80.8910000324
1200.0	0.0004617	80.9370000362
1200.0	0.0004618	80.9839999676
1200.0	0.0004615	81.0160000324
1200.0	0.0004613	81.0620000362
1200.0	0.0004613	81.0940001011
1200.0	0.0004613	81.1410000324
1210.0	0.0004645	81.4220001698
1210.0	0.0004652	81.4530000687
1210.0	0.0004658	81.5
1210.0	0.0004667	81.5310001373
1210.0	0.000467	81.5780000687
1210.0	0.000467	81.625
1210.0	0.000467	81.6560001373
1210.0	0.0004675	81.7030000687
1210.0	0.0004676	81.75
1210.0	0.0004676	81.7810001373
1210.0	0.000468	81.8280000687
1210.0	0.000468	81.8589999676
1210.0	0.000468	81.9060001373
1210.0	0.000468	81.9530000687
1210.0	0.0004676	81.9839999676
1210.0	0.0004677	82.0310001373
1210.0	0.0004675	82.0780000687
1210.0	0.0004671	82.1089999676
1210.0	0.0004671	82.1560001373
1210.0	0.000467	82.1870000362
1210.0	0.000467	82.2339999676
1210.0	0.0004668	82.2810001373
1210.0	0.0004671	82.3120000362
1210.0	0.0004673	82.3589999676
1210.0	0.000467	82.4060001373
1210.0	0.000467	82.4370000362
1210.0	0.0004671	82.4839999676
1210.0	0.0004673	82.5160000324
1210.0	0.0004671	82.5620000362
1210.0	0.000467	82.6089999676
1210.0	0.0004671	82.6410000324
1210.0	0.0004676	82.6870000362
1210.0	0.0004682	82.7339999676
1210.0	0.0004682	82.7660000324
1210.0	0.0004683	82.8120000362
1210.0	0.0004687	82.8440001011
1210.0	0.0004687	82.8910000324
1220.0	0.0004705	83.1560001373
1220.0	0.0004713	83.2030000687
1220.0	0.0004718	83.25
1220.0	0.0004726	83.2810001373
1220.0	0.000473	83.3280000687
1220.0	0.0004732	83.3589999676
1220.0	0.0004737	83.4060001373
1220.0	0.0004743	83.4530000687
1220.0	0.0004745	83.4839999676
1220.0	0.0004748	83.5310001373
1220.0	0.0004748	83.5780000687
1220.0	0.000475	83.6089999676
1220.0	0.0004746	83.6560001373
1220.0	0.0004745	83.6870000362
1220.0	0.0004745	83.7339999676
1220.0	0.0004743	83.7810001373
1220.0	0.0004738	83.8120000362
1220.0	0.000474	83.8589999676
1220.0	0.0004742	83.9060001373
1220.0	0.000474	83.9370000362
1220.0	0.0004745	83.9839999676
1220.0	0.000475	84.0160000324
1220.0	0.0004752	84.0620000362
1220.0	0.0004751	84.1089999676
1220.0	0.0004748	84.1410000324
1220.0	0.0004746	84.1870000362
1220.0	0.0004745	84.2339999676
1220.0	0.0004743	84.2660000324
1220.0	0.0004746	84.3120000362
1220.0	0.0004751	84.3440001011
1220.0	0.0004755	84.3910000324
1220.0	0.0004757	84.4370000362
1220.0	0.0004758	84.4690001011
1220.0	0.0004762	84.5160000324
1220.0	0.0004762	84.5620000362
1220.0	0.0004758	84.5940001011
1220.0	0.0004761	84.6410000324
1230.0	0.0004793	84.9060001373
1230.0	0.0004801	84.9530000687
1230.0	0.0004812	84.9839999676
1230.0	0.000482	85.0310001373
1230.0	0.0004825	85.0620000362
1230.0	0.0004826	85.1089999676
1230.0	0.0004826	85.1560001373
1230.0	0.0004826	85.1870000362
1230.0	0.0004827	85.2339999676
1230.0	0.000483	85.2810001373
1230.0	0.0004831	85.3120000362
1230.0	0.0004832	85.3589999676
1230.0	0.0004836	85.3910000324
1230.0	0.0004836	85.4370000362
1230.0	0.0004833	85.4839999676
1230.0	0.0004837	85.5160000324
1230.0	0.0004838	85.5620000362
1230.0	0.0004837	85.6089999676
1230.0	0.0004837	85.6410000324
1230.0	0.0004837	85.6870000362
1230.0	0.0004837	85.7190001011
1230.0	0.0004837	85.7660000324
1230.0	0.0004837	85.8120000362
1230.0	0.0004837	85.8440001011
1230.0	0.0004837	85.8910000324
1230.0	0.0004836	85.9370000362
1230.0	0.0004832	85.9690001011
1230.0	0.0004827	86.0160000324
1230.0	0.000483	86.0620000362
1230.0	0.0004831	86.0940001011
1230.0	0.0004826	86.1410000324
1230.0	0.0004827	86.1720001698
1230.0	0.0004826	86.2190001011
1230.0	0.0004826	86.2660000324
1230.0	0.000483	86.2970001698
1230.0	0.0004832	86.3440001011
1230.0	0.0004832	86.3910000324
1240.0	0.0004873	86.6410000324
1240.0	0.0004888	86.6870000362
1240.0	0.0004898	86.7339999676
1240.0	0.0004906	86.7660000324
1240.0	0.0004911	86.8120000362
1240.0	0.0004913	86.8589999676
1240.0	0.0004915	86.8910000324
1240.0	0.0004915	86.9370000362
1240.0	0.0004913	86.9690001011
1240.0	0.0004911	87.0160000324
1240.0	0.0004917	87.0620000362
1240.0	0.0004918	87.0940001011
1240.0	0.0004918	87.1410000324
1240.0	0.0004918	87.1870000362
1240.0	0.000492	87.2190001011
1240.0	0.0004921	87.2660000324
1240.0	0.0004923	87.2970001698
1240.0	0.0004923	87.3440001011
1240.0	0.0004926	87.3910000324
1240.0	0.0004931	87.4220001698
1240.0	0.0004936	87.4690001011
1240.0	0.0004938	87.5160000324
1240.0	0.000494	87.5470001698
1240.0	0.000494	87.5940001011
1240.0	0.0004932	87.625
1240.0	0.0004932	87.6720001698
1240.0	0.0004932	87.7190001011
1240.0	0.0004932	87.75
1240.0	0.0004932	87.7970001698
1240.0	0.0004932	87.8440001011
1240.0	0.000493	87.875
1240.0	0.0004925	87.9220001698
1240.0	0.0004921	87.9690001011
1240.0	0.000492	88.0
1240.0	0.0004917	88.0470001698
1240.0	0.0004915	88.0780000687
1240.0	0.0004917	88.125
1250.0	0.0004956	88.3910000324
1250.0	0.000497	88.4370000362
1250.0	0.0004981	88.4690001011
1250.0	0.000499	88.5160000324
1250.0	0.0004995	88.5620000362
1250.0	0.0005005	88.5940001011
1250.0	0.0005008	88.6410000324
1250.0	0.0005011	88.6720001698
1250.0	0.0005011	88.7190001011
1250.0	0.0005008	88.7660000324
1250.0	0.0005006	88.7970001698
1250.0	0.0005006	88.8440001011
1250.0	0.0005005	88.8910000324
1250.0	0.0005001	88.9220001698
1250.0	0.0005005	88.9690001011
1250.0	0.0005007	89.0160000324
1250.0	0.0005006	89.0470001698
1250.0	0.0005005	89.0940001011
1250.0	0.0005005	89.125
1250.0	0.0005	89.1720001698
1250.0	0.0004996	89.2190001011
1250.0	0.0004995	89.25
1250.0	0.0004995	89.2970001698
1250.0	0.0004995	89.3440001011
1250.0	0.0005	89.375
1250.0	0.0005002	89.4220001698
1250.0	0.0005002	89.4530000687
1250.0	0.0005005	89.5
1250.0	0.0005007	89.5470001698
1250.0	0.0005005	89.5780000687
1250.0	0.0005005	89.625
1250.0	0.0005006	89.6720001698
1250.0	0.0005011	89.7030000687
1250.0	0.0005013	89.75
1250.0	0.0005013	89.7970001698
1250.0	0.0005018	89.8280000687
1250.0	0.0005017	89.875
1260.0	0.0005033	90.1410000324
1260.0	0.0005042	90.1720001698
1260.0	0.0005055	90.2190001011
1260.0	0.0005067	90.25
1260.0	0.000507	90.2970001698
1260.0	0.0005075	90.3440001011
1260.0	0.0005077	90.375
1260.0	0.0005081	90.4220001698
1260.0	0.0005081	90.4690001011
1260.0	0.0005082	90.5
1260.0	0.0005082	90.5470001698
1260.0	0.000508	90.5780000687
1260.0	0.0005076	90.625
1260.0	0.0005075	90.6720001698
1260.0	0.0005076	90.7030000687
1260.0	0.0005076	90.75
1260.0	0.0005075	90.7970001698
1260.0	0.0005071	90.8280000687
1260.0	0.0005071	90.875
1260.0	0.0005073	90.9220001698
1260.0	0.0005076	90.9530000687
1260.0	0.0005075	91.0
1260.0	0.0005075	91.0310001373
1260.0	0.0005076	91.0780000687
1260.0	0.0005076	91.125
1260.0	0.0005075	91.1560001373
1260.0	0.0005076	91.2030000687
1260.0	0.0005076	91.25
1260.0	0.0005076	91.2810001373
1260.0	0.0005077	91.3280000687
1260.0	0.0005077	91.3589999676
1260.0	0.0005077	91.4060001373
1260.0	0.0005077	91.4530000687
1260.0	0.000508	91.4839999676
1260.0	0.0005081	91.5310001373
1260.0	0.0005081	91.5780000687
1260.0	0.0005082	91.6089999676
1270.0	0.0005102	91.875
1270.0	0.0005113	91.9220001698
1270.0	0.0005118	91.9690001011
1270.0	0.0005123	92.0
1270.0	0.000513	92.0470001698
1270.0	0.0005131	92.0780000687
1270.0	0.000513	92.125
1270.0	0.0005131	92.1720001698
1270.0	0.0005136	92.2030000687
1270.0	0.0005133	92.25
1270.0	0.0005132	92.2970001698
1270.0	0.0005131	92.3280000687
1270.0	0.000513	92.375
1270.0	0.000513	92.4060001373
1270.0	0.0005131	92.4530000687
1270.0	0.0005131	92.5
1270.0	0.0005132	92.5310001373
1270.0	0.0005137	92.5780000687
1270.0	0.000514	92.625
1270.0	0.0005138	92.6560001373
1270.0	0.0005138	92.7030000687
1270.0	0.0005138	92.75
1270.0	0.0005133	92.7810001373
1270.0	0.0005131	92.8280000687
1270.0	0.000513	92.8589999676
1270.0	0.000513	92.9060001373
1270.0	0.000513	92.9530000687
1270.0	0.0005131	92.9839999676
1270.0	0.0005131	93.0310001373
1270.0	0.000513	93.0780000687
1270.0	0.000513	93.1089999676
1270.0	0.0005132	93.1560001373
1270.0	0.0005137	93.1870000362
1270.0	0.0005137	93.2339999676
1270.0	0.0005136	93.2810001373
1270.0	0.0005131	93.3120000362
1270.0	0.0005132	93.3589999676
1280.0	0.0005148	93.625
1280.0	0.0005151	93.6560001373
1280.0	0.0005157	93.7030000687
1280.0	0.0005165	93.75
1280.0	0.0005168	93.7810001373
1280.0	0.0005167	93.8280000687
1280.0	0.0005168	93.875
1280.0	0.000517	93.9060001373
1280.0	0.000517	93.9530000687
1280.0	0.000517	93.9839999676
1280.0	0.000517	94.0310001373
1280.0	0.0005171	94.0780000687
1280.0	0.0005175	94.1089999676
1280.0	0.0005176	94.1560001373
1280.0	0.0005175	94.2030000687
1280.0	0.0005171	94.2339999676
1280.0	0.000517	94.2810001373
1280.0	0.0005167	94.3120000362
1280.0	0.0005167	94.3589999676
1280.0	0.0005168	94.4060001373
1280.0	0.0005167	94.4370000362
1280.0	0.0005168	94.4839999676
1280.0	0.0005171	94.5310001373
1280.0	0.0005171	94.5620000362
1280.0	0.000517	94.6089999676
1280.0	0.0005168	94.6410000324
1280.0	0.0005168	94.6870000362
1280.0	0.0005167	94.7339999676
1280.0	0.000517	94.7660000324
1280.0	0.0005171	94.8120000362
1280.0	0.0005173	94.8589999676
1280.0	0.0005173	94.8910000324
1280.0	0.0005171	94.9370000362
1280.0	0.000517	94.9690001011
1280.0	0.0005165	95.0160000324
1280.0	0.0005165	95.0620000362
1280.0	0.0005165	95.0940001011
1290.0	0.0005176	95.3589999676
1290.0	0.0005177	95.4060001373
1290.0	0.0005173	95.4530000687
1290.0	0.0005173	95.4839999676
1290.0	0.0005176	95.5310001373
1290.0	0.0005181	95.5780000687
1290.0	0.0005181	95.6089999676
1290.0	0.0005181	95.6560001373
1290.0	0.0005181	95.7030000687
1290.0	0.0005177	95.7339999676
1290.0	0.0005181	95.7810001373
1290.0	0.000518	95.8120000362
1290.0	0.0005176	95.8589999676
1290.0	0.0005176	95.9060001373
1290.0	0.000518	95.9370000362
1290.0	0.000518	95.9839999676
1290.0	0.0005181	96.0160000324
1290.0	0.0005182	96.0620000362
1290.0	0.0005182	96.1089999676
1290.0	0.0005182	96.1410000324
1290.0	0.0005181	96.1870000362
1290.0	0.0005175	96.2339999676
1290.0	0.0005171	96.2660000324
1290.0	0.000517	96.3120000362
1290.0	0.0005175	96.3589999676
1290.0	0.0005177	96.3910000324
1290.0	0.0005177	96.4370000362
1290.0	0.0005176	96.4690001011
1290.0	0.000517	96.5160000324
1290.0	0.000517	96.5620000362
1290.0	0.0005168	96.5940001011
1290.0	0.0005168	96.6410000324
1290.0	0.0005168	96.6870000362
1290.0	0.0005168	96.7190001011
1290.0	0.0005171	96.7660000324
1290.0	0.0005173	96.7970001698
1290.0	0.0005176	96.8440001011
1300.0	0.0005171	97.1089999676
1300.0	0.0005168	97.1560001373
1300.0	0.0005165	97.1870000362
1300.0	0.0005161	97.2339999676
1300.0	0.0005155	97.2810001373
1300.0	0.0005155	97.3120000362
1300.0	0.0005151	97.3589999676
1300.0	0.0005152	97.4060001373
1300.0	0.0005156	97.4370000362
1300.0	0.0005156	97.4839999676
1300.0	0.0005157	97.5160000324
1300.0	0.0005157	97.5620000362
1300.0	0.0005156	97.6089999676
1300.0	0.0005151	97.6410000324
1300.0	0.000515	97.6870000362
1300.0	0.0005155	97.7339999676
1300.0	0.0005157	97.7660000324
1300.0	0.0005155	97.8120000362
1300.0	0.0005155	97.8440001011
1300.0	0.0005155	97.8910000324
1300.0	0.0005156	97.9370000362
1300.0	0.0005157	97.9690001011
1300.0	0.0005157	98.0160000324
1300.0	0.0005158	98.0620000362
1300.0	0.0005157	98.0940001011
1300.0	0.0005156	98.1410000324
1300.0	0.0005151	98.1720001698
1300.0	0.0005155	98.2190001011
1300.0	0.0005157	98.2660000324
1300.0	0.0005151	98.2970001698
1300.0	0.000515	98.3440001011
1300.0	0.0005151	98.3910000324
1300.0	0.0005148	98.4220001698
1300.0	0.0005148	98.4690001011
1300.0	0.000515	98.5160000324
1300.0	0.0005146	98.5470001698
1300.0	0.0005143	98.5940001011
1310.0	0.0005123	98.8589999676
1310.0	0.0005113	98.9060001373
1310.0	0.0005102	98.9370000362
1310.0	0.0005096	98.9839999676
1310.0	0.0005088	99.0310001373
1310.0	0.0005082	99.0620000362
1310.0	0.0005081	99.1089999676
1310.0	0.000508	99.1560001373
1310.0	0.0005075	99.1870000362
1310.0	0.0005075	99.2339999676
1310.0	0.0005073	99.2660000324
1310.0	0.0005075	99.3120000362
1310.0	0.0005077	99.3589999676
1310.0	0.0005077	99.3910000324
1310.0	0.0005077	99.4370000362
1310.0	0.000508	99.4839999676
1310.0	0.000508	99.5160000324
1310.0	0.0005077	99.5620000362
1310.0	0.0005081	99.5940001011
1310.0	0.0005083	99.6410000324
1310.0	0.0005082	99.6870000362
1310.0	0.000508	99.7190001011
1310.0	0.0005076	99.7660000324
1310.0	0.0005071	99.8120000362
1310.0	0.000507	99.8440001011
1310.0	0.0005073	99.8910000324
1310.0	0.0005076	99.9220001698
1310.0	0.000508	99.9690001011
1310.0	0.0005082	100.016000032
1310.0	0.0005083	100.04700017
1310.0	0.0005082	100.094000101
1310.0	0.0005082	100.141000032
1310.0	0.0005082	100.17200017
1310.0	0.000508	100.219000101
1310.0	0.0005077	100.266000032
1310.0	0.0005075	100.29700017
1310.0	0.0005071	100.344000101
1320.0	0.0005018	100.608999968
1320.0	0.0005001	100.656000137
1320.0	0.0004988	100.687000036
1320.0	0.000498	100.733999968
1320.0	0.000497	100.781000137
1320.0	0.0004958	100.812000036
1320.0	0.0004951	100.858999968
1320.0	0.000495	100.891000032
1320.0	0.0004948	100.937000036
1320.0	0.0004943	100.983999968
1320.0	0.000494	101.016000032
1320.0	0.0004932	101.062000036
1320.0	0.0004926	101.108999968
1320.0	0.0004925	101.141000032
1320.0	0.0004923	101.187000036
1320.0	0.0004923	101.233999968
1320.0	0.0004925	101.266000032
1320.0	0.0004927	101.312000036
1320.0	0.0004932	101.344000101
1320.0	0.0004937	101.391000032
1320.0	0.0004938	101.437000036
1320.0	0.0004938	101.469000101
1320.0	0.0004938	101.516000032
1320.0	0.0004936	101.562000036
1320.0	0.0004933	101.594000101
1320.0	0.0004933	101.641000032
1320.0	0.0004937	101.67200017
1320.0	0.0004942	101.719000101
1320.0	0.000494	101.766000032
1320.0	0.0004942	101.79700017
1320.0	0.0004943	101.844000101
1320.0	0.0004942	101.891000032
1320.0	0.0004942	101.92200017
1320.0	0.0004942	101.969000101
1320.0	0.0004938	102.0
1320.0	0.0004936	102.04700017
1320.0	0.0004933	102.094000101
1330.0	0.0004857	102.358999968
1330.0	0.000483	102.391000032
1330.0	0.0004802	102.437000036
1330.0	0.0004786	102.483999968
1330.0	0.0004776	102.516000032
1330.0	0.0004767	102.562000036
1330.0	0.0004755	102.608999968
1330.0	0.0004751	102.641000032
1330.0	0.0004748	102.687000036
1330.0	0.0004745	102.719000101
1330.0	0.000474	102.766000032
1330.0	0.0004737	102.812000036
1330.0	0.0004733	102.844000101
1330.0	0.0004731	102.891000032
1330.0	0.000473	102.937000036
1330.0	0.0004731	102.969000101
1330.0	0.000473	103.016000032
1330.0	0.0004725	103.062000036
1330.0	0.0004721	103.094000101
1330.0	0.0004717	103.141000032
1330.0	0.0004713	103.17200017
1330.0	0.0004711	103.219000101
1330.0	0.0004707	103.266000032
1330.0	0.0004707	103.29700017
1330.0	0.0004708	103.344000101
1330.0	0.0004711	103.391000032
1330.0	0.0004711	103.42200017
1330.0	0.0004713	103.469000101
1330.0	0.0004718	103.5
1330.0	0.0004721	103.54700017
1330.0	0.0004726	103.594000101
1330.0	0.0004727	103.625
1330.0	0.0004726	103.67200017
1330.0	0.0004725	103.719000101
1330.0	0.000472	103.75
1330.0	0.0004713	103.79700017
1330.0	0.0004712	103.828000069
1340.0	0.0004613	104.108999968
1340.0	0.000458	104.141000032
1340.0	0.0004556	104.187000036
1340.0	0.0004533	104.233999968
1340.0	0.0004513	104.266000032
1340.0	0.0004498	104.312000036
1340.0	0.0004488	104.358999968
1340.0	0.0004482	104.391000032
1340.0	0.0004477	104.437000036
1340.0	0.0004475	104.469000101
1340.0	0.000447	104.516000032
1340.0	0.0004467	104.562000036
1340.0	0.0004463	104.594000101
1340.0	0.0004461	104.641000032
1340.0	0.0004456	104.687000036
1340.0	0.0004455	104.719000101
1340.0	0.0004451	104.766000032
1340.0	0.0004448	104.812000036
1340.0	0.0004446	104.844000101
1340.0	0.0004443	104.891000032
1340.0	0.000444	104.92200017
1340.0	0.000444	104.969000101
1340.0	0.0004442	105.016000032
1340.0	0.0004445	105.04700017
1340.0	0.0004445	105.094000101
1340.0	0.0004443	105.141000032
1340.0	0.0004438	105.17200017
1340.0	0.0004436	105.219000101
1340.0	0.0004437	105.25
1340.0	0.0004437	105.29700017
1340.0	0.0004436	105.344000101
1340.0	0.0004436	105.375
1340.0	0.0004432	105.42200017
1340.0	0.000443	105.469000101
1340.0	0.000443	105.5
1340.0	0.000443	105.54700017
1340.0	0.0004427	105.578000069
1350.0	0.0004308	105.858999968
1350.0	0.000427	105.891000032
1350.0	0.0004238	105.937000036
1350.0	0.0004212	105.983999968
1350.0	0.0004188	106.016000032
1350.0	0.0004171	106.062000036
1350.0	0.0004162	106.108999968
1350.0	0.0004155	106.141000032
1350.0	0.0004148	106.187000036
1350.0	0.0004142	106.219000101
1350.0	0.0004137	106.266000032
1350.0	0.0004131	106.312000036
1350.0	0.0004126	106.344000101
1350.0	0.000412	106.391000032
1350.0	0.0004117	106.437000036
1350.0	0.0004115	106.469000101
1350.0	0.0004118	106.516000032
1350.0	0.0004117	106.54700017
1350.0	0.0004118	106.594000101
1350.0	0.000412	106.641000032
1350.0	0.000412	106.67200017
1350.0	0.0004117	106.719000101
1350.0	0.0004117	106.766000032
1350.0	0.0004117	106.79700017
1350.0	0.000412	106.844000101
1350.0	0.0004123	106.891000032
1350.0	0.0004126	106.92200017
1350.0	0.0004125	106.969000101
1350.0	0.0004121	107.0
1350.0	0.000412	107.04700017
1350.0	0.0004117	107.094000101
1350.0	0.0004117	107.125
1350.0	0.0004115	107.17200017
1350.0	0.0004113	107.219000101
1350.0	0.0004115	107.25
1350.0	0.0004111	107.29700017
1350.0	0.0004105	107.328000069
1360.0	0.0004017	107.608999968
1360.0	0.0003982	107.641000032
1360.0	0.000395	107.687000036
1360.0	0.000392	107.719000101
1360.0	0.0003898	107.766000032
1360.0	0.0003882	107.812000036
1360.0	0.0003871	107.844000101
1360.0	0.0003868	107.891000032
1360.0	0.0003862	107.937000036
1360.0	0.0003857	107.969000101
1360.0	0.0003855	108.016000032
1360.0	0.0003851	108.04700017
1360.0	0.0003851	108.094000101
1360.0	0.0003851	108.141000032
1360.0	0.0003848	108.17200017
1360.0	0.0003845	108.219000101
1360.0	0.0003842	108.266000032
1360.0	0.0003842	108.29700017
1360.0	0.000384	108.344000101
1360.0	0.0003838	108.375
1360.0	0.0003838	108.42200017
1360.0	0.000384	108.469000101
1360.0	0.0003836	108.5
1360.0	0.0003833	108.54700017
1360.0	0.000383	108.594000101
1360.0	0.0003826	108.625
1360.0	0.000383	108.67200017
1360.0	0.0003836	108.719000101
1360.0	0.0003832	108.75
1360.0	0.0003827	108.79700017
1360.0	0.0003827	108.828000069
1360.0	0.0003821	108.875
1360.0	0.0003817	108.92200017
1360.0	0.0003818	108.953000069
1360.0	0.000382	109.0
1360.0	0.0003823	109.04700017
1360.0	0.0003825	109.078000069
1370.0	0.000373	109.344000101
1370.0	0.0003692	109.391000032
1370.0	0.0003662	109.42200017
1370.0	0.0003638	109.469000101
1370.0	0.0003625	109.516000032
1370.0	0.0003615	109.54700017
1370.0	0.0003602	109.594000101
1370.0	0.0003592	109.641000032
1370.0	0.0003587	109.67200017
1370.0	0.0003582	109.719000101
1370.0	0.0003576	109.766000032
1370.0	0.0003575	109.79700017
1370.0	0.0003576	109.844000101
1370.0	0.0003577	109.875
1370.0	0.0003577	109.92200017
1370.0	0.0003576	109.969000101
1370.0	0.0003573	110.0
1370.0	0.0003571	110.04700017
1370.0	0.0003571	110.094000101
1370.0	0.000357	110.125
1370.0	0.000357	110.17200017
1370.0	0.0003573	110.203000069
1370.0	0.0003575	110.25
1370.0	0.0003575	110.29700017
1370.0	0.0003576	110.328000069
1370.0	0.0003571	110.375
1370.0	0.0003567	110.42200017
1370.0	0.0003567	110.453000069
1370.0	0.0003568	110.5
1370.0	0.000357	110.531000137
1370.0	0.000357	110.578000069
1370.0	0.0003568	110.625
1370.0	0.0003563	110.656000137
1370.0	0.0003561	110.703000069
1370.0	0.0003563	110.75
1370.0	0.0003563	110.781000137
1370.0	0.0003563	110.828000069
1380.0	0.0003475	111.094000101
1380.0	0.0003446	111.125
1380.0	0.0003421	111.17200017
1380.0	0.0003406	111.219000101
1380.0	0.0003395	111.25
1380.0	0.0003386	111.29700017
1380.0	0.0003377	111.328000069
1380.0	0.0003371	111.375
1380.0	0.0003363	111.42200017
1380.0	0.0003361	111.453000069
1380.0	0.0003357	111.5
1380.0	0.0003352	111.54700017
1380.0	0.0003348	111.578000069
1380.0	0.0003345	111.625
1380.0	0.0003345	111.67200017
1380.0	0.0003342	111.703000069
1380.0	0.0003342	111.75
1380.0	0.0003345	111.781000137
1380.0	0.0003345	111.828000069
1380.0	0.0003345	111.875
1380.0	0.0003345	111.906000137
1380.0	0.0003345	111.953000069
1380.0	0.0003346	112.0
1380.0	0.000335	112.031000137
1380.0	0.0003348	112.078000069
1380.0	0.000335	112.108999968
1380.0	0.0003351	112.156000137
1380.0	0.0003348	112.203000069
1380.0	0.0003346	112.233999968
1380.0	0.000335	112.281000137
1380.0	0.0003352	112.312000036
1380.0	0.0003355	112.358999968
1380.0	0.0003355	112.406000137
1380.0	0.0003356	112.437000036
1380.0	0.0003355	112.483999968
1380.0	0.0003352	112.531000137
1380.0	0.0003351	112.562000036
1390.0	0.000328	112.828000069
1390.0	0.0003256	112.875
1390.0	0.0003237	112.92200017
1390.0	0.0003223	112.953000069
1390.0	0.0003212	113.0
1390.0	0.0003206	113.04700017
1390.0	0.0003196	113.078000069
1390.0	0.0003187	113.125
1390.0	0.0003177	113.156000137
1390.0	0.0003171	113.203000069
1390.0	0.0003172	113.25
1390.0	0.0003175	113.281000137
1390.0	0.0003175	113.328000069
1390.0	0.0003171	113.375
1390.0	0.000317	113.406000137
1390.0	0.0003166	113.453000069
1390.0	0.0003163	113.483999968
1390.0	0.0003162	113.531000137
1390.0	0.0003165	113.578000069
1390.0	0.0003168	113.608999968
1390.0	0.0003172	113.656000137
1390.0	0.0003177	113.703000069
1390.0	0.0003178	113.733999968
1390.0	0.0003182	113.781000137
1390.0	0.0003185	113.828000069
1390.0	0.0003183	113.858999968
1390.0	0.0003181	113.906000137
1390.0	0.0003178	113.937000036
1390.0	0.0003176	113.983999968
1390.0	0.0003172	114.031000137
1390.0	0.0003175	114.062000036
1390.0	0.0003181	114.108999968
1390.0	0.0003182	114.156000137
1390.0	0.0003183	114.187000036
1390.0	0.0003183	114.233999968
1390.0	0.0003181	114.266000032
1390.0	0.0003181	114.312000036
1400.0	0.0003122	114.578000069
1400.0	0.0003107	114.625
1400.0	0.0003093	114.656000137
1400.0	0.0003083	114.703000069
1400.0	0.0003072	114.75
1400.0	0.0003065	114.781000137
1400.0	0.0003057	114.828000069
1400.0	0.0003056	114.875
1400.0	0.0003053	114.906000137
1400.0	0.0003053	114.953000069
1400.0	0.0003052	114.983999968
1400.0	0.000305	115.031000137
1400.0	0.0003046	115.078000069
1400.0	0.0003045	115.108999968
1400.0	0.0003045	115.156000137
1400.0	0.0003047	115.203000069
1400.0	0.0003047	115.233999968
1400.0	0.0003045	115.281000137
1400.0	0.0003046	115.312000036
1400.0	0.0003047	115.358999968
1400.0	0.0003046	115.406000137
1400.0	0.000305	115.437000036
1400.0	0.0003053	115.483999968
1400.0	0.0003056	115.531000137
1400.0	0.0003058	115.562000036
1400.0	0.000306	115.608999968
1400.0	0.000306	115.641000032
1400.0	0.0003062	115.687000036
1400.0	0.0003066	115.733999968
1400.0	0.0003068	115.766000032
1400.0	0.0003066	115.812000036
1400.0	0.0003065	115.858999968
1400.0	0.0003066	115.891000032
1400.0	0.0003065	115.937000036
1400.0	0.0003063	115.969000101
1400.0	0.0003063	116.016000032
1400.0	0.0003062	116.062000036
1410.0	0.0003025	116.328000069
1410.0	0.0003015	116.358999968
1410.0	0.0003007	116.406000137
1410.0	0.0003002	116.453000069
1410.0	0.0002997	116.483999968
1410.0	0.0002993	116.531000137
1410.0	0.000299	116.578000069
1410.0	0.0002991	116.608999968
1410.0	0.0002991	116.656000137
1410.0	0.0002993	116.703000069
1410.0	0.0002997	116.733999968
1410.0	0.0003001	116.781000137
1410.0	0.0003001	116.812000036
1410.0	0.0003	116.858999968
1410.0	0.0003001	116.906000137
1410.0	0.0002997	116.937000036
1410.0	0.0003001	116.983999968
1410.0	0.0003001	117.016000032
1410.0	0.0003	117.062000036
1410.0	0.0003	117.108999968
1410.0	0.0002997	117.141000032
1410.0	0.0002996	117.187000036
1410.0	0.0002995	117.233999968
1410.0	0.0002995	117.266000032
1410.0	0.0002991	117.312000036
1410.0	0.000299	117.358999968
1410.0	0.000299	117.391000032
1410.0	0.000299	117.437000036
1410.0	0.000299	117.469000101
1410.0	0.0002995	117.516000032
1410.0	0.0002996	117.562000036
1410.0	0.0002991	117.594000101
1410.0	0.0002991	117.641000032
1410.0	0.000299	117.687000036
1410.0	0.0002987	117.719000101
1410.0	0.0002985	117.766000032
1410.0	0.0002985	117.79700017
1420.0	0.0002988	118.078000069
1420.0	0.0002988	118.108999968
1420.0	0.0002988	118.156000137
1420.0	0.0002983	118.187000036
1420.0	0.0002983	118.233999968
1420.0	0.0002988	118.281000137
1420.0	0.0002985	118.312000036
1420.0	0.0002983	118.358999968
1420.0	0.0002983	118.406000137
1420.0	0.0002982	118.437000036
1420.0	0.0002981	118.483999968
1420.0	0.0002981	118.516000032
1420.0	0.0002977	118.562000036
1420.0	0.0002972	118.608999968
1420.0	0.0002972	118.641000032
1420.0	0.0002975	118.687000036
1420.0	0.0002976	118.733999968
1420.0	0.0002981	118.766000032
1420.0	0.0002983	118.812000036
1420.0	0.0002981	118.844000101
1420.0	0.0002981	118.891000032
1420.0	0.0002981	118.937000036
1420.0	0.0002978	118.969000101
1420.0	0.0002977	119.016000032
1420.0	0.0002976	119.062000036
1420.0	0.0002977	119.094000101
1420.0	0.0002976	119.141000032
1420.0	0.0002977	119.17200017
1420.0	0.0002981	119.219000101
1420.0	0.0002977	119.266000032
1420.0	0.0002975	119.29700017
1420.0	0.0002972	119.344000101
1420.0	0.0002968	119.391000032
1420.0	0.0002965	119.42200017
1420.0	0.0002966	119.469000101
1420.0	0.000297	119.516000032
1420.0	0.0002972	119.54700017
1430.0	0.0003002	119.812000036
1430.0	0.0003006	119.858999968
1430.0	0.000301	119.891000032
1430.0	0.0003016	119.937000036
1430.0	0.0003018	119.983999968
1430.0	0.0003018	120.016000032
1430.0	0.0003018	120.062000036
1430.0	0.000302	120.094000101
1430.0	0.0003015	120.141000032
1430.0	0.0003012	120.187000036
1430.0	0.0003012	120.219000101
1430.0	0.0003012	120.266000032
1430.0	0.0003012	120.312000036
1430.0	0.0003016	120.344000101
1430.0	0.0003016	120.391000032
1430.0	0.0003013	120.42200017
1430.0	0.0003008	120.469000101
1430.0	0.000301	120.516000032
1430.0	0.0003013	120.54700017
1430.0	0.000302	120.594000101
1430.0	0.0003022	120.641000032
1430.0	0.0003022	120.67200017
1430.0	0.0003021	120.719000101
1430.0	0.0003021	120.75
1430.0	0.0003021	120.79700017
1430.0	0.0003022	120.844000101
1430.0	0.0003027	120.875
1430.0	0.0003027	120.92200017
1430.0	0.0003021	120.969000101
1430.0	0.0003022	121.0
1430.0	0.0003022	121.04700017
1430.0	0.0003021	121.078000069
1430.0	0.0003018	121.125
1430.0	0.0003016	121.17200017
1430.0	0.0003015	121.203000069
1430.0	0.0003013	121.25
1430.0	0.0003012	121.29700017
1440.0	0.0003038	121.562000036
1440.0	0.0003047	121.594000101
1440.0	0.0003058	121.641000032
1440.0	0.0003063	121.687000036
1440.0	0.0003068	121.719000101
1440.0	0.000307	121.766000032
1440.0	0.000307	121.79700017
1440.0	0.0003075	121.844000101
1440.0	0.0003077	121.891000032
1440.0	0.0003078	121.92200017
1440.0	0.0003081	121.969000101
1440.0	0.0003081	122.016000032
1440.0	0.0003077	122.04700017
1440.0	0.0003077	122.094000101
1440.0	0.0003082	122.141000032
1440.0	0.0003083	122.17200017
1440.0	0.0003087	122.219000101
1440.0	0.0003083	122.25
1440.0	0.0003082	122.29700017
1440.0	0.0003083	122.344000101
1440.0	0.0003087	122.375
1440.0	0.0003087	122.42200017
1440.0	0.0003085	122.469000101
1440.0	0.0003085	122.5
1440.0	0.0003083	122.54700017
1440.0	0.0003085	122.578000069
1440.0	0.0003081	122.625
1440.0	0.0003081	122.67200017
1440.0	0.0003082	122.703000069
1440.0	0.0003077	122.75
1440.0	0.0003075	122.79700017
1440.0	0.0003075	122.828000069
1440.0	0.000307	122.875
1440.0	0.0003071	122.92200017
1440.0	0.0003071	122.953000069
1440.0	0.0003072	123.0
1440.0	0.0003077	123.031000137
1450.0	0.0003112	123.29700017
1450.0	0.0003121	123.344000101
1450.0	0.0003131	123.391000032
1450.0	0.0003137	123.42200017
1450.0	0.0003141	123.469000101
1450.0	0.0003143	123.516000032
1450.0	0.0003147	123.54700017
1450.0	0.0003152	123.594000101
1450.0	0.0003157	123.625
1450.0	0.0003162	123.67200017
1450.0	0.0003162	123.719000101
1450.0	0.000316	123.75
1450.0	0.000316	123.79700017
1450.0	0.000316	123.844000101
1450.0	0.0003157	123.875
1450.0	0.0003153	123.92200017
1450.0	0.0003151	123.953000069
1450.0	0.0003151	124.0
1450.0	0.000315	124.04700017
1450.0	0.0003152	124.078000069
1450.0	0.0003152	124.125
1450.0	0.0003156	124.17200017
1450.0	0.0003156	124.203000069
1450.0	0.0003152	124.25
1450.0	0.0003153	124.29700017
1450.0	0.0003158	124.328000069
1450.0	0.0003158	124.375
1450.0	0.000316	124.406000137
1450.0	0.0003163	124.453000069
1450.0	0.0003168	124.5
1450.0	0.0003168	124.531000137
1450.0	0.0003168	124.578000069
1450.0	0.0003163	124.625
1450.0	0.0003157	124.656000137
1450.0	0.0003157	124.703000069
1450.0	0.0003158	124.733999968
1450.0	0.0003158	124.781000137
1460.0	0.0003185	125.04700017
1460.0	0.0003193	125.094000101
1460.0	0.00032	125.125
1460.0	0.0003212	125.17200017
1460.0	0.000322	125.219000101
1460.0	0.0003221	125.25
1460.0	0.0003223	125.29700017
1460.0	0.0003221	125.344000101
1460.0	0.0003221	125.375
1460.0	0.000322	125.42200017
1460.0	0.0003218	125.453000069
1460.0	0.0003215	125.5
1460.0	0.0003215	125.54700017
1460.0	0.0003218	125.578000069
1460.0	0.000322	125.625
1460.0	0.000322	125.67200017
1460.0	0.000322	125.703000069
1460.0	0.0003223	125.75
1460.0	0.0003221	125.781000137
1460.0	0.000322	125.828000069
1460.0	0.0003221	125.875
1460.0	0.000322	125.906000137
1460.0	0.0003221	125.953000069
1460.0	0.0003221	126.0
1460.0	0.0003223	126.031000137
1460.0	0.0003227	126.078000069
1460.0	0.0003232	126.125
1460.0	0.0003232	126.156000137
1460.0	0.0003232	126.203000069
1460.0	0.000323	126.233999968
1460.0	0.0003226	126.281000137
1460.0	0.0003221	126.328000069
1460.0	0.000322	126.358999968
1460.0	0.000322	126.406000137
1460.0	0.000322	126.437000036
1460.0	0.000322	126.483999968
1460.0	0.0003225	126.531000137
1470.0	0.0003251	126.79700017
1470.0	0.0003257	126.828000069
1470.0	0.0003263	126.875
1470.0	0.0003267	126.92200017
1470.0	0.0003273	126.953000069
1470.0	0.0003277	127.0
1470.0	0.0003281	127.04700017
1470.0	0.0003281	127.078000069
1470.0	0.0003282	127.125
1470.0	0.0003281	127.17200017
1470.0	0.0003283	127.203000069
1470.0	0.0003286	127.25
1470.0	0.0003287	127.281000137
1470.0	0.0003286	127.328000069
1470.0	0.0003286	127.375
1470.0	0.0003283	127.406000137
1470.0	0.0003281	127.453000069
1470.0	0.0003281	127.5
1470.0	0.0003283	127.531000137
1470.0	0.0003283	127.578000069
1470.0	0.0003283	127.608999968
1470.0	0.0003283	127.656000137
1470.0	0.0003286	127.703000069
1470.0	0.0003286	127.733999968
1470.0	0.0003287	127.781000137
1470.0	0.0003282	127.828000069
1470.0	0.0003281	127.858999968
1470.0	0.0003282	127.906000137
1470.0	0.0003281	127.937000036
1470.0	0.0003281	127.983999968
1470.0	0.0003281	128.031000137
1470.0	0.000328	128.062000036
1470.0	0.000328	128.108999968
1470.0	0.0003282	128.156000137
1470.0	0.0003286	128.187000036
1470.0	0.0003287	128.233999968
1470.0	0.0003286	128.266000032
1480.0	0.0003307	128.531000137
1480.0	0.0003312	128.578000069
1480.0	0.0003317	128.625
1480.0	0.0003321	128.656000137
1480.0	0.0003321	128.703000069
1480.0	0.000332	128.75
1480.0	0.0003321	128.781000137
1480.0	0.0003321	128.828000069
1480.0	0.0003325	128.858999968
1480.0	0.0003332	128.906000137
1480.0	0.0003336	128.953000069
1480.0	0.0003336	128.983999968
1480.0	0.0003332	129.031000137
1480.0	0.0003327	129.062000036
1480.0	0.0003325	129.108999968
1480.0	0.000333	129.156000137
1480.0	0.0003333	129.187000036
1480.0	0.0003338	129.233999968
1480.0	0.0003338	129.281000137
1480.0	0.000334	129.312000036
1480.0	0.0003342	129.358999968
1480.0	0.0003342	129.391000032
1480.0	0.0003345	129.437000036
1480.0	0.0003346	129.483999968
1480.0	0.0003346	129.516000032
1480.0	0.0003345	129.562000036
1480.0	0.0003343	129.608999968
1480.0	0.000334	129.641000032
1480.0	0.0003338	129.687000036
1480.0	0.000334	129.733999968
1480.0	0.0003338	129.766000032
1480.0	0.0003337	129.812000036
1480.0	0.0003336	129.844000101
1480.0	0.0003333	129.891000032
1480.0	0.0003333	129.937000036
1480.0	0.0003333	129.969000101
1480.0	0.0003332	130.016000032
1490.0	0.000335	130.281000137
1490.0	0.000335	130.328000069
1490.0	0.0003351	130.358999968
1490.0	0.0003352	130.406000137
1490.0	0.0003356	130.453000069
1490.0	0.0003356	130.483999968
1490.0	0.0003357	130.531000137
1490.0	0.0003361	130.562000036
1490.0	0.0003362	130.608999968
1490.0	0.0003363	130.656000137
1490.0	0.0003363	130.687000036
1490.0	0.0003365	130.733999968
1490.0	0.0003363	130.781000137
1490.0	0.0003361	130.812000036
1490.0	0.0003361	130.858999968
1490.0	0.0003363	130.891000032
1490.0	0.0003368	130.937000036
1490.0	0.0003375	130.983999968
1490.0	0.0003375	131.016000032
1490.0	0.0003371	131.062000036
1490.0	0.0003367	131.108999968
1490.0	0.0003367	131.141000032
1490.0	0.0003363	131.187000036
1490.0	0.0003363	131.219000101
1490.0	0.0003365	131.266000032
1490.0	0.0003367	131.312000036
1490.0	0.0003367	131.344000101
1490.0	0.0003367	131.391000032
1490.0	0.0003362	131.437000036
1490.0	0.0003356	131.469000101
1490.0	0.0003356	131.516000032
1490.0	0.0003357	131.562000036
1490.0	0.0003358	131.594000101
1490.0	0.0003362	131.641000032
1490.0	0.0003365	131.67200017
1490.0	0.0003368	131.719000101
1490.0	0.000337	131.766000032
1500.0	0.0003381	132.031000137
1500.0	0.0003383	132.078000069
1500.0	0.0003388	132.108999968
1500.0	0.0003388	132.156000137
1500.0	0.000339	132.203000069
1500.0	0.0003393	132.233999968
1500.0	0.0003395	132.281000137
1500.0	0.0003401	132.312000036
1500.0	0.0003402	132.358999968
1500.0	0.0003402	132.406000137
1500.0	0.0003405	132.437000036
1500.0	0.0003408	132.483999968
1500.0	0.0003412	132.531000137
1500.0	0.0003412	132.562000036
1500.0	0.0003413	132.608999968
1500.0	0.0003415	132.641000032
1500.0	0.0003415	132.687000036
1500.0	0.0003413	132.733999968
1500.0	0.0003418	132.766000032
1500.0	0.0003417	132.812000036
1500.0	0.0003413	132.858999968
1500.0	0.0003415	132.891000032
1500.0	0.0003417	132.937000036
1500.0	0.0003417	132.969000101
1500.0	0.0003413	133.016000032
1500.0	0.0003413	133.062000036
1500.0	0.0003412	133.094000101
1500.0	0.0003408	133.141000032
1500.0	0.0003407	133.187000036
1500.0	0.0003402	133.219000101
1500.0	0.0003401	133.266000032
1500.0	0.0003401	133.312000036
1500.0	0.0003398	133.344000101
1500.0	0.0003395	133.391000032
1500.0	0.0003395	133.42200017
1500.0	0.0003398	133.469000101
1500.0	0.0003396	133.516000032
1510.0	0.0003406	133.781000137
1510.0	0.0003405	133.828000069
1510.0	0.0003406	133.875
1510.0	0.0003407	133.906000137
1510.0	0.0003411	133.953000069
1510.0	0.0003415	133.983999968
1510.0	0.0003418	134.031000137
1510.0	0.0003418	134.078000069
1510.0	0.0003421	134.108999968
1510.0	0.0003426	134.156000137
1510.0	0.000343	134.203000069
1510.0	0.0003433	134.233999968
1510.0	0.0003438	134.281000137
1510.0	0.0003437	134.312000036
1510.0	0.0003433	134.358999968
1510.0	0.0003432	134.406000137
1510.0	0.0003433	134.437000036
1510.0	0.0003433	134.483999968
1510.0	0.0003436	134.531000137
1510.0	0.0003433	134.562000036
1510.0	0.0003433	134.608999968
1510.0	0.0003437	134.641000032
1510.0	0.0003437	134.687000036
1510.0	0.0003431	134.733999968
1510.0	0.0003426	134.766000032
1510.0	0.0003425	134.812000036
1510.0	0.0003426	134.858999968
1510.0	0.0003426	134.891000032
1510.0	0.0003426	134.937000036
1510.0	0.0003426	134.983999968
1510.0	0.000343	135.016000032
1510.0	0.0003431	135.062000036
1510.0	0.0003431	135.094000101
1510.0	0.000343	135.141000032
1510.0	0.000343	135.187000036
1510.0	0.0003427	135.219000101
1510.0	0.0003423	135.266000032
1520.0	0.0003427	135.54700017
1520.0	0.0003431	135.578000069
1520.0	0.0003431	135.625
1520.0	0.0003431	135.656000137
1520.0	0.0003432	135.703000069
1520.0	0.0003433	135.75
1520.0	0.0003437	135.781000137
1520.0	0.0003431	135.828000069
1520.0	0.000343	135.875
1520.0	0.000343	135.906000137
1520.0	0.0003426	135.953000069
1520.0	0.0003425	135.983999968
1520.0	0.0003426	136.031000137
1520.0	0.0003427	136.078000069
1520.0	0.0003427	136.108999968
1520.0	0.000343	136.156000137
1520.0	0.0003431	136.203000069
1520.0	0.0003436	136.233999968
1520.0	0.0003443	136.281000137
1520.0	0.0003446	136.312000036
1520.0	0.0003443	136.358999968
1520.0	0.0003437	136.406000137
1520.0	0.0003432	136.437000036
1520.0	0.0003427	136.483999968
1520.0	0.0003421	136.531000137
1520.0	0.000342	136.562000036
1520.0	0.000342	136.608999968
1520.0	0.0003421	136.641000032
1520.0	0.0003425	136.687000036
1520.0	0.0003425	136.733999968
1520.0	0.0003423	136.766000032
1520.0	0.0003425	136.812000036
1520.0	0.0003427	136.858999968
1520.0	0.0003431	136.891000032
1520.0	0.0003433	136.937000036
1520.0	0.000344	136.983999968
1520.0	0.0003443	137.016000032
1530.0	0.0003443	137.281000137
1530.0	0.0003442	137.328000069
1530.0	0.0003438	137.375
1530.0	0.0003438	137.406000137
1530.0	0.0003436	137.453000069
1530.0	0.0003432	137.5
1530.0	0.0003432	137.531000137
1530.0	0.0003433	137.578000069
1530.0	0.0003433	137.625
1530.0	0.0003436	137.656000137
1530.0	0.0003436	137.703000069
1530.0	0.0003431	137.733999968
1530.0	0.0003427	137.781000137
1530.0	0.0003426	137.828000069
1530.0	0.0003423	137.858999968
1530.0	0.0003421	137.906000137
1530.0	0.000342	137.953000069
1530.0	0.0003417	137.983999968
1530.0	0.0003417	138.031000137
1530.0	0.000342	138.062000036
1530.0	0.0003418	138.108999968
1530.0	0.0003421	138.156000137
1530.0	0.0003423	138.187000036
1530.0	0.0003426	138.233999968
1530.0	0.0003423	138.281000137
1530.0	0.0003421	138.312000036
1530.0	0.000342	138.358999968
1530.0	0.0003417	138.391000032
1530.0	0.0003415	138.437000036
1530.0	0.0003415	138.483999968
1530.0	0.0003413	138.516000032
1530.0	0.0003417	138.562000036
1530.0	0.0003423	138.608999968
1530.0	0.0003423	138.641000032
1530.0	0.0003421	138.687000036
1530.0	0.0003423	138.719000101
1530.0	0.0003427	138.766000032
1540.0	0.0003413	139.031000137
1540.0	0.0003406	139.078000069
1540.0	0.0003402	139.125
1540.0	0.0003401	139.156000137
1540.0	0.0003401	139.203000069
1540.0	0.0003401	139.25
1540.0	0.0003398	139.281000137
1540.0	0.0003398	139.328000069
1540.0	0.0003393	139.375
1540.0	0.0003392	139.406000137
1540.0	0.000339	139.453000069
1540.0	0.0003387	139.483999968
1540.0	0.0003387	139.531000137
1540.0	0.0003392	139.578000069
1540.0	0.0003395	139.608999968
1540.0	0.0003395	139.656000137
1540.0	0.0003402	139.703000069
1540.0	0.0003405	139.733999968
1540.0	0.0003405	139.781000137
1540.0	0.0003405	139.812000036
1540.0	0.0003402	139.858999968
1540.0	0.00034	139.906000137
1540.0	0.0003395	139.937000036
1540.0	0.0003395	139.983999968
1540.0	0.0003393	140.031000137
1540.0	0.0003393	140.062000036
1540.0	0.0003392	140.108999968
1540.0	0.0003388	140.141000032
1540.0	0.0003387	140.187000036
1540.0	0.0003388	140.233999968
1540.0	0.0003392	140.266000032
1540.0	0.0003393	140.312000036
1540.0	0.0003398	140.358999968
1540.0	0.0003401	140.391000032
1540.0	0.00034	140.437000036
1540.0	0.0003395	140.469000101
1540.0	0.0003393	140.516000032
1550.0	0.0003373	140.781000137
1550.0	0.0003365	140.828000069
1550.0	0.0003357	140.875
1550.0	0.0003348	140.906000137
1550.0	0.0003346	140.953000069
1550.0	0.0003342	141.0
1550.0	0.0003342	141.031000137
1550.0	0.0003338	141.078000069
1550.0	0.0003337	141.108999968
1550.0	0.0003332	141.156000137
1550.0	0.0003327	141.203000069
1550.0	0.0003326	141.233999968
1550.0	0.0003327	141.281000137
1550.0	0.000333	141.328000069
1550.0	0.0003332	141.358999968
1550.0	0.0003332	141.406000137
1550.0	0.0003333	141.437000036
1550.0	0.0003337	141.483999968
1550.0	0.0003338	141.531000137
1550.0	0.0003338	141.562000036
1550.0	0.000334	141.608999968
1550.0	0.0003342	141.656000137
1550.0	0.000334	141.687000036
1550.0	0.0003336	141.733999968
1550.0	0.0003332	141.766000032
1550.0	0.000333	141.812000036
1550.0	0.0003326	141.858999968
1550.0	0.000333	141.891000032
1550.0	0.000333	141.937000036
1550.0	0.0003327	141.983999968
1550.0	0.000333	142.016000032
1550.0	0.0003331	142.062000036
1550.0	0.0003332	142.108999968
1550.0	0.0003338	142.141000032
1550.0	0.0003342	142.187000036
1550.0	0.0003338	142.219000101
1550.0	0.000334	142.266000032
1560.0	0.0003302	142.54700017
1560.0	0.0003286	142.578000069
1560.0	0.0003275	142.625
1560.0	0.0003263	142.67200017
1560.0	0.0003256	142.703000069
1560.0	0.0003251	142.75
1560.0	0.0003248	142.781000137
1560.0	0.0003246	142.828000069
1560.0	0.0003245	142.875
1560.0	0.0003245	142.906000137
1560.0	0.0003248	142.953000069
1560.0	0.0003252	143.0
1560.0	0.0003255	143.031000137
1560.0	0.0003251	143.078000069
1560.0	0.0003248	143.125
1560.0	0.000325	143.156000137
1560.0	0.000325	143.203000069
1560.0	0.000325	143.233999968
1560.0	0.000325	143.281000137
1560.0	0.0003248	143.328000069
1560.0	0.0003245	143.358999968
1560.0	0.0003246	143.406000137
1560.0	0.0003246	143.437000036
1560.0	0.0003243	143.483999968
1560.0	0.0003245	143.531000137
1560.0	0.0003245	143.562000036
1560.0	0.0003242	143.608999968
1560.0	0.0003243	143.656000137
1560.0	0.0003246	143.687000036
1560.0	0.0003242	143.733999968
1560.0	0.0003237	143.781000137
1560.0	0.0003237	143.812000036
1560.0	0.0003237	143.858999968
1560.0	0.0003236	143.891000032
1560.0	0.0003233	143.937000036
1560.0	0.0003233	143.983999968
1560.0	0.0003236	144.016000032
1570.0	0.0003191	144.29700017
1570.0	0.0003172	144.344000101
1570.0	0.0003157	144.375
1570.0	0.0003145	144.42200017
1570.0	0.0003135	144.453000069
1570.0	0.0003131	144.5
1570.0	0.0003128	144.54700017
1570.0	0.0003125	144.578000069
1570.0	0.0003122	144.625
1570.0	0.0003118	144.67200017
1570.0	0.0003118	144.703000069
1570.0	0.0003115	144.75
1570.0	0.0003113	144.781000137
1570.0	0.0003115	144.828000069
1570.0	0.0003121	144.875
1570.0	0.0003122	144.906000137
1570.0	0.000312	144.953000069
1570.0	0.0003115	145.0
1570.0	0.0003113	145.031000137
1570.0	0.000311	145.078000069
1570.0	0.0003107	145.125
1570.0	0.0003108	145.156000137
1570.0	0.000311	145.203000069
1570.0	0.000311	145.233999968
1570.0	0.000311	145.281000137
1570.0	0.000311	145.328000069
1570.0	0.0003107	145.358999968
1570.0	0.0003106	145.406000137
1570.0	0.0003103	145.453000069
1570.0	0.0003102	145.483999968
1570.0	0.0003102	145.531000137
1570.0	0.0003101	145.562000036
1570.0	0.0003101	145.608999968
1570.0	0.0003101	145.656000137
1570.0	0.0003101	145.687000036
1570.0	0.0003103	145.733999968
1570.0	0.0003103	145.781000137
1580.0	0.0003057	146.04700017
1580.0	0.0003038	146.094000101
1580.0	0.000302	146.125
1580.0	0.0003006	146.17200017
1580.0	0.000299	146.203000069
1580.0	0.0002976	146.25
1580.0	0.0002968	146.29700017
1580.0	0.0002963	146.328000069
1580.0	0.0002953	146.375
1580.0	0.0002946	146.42200017
1580.0	0.0002943	146.453000069
1580.0	0.000294	146.5
1580.0	0.000294	146.531000137
1580.0	0.0002943	146.578000069
1580.0	0.0002941	146.625
1580.0	0.0002943	146.656000137
1580.0	0.0002946	146.703000069
1580.0	0.000295	146.75
1580.0	0.000295	146.781000137
1580.0	0.000295	146.828000069
1580.0	0.0002951	146.875
1580.0	0.0002947	146.906000137
1580.0	0.0002945	146.953000069
1580.0	0.0002941	146.983999968
1580.0	0.000294	147.031000137
1580.0	0.0002943	147.078000069
1580.0	0.0002943	147.108999968
1580.0	0.0002943	147.156000137
1580.0	0.0002947	147.203000069
1580.0	0.0002951	147.233999968
1580.0	0.0002952	147.281000137
1580.0	0.0002953	147.312000036
1580.0	0.0002953	147.358999968
1580.0	0.0002951	147.406000137
1580.0	0.0002952	147.437000036
1580.0	0.000295	147.483999968
1580.0	0.0002946	147.531000137
1590.0	0.0002877	147.79700017
1590.0	0.0002852	147.844000101
1590.0	0.0002828	147.875
1590.0	0.0002813	147.92200017
1590.0	0.0002801	147.969000101
1590.0	0.000279	148.0
1590.0	0.0002783	148.04700017
1590.0	0.0002777	148.094000101
1590.0	0.0002771	148.125
1590.0	0.0002771	148.17200017
1590.0	0.000277	148.203000069
1590.0	0.0002768	148.25
1590.0	0.0002768	148.29700017
1590.0	0.0002768	148.328000069
1590.0	0.0002766	148.375
1590.0	0.0002766	148.42200017
1590.0	0.0002763	148.453000069
1590.0	0.0002758	148.5
1590.0	0.0002756	148.54700017
1590.0	0.000276	148.578000069
1590.0	0.0002765	148.625
1590.0	0.0002768	148.656000137
1590.0	0.0002775	148.703000069
1590.0	0.0002776	148.75
1590.0	0.0002775	148.781000137
1590.0	0.0002771	148.828000069
1590.0	0.0002771	148.875
1590.0	0.000277	148.906000137
1590.0	0.0002766	148.953000069
1590.0	0.0002763	148.983999968
1590.0	0.0002757	149.031000137
1590.0	0.0002753	149.078000069
1590.0	0.0002753	149.108999968
1590.0	0.0002753	149.156000137
1590.0	0.0002751	149.203000069
1590.0	0.0002752	149.233999968
1590.0	0.0002756	149.281000137
1600.0	0.0002693	149.54700017
1600.0	0.0002668	149.594000101
1600.0	0.0002641	149.625
1600.0	0.000262	149.67200017
1600.0	0.0002602	149.719000101
1600.0	0.0002591	149.75
1600.0	0.0002583	149.79700017
1600.0	0.0002577	149.844000101
1600.0	0.000257	149.875
1600.0	0.0002563	149.92200017
1600.0	0.000256	149.953000069
1600.0	0.0002557	150.0
1600.0	0.000256	150.04700017
1600.0	0.0002563	150.078000069
1600.0	0.0002568	150.125
1600.0	0.0002568	150.17200017
1600.0	0.0002566	150.203000069
1600.0	0.0002566	150.25
1600.0	0.0002563	150.281000137
1600.0	0.0002563	150.328000069
1600.0	0.0002568	150.375
1600.0	0.0002571	150.406000137
1600.0	0.0002568	150.453000069
1600.0	0.0002563	150.5
1600.0	0.0002558	150.531000137
1600.0	0.0002558	150.578000069
1600.0	0.0002558	150.625
1600.0	0.000256	150.656000137
1600.0	0.0002558	150.703000069
1600.0	0.000256	150.733999968
1600.0	0.0002563	150.781000137
1600.0	0.0002563	150.828000069
1600.0	0.0002563	150.858999968
1600.0	0.0002563	150.906000137
1600.0	0.0002558	150.953000069
1600.0	0.0002557	150.983999968
1600.0	0.0002558	151.031000137
1610.0	0.0002481	151.29700017
1610.0	0.0002452	151.344000101
1610.0	0.0002426	151.391000032
1610.0	0.0002402	151.42200017
1610.0	0.0002387	151.469000101
1610.0	0.0002375	151.516000032
1610.0	0.0002365	151.54700017
1610.0	0.0002358	151.594000101
1610.0	0.0002352	151.625
1610.0	0.000235	151.67200017
1610.0	0.0002345	151.719000101
1610.0	0.0002343	151.75
1610.0	0.0002341	151.79700017
1610.0	0.000234	151.844000101
1610.0	0.0002338	151.875
1610.0	0.0002337	151.92200017
1610.0	0.0002335	151.969000101
1610.0	0.000234	152.0
1610.0	0.0002338	152.04700017
1610.0	0.0002332	152.078000069
1610.0	0.0002328	152.125
1610.0	0.0002331	152.17200017
1610.0	0.0002332	152.203000069
1610.0	0.0002337	152.25
1610.0	0.000234	152.281000137
1610.0	0.0002341	152.328000069
1610.0	0.0002343	152.375
1610.0	0.0002341	152.406000137
1610.0	0.000234	152.453000069
1610.0	0.0002335	152.5
1610.0	0.0002335	152.531000137
1610.0	0.0002333	152.578000069
1610.0	0.0002332	152.625
1610.0	0.0002333	152.656000137
1610.0	0.0002335	152.703000069
1610.0	0.0002337	152.733999968
1610.0	0.000234	152.781000137
1620.0	0.0002265	153.062000036
1620.0	0.0002238	153.094000101
1620.0	0.0002213	153.141000032
1620.0	0.0002191	153.187000036
1620.0	0.0002177	153.219000101
1620.0	0.0002163	153.266000032
1620.0	0.000215	153.312000036
1620.0	0.000214	153.344000101
1620.0	0.0002137	153.391000032
1620.0	0.0002131	153.437000036
1620.0	0.0002125	153.469000101
1620.0	0.0002122	153.516000032
1620.0	0.0002125	153.54700017
1620.0	0.0002128	153.594000101
1620.0	0.0002131	153.641000032
1620.0	0.0002131	153.67200017
1620.0	0.0002132	153.719000101
1620.0	0.0002132	153.766000032
1620.0	0.0002128	153.79700017
1620.0	0.0002127	153.844000101
1620.0	0.0002128	153.875
1620.0	0.0002128	153.92200017
1620.0	0.0002127	153.969000101
1620.0	0.0002131	154.0
1620.0	0.0002132	154.04700017
1620.0	0.0002128	154.094000101
1620.0	0.0002127	154.125
1620.0	0.0002126	154.17200017
1620.0	0.0002122	154.203000069
1620.0	0.0002121	154.25
1620.0	0.0002122	154.29700017
1620.0	0.0002121	154.328000069
1620.0	0.0002118	154.375
1620.0	0.000212	154.42200017
1620.0	0.0002121	154.453000069
1620.0	0.0002125	154.5
1620.0	0.0002128	154.54700017
1630.0	0.0002037	154.812000036
1630.0	0.0002012	154.858999968
1630.0	0.0001988	154.906000137
1630.0	0.0001968	154.937000036
1630.0	0.0001956	154.983999968
1630.0	0.0001941	155.031000137
1630.0	0.0001928	155.062000036
1630.0	0.0001922	155.108999968
1630.0	0.000192	155.141000032
1630.0	0.0001915	155.187000036
1630.0	0.0001908	155.233999968
1630.0	0.0001906	155.266000032
1630.0	0.0001903	155.312000036
1630.0	0.0001902	155.358999968
1630.0	0.0001902	155.391000032
1630.0	0.0001903	155.437000036
1630.0	0.0001908	155.469000101
1630.0	0.0001913	155.516000032
1630.0	0.0001918	155.562000036
1630.0	0.0001918	155.594000101
1630.0	0.0001918	155.641000032
1630.0	0.0001916	155.687000036
1630.0	0.0001913	155.719000101
1630.0	0.0001912	155.766000032
1630.0	0.000191	155.79700017
1630.0	0.0001912	155.844000101
1630.0	0.0001912	155.891000032
1630.0	0.0001913	155.92200017
1630.0	0.0001915	155.969000101
1630.0	0.0001912	156.016000032
1630.0	0.0001907	156.04700017
1630.0	0.0001902	156.094000101
1630.0	0.00019	156.125
1630.0	0.00019	156.17200017
1630.0	0.00019	156.219000101
1630.0	0.00019	156.25
1630.0	0.0001902	156.29700017
1640.0	0.0001833	156.578000069
1640.0	0.0001808	156.625
1640.0	0.0001783	156.656000137
1640.0	0.0001763	156.703000069
1640.0	0.0001747	156.75
1640.0	0.0001733	156.781000137
1640.0	0.0001722	156.828000069
1640.0	0.0001715	156.875
1640.0	0.0001707	156.906000137
1640.0	0.0001702	156.953000069
1640.0	0.0001701	156.983999968
1640.0	0.00017	157.031000137
1640.0	0.0001697	157.078000069
1640.0	0.0001701	157.108999968
1640.0	0.00017	157.156000137
1640.0	0.0001697	157.203000069
1640.0	0.0001697	157.233999968
1640.0	0.0001697	157.281000137
1640.0	0.0001696	157.312000036
1640.0	0.0001695	157.358999968
1640.0	0.0001696	157.406000137
1640.0	0.0001697	157.437000036
1640.0	0.0001701	157.483999968
1640.0	0.0001702	157.531000137
1640.0	0.0001701	157.562000036
1640.0	0.0001697	157.608999968
1640.0	0.0001697	157.641000032
1640.0	0.0001697	157.687000036
1640.0	0.0001696	157.733999968
1640.0	0.0001691	157.766000032
1640.0	0.0001687	157.812000036
1640.0	0.0001683	157.858999968
1640.0	0.0001682	157.891000032
1640.0	0.0001685	157.937000036
1640.0	0.0001687	157.983999968
1640.0	0.0001687	158.016000032
1640.0	0.000169	158.062000036
1650.0	0.0001618	158.344000101
1650.0	0.0001596	158.375
1650.0	0.0001572	158.42200017
1650.0	0.0001553	158.469000101
1650.0	0.000154	158.5
1650.0	0.0001531	158.54700017
1650.0	0.0001522	158.578000069
1650.0	0.0001521	158.625
1650.0	0.0001521	158.67200017
1650.0	0.000152	158.703000069
1650.0	0.0001518	158.75
1650.0	0.0001512	158.79700017
1650.0	0.000151	158.828000069
1650.0	0.0001507	158.875
1650.0	0.0001506	158.906000137
1650.0	0.0001506	158.953000069
1650.0	0.0001507	159.0
1650.0	0.0001507	159.031000137
1650.0	0.0001508	159.078000069
1650.0	0.0001512	159.125
1650.0	0.0001516	159.156000137
1650.0	0.0001515	159.203000069
1650.0	0.0001512	159.233999968
1650.0	0.0001512	159.281000137
1650.0	0.0001512	159.328000069
1650.0	0.0001515	159.358999968
1650.0	0.0001516	159.406000137
1650.0	0.0001515	159.453000069
1650.0	0.0001513	159.483999968
1650.0	0.0001515	159.531000137
1650.0	0.0001513	159.562000036
1650.0	0.0001508	159.608999968
1650.0	0.0001506	159.656000137
1650.0	0.0001502	159.687000036
1650.0	0.0001501	159.733999968
1650.0	0.0001502	159.781000137
1650.0	0.0001503	159.812000036
1660.0	0.0001456	160.094000101
1660.0	0.0001428	160.141000032
1660.0	0.0001407	160.187000036
1660.0	0.000139	160.233999968
1660.0	0.0001377	160.266000032
1660.0	0.0001371	160.312000036
1660.0	0.0001365	160.344000101
1660.0	0.0001362	160.391000032
1660.0	0.0001358	160.437000036
1660.0	0.0001357	160.469000101
1660.0	0.0001356	160.516000032
1660.0	0.0001353	160.562000036
1660.0	0.0001356	160.594000101
1660.0	0.0001356	160.641000032
1660.0	0.0001352	160.67200017
1660.0	0.0001351	160.719000101
1660.0	0.0001346	160.766000032
1660.0	0.0001343	160.79700017
1660.0	0.0001343	160.844000101
1660.0	0.0001341	160.891000032
1660.0	0.000134	160.92200017
1660.0	0.0001345	160.969000101
1660.0	0.0001347	161.016000032
1660.0	0.0001352	161.04700017
1660.0	0.0001352	161.094000101
1660.0	0.000135	161.125
1660.0	0.000135	161.17200017
1660.0	0.0001351	161.219000101
1660.0	0.0001352	161.25
1660.0	0.0001352	161.29700017
1660.0	0.000135	161.344000101
1660.0	0.000135	161.375
1660.0	0.0001347	161.42200017
1660.0	0.0001345	161.453000069
1660.0	0.0001343	161.5
1660.0	0.0001338	161.54700017
1660.0	0.000134	161.578000069
1670.0	0.000129	161.858999968
1670.0	0.0001272	161.906000137
1670.0	0.0001257	161.953000069
1670.0	0.0001241	161.983999968
1670.0	0.0001232	162.031000137
1670.0	0.0001221	162.078000069
1670.0	0.0001213	162.108999968
1670.0	0.0001208	162.156000137
1670.0	0.0001208	162.187000036
1670.0	0.0001207	162.233999968
1670.0	0.0001203	162.281000137
1670.0	0.0001206	162.312000036
1670.0	0.0001206	162.358999968
1670.0	0.0001206	162.406000137
1670.0	0.0001202	162.437000036
1670.0	0.0001202	162.483999968
1670.0	0.0001201	162.516000032
1670.0	0.0001201	162.562000036
1670.0	0.0001202	162.608999968
1670.0	0.0001202	162.641000032
1670.0	0.0001201	162.687000036
1670.0	0.00012	162.733999968
1670.0	0.0001201	162.766000032
1670.0	0.00012	162.812000036
1670.0	0.00012	162.858999968
1670.0	0.00012	162.891000032
1670.0	0.00012	162.937000036
1670.0	0.00012	162.969000101
1670.0	0.0001193	163.016000032
1670.0	0.0001188	163.062000036
1670.0	0.0001187	163.094000101
1670.0	0.0001188	163.141000032
1670.0	0.0001188	163.187000036
1670.0	0.0001187	163.219000101
1670.0	0.000119	163.266000032
1670.0	0.0001191	163.29700017
1670.0	0.0001195	163.344000101
1680.0	0.0001143	163.625
1680.0	0.0001131	163.67200017
1680.0	0.0001118	163.719000101
1680.0	0.0001106	163.75
1680.0	0.0001096	163.79700017
1680.0	0.0001085	163.828000069
1680.0	0.0001077	163.875
1680.0	0.000107	163.92200017
1680.0	0.0001066	163.953000069
1680.0	0.0001065	164.0
1680.0	0.0001063	164.04700017
1680.0	0.0001063	164.078000069
1680.0	0.0001063	164.125
1680.0	0.000106	164.156000137
1680.0	0.0001058	164.203000069
1680.0	0.0001053	164.25
1680.0	0.0001051	164.281000137
1680.0	0.0001051	164.328000069
1680.0	0.0001053	164.375
1680.0	0.0001058	164.406000137
1680.0	0.000106	164.453000069
1680.0	0.0001065	164.483999968
1680.0	0.0001066	164.531000137
1680.0	0.0001068	164.578000069
1680.0	0.0001071	164.608999968
1680.0	0.0001068	164.656000137
1680.0	0.000106	164.703000069
1680.0	0.0001057	164.733999968
1680.0	0.0001057	164.781000137
1680.0	0.0001058	164.812000036
1680.0	0.0001058	164.858999968
1680.0	0.0001058	164.906000137
1680.0	0.0001056	164.937000036
1680.0	0.0001053	164.983999968
1680.0	0.0001056	165.031000137
1680.0	0.0001056	165.062000036
1680.0	0.0001056	165.108999968
1690.0	0.000102	165.391000032
1690.0	0.0001006	165.437000036
1690.0	9.91e-05	165.469000101
1690.0	9.82e-05	165.5
1690.0	9.72e-05	165.54700017
1690.0	9.7e-05	165.578000069
1690.0	9.65e-05	165.608999968
1690.0	9.62e-05	165.656000137
1690.0	9.58e-05	165.687000036
1690.0	9.62e-05	165.733999968
1690.0	9.63e-05	165.766000032
1690.0	9.58e-05	165.79700017
1690.0	9.52e-05	165.844000101
1690.0	9.5e-05	165.875
1690.0	9.46e-05	165.906000137
1690.0	9.43e-05	165.953000069
1690.0	9.43e-05	165.983999968
1690.0	9.41e-05	166.016000032
1690.0	9.4e-05	166.062000036
1690.0	9.37e-05	166.094000101
1690.0	9.38e-05	166.141000032
1690.0	9.43e-05	166.17200017
1690.0	9.43e-05	166.203000069
1690.0	9.45e-05	166.25
1690.0	9.46e-05	166.281000137
1690.0	9.45e-05	166.312000036
1690.0	9.45e-05	166.358999968
1690.0	9.46e-05	166.391000032
1690.0	9.47e-05	166.42200017
1690.0	9.5e-05	166.469000101
1690.0	9.5e-05	166.5
1690.0	9.5e-05	166.54700017
1690.0	9.51e-05	166.578000069
1690.0	9.52e-05	166.608999968
1690.0	9.53e-05	166.656000137
1690.0	9.53e-05	166.687000036
1690.0	9.57e-05	166.719000101
1690.0	9.56e-05	166.766000032
1690.0	9.56e-05	166.79700017
1690.0	9.56e-05	166.844000101
1690.0	9.58e-05	166.875
1700.0	9.07e-05	167.156000137
1700.0	8.9e-05	167.187000036
1700.0	8.81e-05	167.219000101
1700.0	8.72e-05	167.266000032
1700.0	8.68e-05	167.29700017
1700.0	8.62e-05	167.344000101
1700.0	8.58e-05	167.375
1700.0	8.53e-05	167.406000137
1700.0	8.51e-05	167.453000069
1700.0	8.51e-05	167.483999968
1700.0	8.52e-05	167.516000032
1700.0	8.53e-05	167.562000036
1700.0	8.56e-05	167.594000101
1700.0	8.53e-05	167.641000032
1700.0	8.52e-05	167.67200017
1700.0	8.52e-05	167.703000069
1700.0	8.51e-05	167.75
1700.0	8.47e-05	167.781000137
1700.0	8.45e-05	167.812000036
1700.0	8.43e-05	167.858999968
1700.0	8.41e-05	167.891000032
1700.0	8.45e-05	167.92200017
1700.0	8.43e-05	167.969000101
1700.0	8.46e-05	168.0
1700.0	8.5e-05	168.04700017
1700.0	8.5e-05	168.078000069
1700.0	8.47e-05	168.108999968
1700.0	8.47e-05	168.156000137
1700.0	8.46e-05	168.187000036
1700.0	8.41e-05	168.219000101
1700.0	8.41e-05	168.266000032
1700.0	8.45e-05	168.29700017
1700.0	8.5e-05	168.328000069
1700.0	8.53e-05	168.375
1700.0	8.53e-05	168.406000137
1700.0	8.56e-05	168.453000069
1700.0	8.56e-05	168.483999968
1700.0	8.56e-05	168.516000032
1700.0	8.56e-05	168.562000036
1700.0	8.58e-05	168.594000101
1700.0	8.58e-05	168.625
1710.0	8.22e-05	168.906000137
1710.0	8.06e-05	168.953000069
1710.0	7.93e-05	168.983999968
1710.0	7.82e-05	169.016000032
1710.0	7.76e-05	169.062000036
1710.0	7.71e-05	169.094000101
1710.0	7.7e-05	169.125
1710.0	7.65e-05	169.17200017
1710.0	7.58e-05	169.203000069
1710.0	7.58e-05	169.25
1710.0	7.57e-05	169.281000137
1710.0	7.57e-05	169.312000036
1710.0	7.57e-05	169.358999968
1710.0	7.57e-05	169.391000032
1710.0	7.62e-05	169.42200017
1710.0	7.63e-05	169.469000101
1710.0	7.65e-05	169.5
1710.0	7.65e-05	169.531000137
1710.0	7.62e-05	169.578000069
1710.0	7.58e-05	169.608999968
1710.0	7.58e-05	169.656000137
1710.0	7.6e-05	169.687000036
1710.0	7.65e-05	169.719000101
1710.0	7.65e-05	169.766000032
1710.0	7.63e-05	169.79700017
1710.0	7.62e-05	169.828000069
1710.0	7.63e-05	169.875
1710.0	7.63e-05	169.906000137
1710.0	7.65e-05	169.953000069
1710.0	7.66e-05	169.983999968
1710.0	7.65e-05	170.016000032
1710.0	7.65e-05	170.062000036
1710.0	7.65e-05	170.094000101
1710.0	7.66e-05	170.125
1710.0	7.65e-05	170.17200017
1710.0	7.63e-05	170.203000069
1710.0	7.62e-05	170.233999968
1710.0	7.63e-05	170.281000137
1710.0	7.63e-05	170.312000036
1710.0	7.65e-05	170.358999968
1710.0	7.66e-05	170.391000032
1720.0	7.45e-05	170.67200017
1720.0	7.35e-05	170.703000069
1720.0	7.27e-05	170.75
1720.0	7.2e-05	170.781000137
1720.0	7.16e-05	170.812000036
1720.0	7.12e-05	170.858999968
1720.0	7.08e-05	170.891000032
1720.0	7.02e-05	170.92200017
1720.0	7.01e-05	170.969000101
1720.0	7e-05	171.0
1720.0	6.97e-05	171.031000137
1720.0	6.97e-05	171.078000069
1720.0	6.97e-05	171.108999968
1720.0	6.96e-05	171.156000137
1720.0	6.96e-05	171.187000036
1720.0	6.97e-05	171.219000101
1720.0	7e-05	171.266000032
1720.0	6.97e-05	171.29700017
1720.0	6.96e-05	171.328000069
1720.0	6.95e-05	171.375
1720.0	6.93e-05	171.406000137
1720.0	6.96e-05	171.437000036
1720.0	6.97e-05	171.483999968
1720.0	6.96e-05	171.516000032
1720.0	6.93e-05	171.562000036
1720.0	6.9e-05	171.594000101
1720.0	6.88e-05	171.625
1720.0	6.93e-05	171.67200017
1720.0	6.93e-05	171.703000069
1720.0	6.93e-05	171.733999968
1720.0	6.93e-05	171.781000137
1720.0	6.93e-05	171.812000036
1720.0	6.95e-05	171.844000101
1720.0	6.96e-05	171.891000032
1720.0	6.93e-05	171.92200017
1720.0	6.93e-05	171.969000101
1720.0	6.93e-05	172.0
1720.0	6.95e-05	172.031000137
1720.0	6.95e-05	172.078000069
1720.0	6.93e-05	172.108999968
1720.0	6.93e-05	172.141000032
1730.0	6.58e-05	172.42200017
1730.0	6.52e-05	172.469000101
1730.0	6.47e-05	172.5
1730.0	6.43e-05	172.531000137
1730.0	6.4e-05	172.578000069
1730.0	6.37e-05	172.608999968
1730.0	6.35e-05	172.641000032
1730.0	6.35e-05	172.687000036
1730.0	6.35e-05	172.719000101
1730.0	6.33e-05	172.766000032
1730.0	6.33e-05	172.79700017
1730.0	6.35e-05	172.828000069
1730.0	6.33e-05	172.875
1730.0	6.31e-05	172.906000137
1730.0	6.32e-05	172.937000036
1730.0	6.32e-05	172.983999968
1730.0	6.32e-05	173.016000032
1730.0	6.28e-05	173.04700017
1730.0	6.26e-05	173.094000101
1730.0	6.25e-05	173.125
1730.0	6.22e-05	173.17200017
1730.0	6.21e-05	173.203000069
1730.0	6.2e-05	173.233999968
1730.0	6.2e-05	173.281000137
1730.0	6.18e-05	173.312000036
1730.0	6.15e-05	173.344000101
1730.0	6.15e-05	173.391000032
1730.0	6.15e-05	173.42200017
1730.0	6.18e-05	173.469000101
1730.0	6.18e-05	173.5
1730.0	6.18e-05	173.531000137
1730.0	6.18e-05	173.578000069
1730.0	6.2e-05	173.608999968
1730.0	6.16e-05	173.641000032
1730.0	6.16e-05	173.687000036
1730.0	6.16e-05	173.719000101
1730.0	6.2e-05	173.75
1730.0	6.21e-05	173.79700017
1730.0	6.25e-05	173.828000069
1730.0	6.26e-05	173.875
1730.0	6.22e-05	173.906000137
1740.0	6.18e-05	174.187000036
1740.0	6.07e-05	174.219000101
1740.0	5.96e-05	174.266000032
1740.0	5.88e-05	174.29700017
1740.0	5.85e-05	174.328000069
1740.0	5.78e-05	174.375
1740.0	5.76e-05	174.406000137
1740.0	5.71e-05	174.437000036
1740.0	5.7e-05	174.483999968
1740.0	5.68e-05	174.516000032
1740.0	5.72e-05	174.54700017
1740.0	5.72e-05	174.594000101
1740.0	5.72e-05	174.625
1740.0	5.76e-05	174.67200017
1740.0	5.77e-05	174.703000069
1740.0	5.77e-05	174.733999968
1740.0	5.77e-05	174.781000137
1740.0	5.75e-05	174.812000036
1740.0	5.71e-05	174.844000101
1740.0	5.68e-05	174.891000032
1740.0	5.68e-05	174.92200017
1740.0	5.68e-05	174.953000069
1740.0	5.71e-05	175.0
1740.0	5.71e-05	175.031000137
1740.0	5.71e-05	175.078000069
1740.0	5.72e-05	175.108999968
1740.0	5.76e-05	175.141000032
1740.0	5.78e-05	175.187000036
1740.0	5.77e-05	175.219000101
1740.0	5.77e-05	175.25
1740.0	5.77e-05	175.29700017
1740.0	5.81e-05	175.328000069
1740.0	5.83e-05	175.375
1740.0	5.83e-05	175.406000137
1740.0	5.83e-05	175.437000036
1740.0	5.81e-05	175.483999968
1740.0	5.77e-05	175.516000032
1740.0	5.76e-05	175.54700017
1740.0	5.76e-05	175.594000101
1740.0	5.76e-05	175.625
1740.0	5.76e-05	175.656000137
1750.0	5.51e-05	175.937000036
1750.0	5.43e-05	175.983999968
1750.0	5.35e-05	176.016000032
1750.0	5.31e-05	176.04700017
1750.0	5.27e-05	176.094000101
1750.0	5.25e-05	176.125
1750.0	5.21e-05	176.17200017
1750.0	5.21e-05	176.203000069
1750.0	5.21e-05	176.233999968
1750.0	5.21e-05	176.281000137
1750.0	5.22e-05	176.312000036
1750.0	5.21e-05	176.344000101
1750.0	5.2e-05	176.391000032
1750.0	5.21e-05	176.42200017
1750.0	5.2e-05	176.453000069
1750.0	5.2e-05	176.5
1750.0	5.21e-05	176.531000137
1750.0	5.21e-05	176.562000036
1750.0	5.21e-05	176.608999968
1750.0	5.25e-05	176.641000032
1750.0	5.27e-05	176.687000036
1750.0	5.31e-05	176.719000101
1750.0	5.31e-05	176.75
1750.0	5.26e-05	176.79700017
1750.0	5.2e-05	176.828000069
1750.0	5.16e-05	176.858999968
1750.0	5.1e-05	176.906000137
1750.0	5.08e-05	176.937000036
1750.0	5.08e-05	176.983999968
1750.0	5.1e-05	177.016000032
1750.0	5.12e-05	177.04700017
1750.0	5.16e-05	177.094000101
1750.0	5.16e-05	177.125
1750.0	5.16e-05	177.156000137
1750.0	5.16e-05	177.203000069
1750.0	5.15e-05	177.233999968
1750.0	5.13e-05	177.266000032
1750.0	5.13e-05	177.312000036
1750.0	5.13e-05	177.344000101
1750.0	5.12e-05	177.391000032
1750.0	5.12e-05	177.42200017
1760.0	5.03e-05	177.703000069
1760.0	4.96e-05	177.733999968
1760.0	4.91e-05	177.781000137
1760.0	4.87e-05	177.812000036
1760.0	4.82e-05	177.844000101
1760.0	4.81e-05	177.891000032
1760.0	4.78e-05	177.92200017
1760.0	4.77e-05	177.953000069
1760.0	4.76e-05	178.0
1760.0	4.75e-05	178.031000137
1760.0	4.72e-05	178.062000036
1760.0	4.71e-05	178.108999968
1760.0	4.7e-05	178.141000032
1760.0	4.7e-05	178.187000036
1760.0	4.71e-05	178.219000101
1760.0	4.75e-05	178.25
1760.0	4.77e-05	178.29700017
1760.0	4.78e-05	178.328000069
1760.0	4.78e-05	178.358999968
1760.0	4.78e-05	178.406000137
1760.0	4.78e-05	178.437000036
1760.0	4.77e-05	178.469000101
1760.0	4.75e-05	178.516000032
1760.0	4.7e-05	178.54700017
1760.0	4.7e-05	178.594000101
1760.0	4.68e-05	178.625
1760.0	4.63e-05	178.656000137
1760.0	4.66e-05	178.703000069
1760.0	4.63e-05	178.733999968
1760.0	4.6e-05	178.766000032
1760.0	4.57e-05	178.812000036
1760.0	4.57e-05	178.844000101
1760.0	4.58e-05	178.875
1760.0	4.58e-05	178.92200017
1760.0	4.6e-05	178.953000069
1760.0	4.62e-05	179.0
1760.0	4.63e-05	179.031000137
1760.0	4.65e-05	179.062000036
1760.0	4.65e-05	179.108999968
1760.0	4.62e-05	179.141000032
1760.0	4.63e-05	179.17200017
1770.0	4.58e-05	179.453000069
1770.0	4.52e-05	179.5
1770.0	4.46e-05	179.531000137
1770.0	4.38e-05	179.562000036
1770.0	4.33e-05	179.608999968
1770.0	4.28e-05	179.641000032
1770.0	4.22e-05	179.67200017
1770.0	4.21e-05	179.719000101
1770.0	4.2e-05	179.75
1770.0	4.21e-05	179.79700017
1770.0	4.22e-05	179.828000069
1770.0	4.26e-05	179.858999968
1770.0	4.28e-05	179.906000137
1770.0	4.27e-05	179.937000036
1770.0	4.28e-05	179.969000101
1770.0	4.28e-05	180.016000032
1770.0	4.28e-05	180.04700017
1770.0	4.27e-05	180.094000101
1770.0	4.25e-05	180.125
1770.0	4.25e-05	180.156000137
1770.0	4.21e-05	180.203000069
1770.0	4.16e-05	180.233999968
1770.0	4.15e-05	180.266000032
1770.0	4.15e-05	180.312000036
1770.0	4.16e-05	180.344000101
1770.0	4.18e-05	180.375
1770.0	4.2e-05	180.42200017
1770.0	4.22e-05	180.453000069
1770.0	4.22e-05	180.5
1770.0	4.21e-05	180.531000137
1770.0	4.22e-05	180.562000036
1770.0	4.26e-05	180.608999968
1770.0	4.27e-05	180.641000032
1770.0	4.26e-05	180.67200017
1770.0	4.25e-05	180.719000101
1770.0	4.21e-05	180.75
1770.0	4.2e-05	180.781000137
1770.0	4.18e-05	180.828000069
1770.0	4.18e-05	180.858999968
1770.0	4.18e-05	180.906000137
1770.0	4.2e-05	180.937000036
1780.0	4.07e-05	181.219000101
1780.0	4.03e-05	181.25
1780.0	4e-05	181.29700017
1780.0	3.95e-05	181.328000069
1780.0	3.93e-05	181.358999968
1780.0	3.91e-05	181.406000137
1780.0	3.9e-05	181.437000036
1780.0	3.9e-05	181.469000101
1780.0	3.91e-05	181.516000032
1780.0	3.91e-05	181.54700017
1780.0	3.9e-05	181.578000069
1780.0	3.88e-05	181.625
1780.0	3.87e-05	181.656000137
1780.0	3.85e-05	181.703000069
1780.0	3.85e-05	181.733999968
1780.0	3.83e-05	181.766000032
1780.0	3.83e-05	181.812000036
1780.0	3.87e-05	181.844000101
1780.0	3.85e-05	181.875
1780.0	3.83e-05	181.92200017
1780.0	3.83e-05	181.953000069
1780.0	3.83e-05	182.0
1780.0	3.83e-05	182.031000137
1780.0	3.82e-05	182.062000036
1780.0	3.82e-05	182.108999968
1780.0	3.82e-05	182.141000032
1780.0	3.81e-05	182.17200017
1780.0	3.75e-05	182.219000101
1780.0	3.72e-05	182.25
1780.0	3.72e-05	182.281000137
1780.0	3.72e-05	182.328000069
1780.0	3.72e-05	182.358999968
1780.0	3.72e-05	182.391000032
1780.0	3.71e-05	182.437000036
1780.0	3.7e-05	182.469000101
1780.0	3.75e-05	182.516000032
1780.0	3.76e-05	182.54700017
1780.0	3.76e-05	182.578000069
1780.0	3.75e-05	182.625
1780.0	3.75e-05	182.656000137
1780.0	3.75e-05	182.687000036
1790.0	3.68e-05	182.969000101
1790.0	3.63e-05	183.0
1790.0	3.58e-05	183.04700017
1790.0	3.57e-05	183.078000069
1790.0	3.57e-05	183.125
1790.0	3.56e-05	183.156000137
1790.0	3.51e-05	183.187000036
1790.0	3.47e-05	183.233999968
1790.0	3.45e-05	183.266000032
1790.0	3.41e-05	183.29700017
1790.0	3.4e-05	183.344000101
1790.0	3.41e-05	183.375
1790.0	3.4e-05	183.406000137
1790.0	3.41e-05	183.453000069
1790.0	3.43e-05	183.483999968
1790.0	3.43e-05	183.516000032
1790.0	3.43e-05	183.562000036
1790.0	3.43e-05	183.594000101
1790.0	3.43e-05	183.641000032
1790.0	3.43e-05	183.67200017
1790.0	3.41e-05	183.703000069
1790.0	3.43e-05	183.75
1790.0	3.43e-05	183.781000137
1790.0	3.4e-05	183.812000036
1790.0	3.4e-05	183.858999968
1790.0	3.4e-05	183.891000032
1790.0	3.38e-05	183.937000036
1790.0	3.38e-05	183.969000101
1790.0	3.38e-05	184.0
1790.0	3.37e-05	184.04700017
1790.0	3.37e-05	184.078000069
1790.0	3.4e-05	184.108999968
1790.0	3.43e-05	184.156000137
1790.0	3.43e-05	184.187000036
1790.0	3.43e-05	184.219000101
1790.0	3.4e-05	184.266000032
1790.0	3.4e-05	184.29700017
1790.0	3.4e-05	184.344000101
1790.0	3.4e-05	184.375
1790.0	3.38e-05	184.406000137
1790.0	3.38e-05	184.453000069
1800.0	3.2e-05	184.733999968
1800.0	3.15e-05	184.766000032
1800.0	3.08e-05	184.79700017
1800.0	3.06e-05	184.844000101
1800.0	3.02e-05	184.875
1800.0	3.01e-05	184.906000137
1800.0	3e-05	184.953000069
1800.0	2.95e-05	184.983999968
1800.0	2.91e-05	185.016000032
1800.0	2.88e-05	185.062000036
1800.0	2.87e-05	185.094000101
1800.0	2.88e-05	185.141000032
1800.0	2.88e-05	185.17200017
1800.0	2.88e-05	185.203000069
1800.0	2.88e-05	185.25
1800.0	2.9e-05	185.281000137
1800.0	2.91e-05	185.312000036
1800.0	2.95e-05	185.358999968
1800.0	2.96e-05	185.391000032
1800.0	3e-05	185.42200017
1800.0	3e-05	185.469000101
1800.0	3.02e-05	185.5
1800.0	3.03e-05	185.54700017
1800.0	3.03e-05	185.578000069
1800.0	3.02e-05	185.608999968
1800.0	3.02e-05	185.656000137
1800.0	3.01e-05	185.687000036
1800.0	3.01e-05	185.719000101
1800.0	3.01e-05	185.766000032
1800.0	3.02e-05	185.79700017
1800.0	3.07e-05	185.844000101
1800.0	3.1e-05	185.875
1800.0	3.08e-05	185.906000137
1800.0	3.07e-05	185.953000069
1800.0	3.06e-05	185.983999968
1800.0	3.02e-05	186.016000032
1800.0	3.02e-05	186.062000036
1800.0	3.02e-05	186.094000101
1800.0	3e-05	186.125
1800.0	2.97e-05	186.17200017
1800.0	2.96e-05	186.203000069
