Your edit line - do NOT delete this line
Wavelength [nm], Voltage [V], Elapsed time [s]
900.0	9.76e-05	14.0160000324
900.0	9.58e-05	14.0469999313
900.0	9.43e-05	14.0780000687
900.0	9.31e-05	14.125
900.0	9.22e-05	14.1559998989
900.0	9.18e-05	14.2030000687
900.0	9.15e-05	14.2339999676
900.0	9.12e-05	14.2660000324
900.0	9.08e-05	14.3120000362
900.0	9.07e-05	14.3439998627
900.0	9.07e-05	14.375
900.0	9.03e-05	14.4219999313
900.0	9.02e-05	14.4530000687
900.0	8.97e-05	14.4839999676
900.0	8.95e-05	14.5309998989
900.0	8.95e-05	14.5620000362
900.0	8.93e-05	14.6089999676
900.0	8.91e-05	14.6410000324
900.0	8.95e-05	14.6719999313
900.0	8.97e-05	14.7189998627
900.0	9.01e-05	14.75
900.0	9.02e-05	14.7809998989
900.0	9.02e-05	14.8280000687
900.0	9.01e-05	14.8589999676
900.0	9.01e-05	14.8910000324
900.0	9.03e-05	14.9370000362
900.0	9.03e-05	14.9689998627
900.0	9.01e-05	15.0160000324
900.0	8.97e-05	15.0469999313
900.0	8.96e-05	15.0780000687
900.0	8.95e-05	15.125
900.0	8.95e-05	15.1559998989
900.0	8.96e-05	15.2030000687
900.0	8.96e-05	15.2339999676
900.0	8.93e-05	15.2660000324
900.0	8.91e-05	15.3120000362
900.0	8.9e-05	15.3439998627
900.0	8.9e-05	15.3910000324
900.0	8.91e-05	15.4219999313
900.0	8.91e-05	15.4689998627
910.0	9.4e-05	15.7660000324
910.0	9.52e-05	15.7969999313
910.0	9.65e-05	15.8280000687
910.0	9.71e-05	15.875
910.0	9.77e-05	15.9059998989
910.0	9.83e-05	15.9530000687
910.0	9.88e-05	15.9839999676
910.0	9.88e-05	16.0160000324
910.0	9.88e-05	16.0620000362
910.0	9.87e-05	16.0939998627
910.0	9.87e-05	16.125
910.0	9.9e-05	16.1719999313
910.0	9.91e-05	16.2030000687
910.0	9.93e-05	16.25
910.0	9.97e-05	16.2809998989
910.0	0.0001	16.3280000687
910.0	9.97e-05	16.3589999676
910.0	9.97e-05	16.3910000324
910.0	9.97e-05	16.4370000362
910.0	9.97e-05	16.4689998627
910.0	9.97e-05	16.5160000324
910.0	0.0001	16.5469999313
910.0	0.0001001	16.5939998627
910.0	0.0001001	16.625
910.0	0.0001001	16.6719999313
910.0	0.0001001	16.7189998627
910.0	0.0001002	16.75
910.0	0.0001001	16.7969999313
910.0	0.0001001	16.8439998627
910.0	0.0001002	16.875
910.0	0.0001006	16.9219999313
910.0	0.0001007	16.9530000687
910.0	0.0001006	17.0
910.0	0.0001006	17.0469999313
910.0	0.0001008	17.0780000687
910.0	0.0001008	17.125
910.0	0.000101	17.1719999313
910.0	0.0001008	17.2030000687
910.0	0.0001008	17.25
920.0	0.0001053	17.5469999313
920.0	0.000107	17.5939998627
920.0	0.0001083	17.6410000324
920.0	0.0001091	17.6719999313
920.0	0.0001097	17.7189998627
920.0	0.0001106	17.75
920.0	0.0001112	17.7969999313
920.0	0.0001116	17.8439998627
920.0	0.000112	17.875
920.0	0.000112	17.9219999313
920.0	0.0001121	17.9689998627
920.0	0.0001121	18.0
920.0	0.000112	18.0469999313
920.0	0.0001115	18.0939998627
920.0	0.0001116	18.125
920.0	0.0001118	18.1719999313
920.0	0.0001118	18.2030000687
920.0	0.0001118	18.25
920.0	0.0001116	18.2969999313
920.0	0.0001115	18.3280000687
920.0	0.0001113	18.375
920.0	0.0001115	18.4059998989
920.0	0.0001112	18.4530000687
920.0	0.0001112	18.5
920.0	0.0001115	18.5309998989
920.0	0.0001115	18.5780000687
920.0	0.0001113	18.625
920.0	0.000111	18.6559998989
920.0	0.0001108	18.7030000687
920.0	0.0001113	18.75
920.0	0.0001112	18.7809998989
920.0	0.0001113	18.8280000687
920.0	0.0001113	18.8589999676
920.0	0.0001112	18.9059998989
920.0	0.0001115	18.9530000687
920.0	0.0001115	18.9839999676
920.0	0.0001115	19.0309998989
930.0	0.0001176	19.3280000687
930.0	0.000119	19.375
930.0	0.0001206	19.4059998989
930.0	0.0001218	19.4530000687
930.0	0.0001231	19.5
930.0	0.000124	19.5309998989
930.0	0.0001243	19.5780000687
930.0	0.0001246	19.625
930.0	0.000125	19.6559998989
930.0	0.000125	19.7030000687
930.0	0.0001251	19.7339999676
930.0	0.000125	19.7809998989
930.0	0.0001246	19.8280000687
930.0	0.0001246	19.8589999676
930.0	0.0001246	19.9059998989
930.0	0.0001246	19.9530000687
930.0	0.0001246	19.9839999676
930.0	0.0001246	20.0309998989
930.0	0.0001246	20.0620000362
930.0	0.0001247	20.1089999676
930.0	0.0001246	20.1559998989
930.0	0.0001245	20.1870000362
930.0	0.0001245	20.2339999676
930.0	0.0001245	20.2809998989
930.0	0.0001243	20.3120000362
930.0	0.0001241	20.3589999676
930.0	0.0001241	20.3910000324
930.0	0.0001243	20.4370000362
930.0	0.0001241	20.4839999676
930.0	0.0001243	20.5160000324
930.0	0.0001245	20.5620000362
930.0	0.0001245	20.6089999676
930.0	0.000125	20.6410000324
930.0	0.0001252	20.6870000362
930.0	0.0001253	20.7339999676
930.0	0.0001256	20.7660000324
930.0	0.0001256	20.8120000362
940.0	0.0001315	21.1089999676
940.0	0.0001333	21.1559998989
940.0	0.0001346	21.1870000362
940.0	0.0001356	21.2339999676
940.0	0.0001363	21.2660000324
940.0	0.0001371	21.3120000362
940.0	0.0001376	21.3589999676
940.0	0.0001377	21.3910000324
940.0	0.0001377	21.4370000362
940.0	0.0001377	21.4839999676
940.0	0.0001378	21.5160000324
940.0	0.0001377	21.5620000362
940.0	0.0001376	21.6089999676
940.0	0.0001377	21.6410000324
940.0	0.0001378	21.6870000362
940.0	0.0001378	21.7189998627
940.0	0.0001381	21.7660000324
940.0	0.0001383	21.8120000362
940.0	0.0001385	21.8439998627
940.0	0.0001387	21.8910000324
940.0	0.0001387	21.9370000362
940.0	0.0001388	21.9689998627
940.0	0.0001388	22.0160000324
940.0	0.000139	22.0469999313
940.0	0.0001393	22.0939998627
940.0	0.000139	22.1410000324
940.0	0.0001387	22.1719999313
940.0	0.0001387	22.2189998627
940.0	0.0001385	22.2660000324
940.0	0.0001383	22.2969999313
940.0	0.0001383	22.3439998627
940.0	0.0001382	22.375
940.0	0.0001385	22.4219999313
940.0	0.0001387	22.4689998627
940.0	0.0001383	22.5
940.0	0.0001383	22.5469999313
940.0	0.0001382	22.5939998627
950.0	0.0001447	22.8910000324
950.0	0.0001466	22.9219999313
950.0	0.0001481	22.9689998627
950.0	0.0001493	23.0
950.0	0.00015	23.0469999313
950.0	0.0001508	23.0939998627
950.0	0.0001515	23.125
950.0	0.0001518	23.1719999313
950.0	0.0001525	23.2189998627
950.0	0.0001526	23.25
950.0	0.0001525	23.2969999313
950.0	0.0001522	23.3280000687
950.0	0.0001521	23.375
950.0	0.0001526	23.4219999313
950.0	0.0001527	23.4530000687
950.0	0.0001527	23.5
950.0	0.0001527	23.5469999313
950.0	0.0001526	23.5780000687
950.0	0.0001525	23.625
950.0	0.0001522	23.6559998989
950.0	0.0001521	23.7030000687
950.0	0.0001521	23.75
950.0	0.000152	23.7809998989
950.0	0.000152	23.8280000687
950.0	0.000152	23.875
950.0	0.0001521	23.9059998989
950.0	0.0001521	23.9530000687
950.0	0.0001521	23.9839999676
950.0	0.0001522	24.0309998989
950.0	0.0001521	24.0780000687
950.0	0.0001521	24.1089999676
950.0	0.0001522	24.1559998989
950.0	0.0001522	24.2030000687
950.0	0.0001525	24.2339999676
950.0	0.0001521	24.2809998989
950.0	0.0001522	24.3120000362
950.0	0.0001525	24.3589999676
960.0	0.0001587	24.6559998989
960.0	0.0001607	24.6870000362
960.0	0.0001626	24.7339999676
960.0	0.0001638	24.7660000324
960.0	0.0001646	24.8120000362
960.0	0.0001651	24.8589999676
960.0	0.0001653	24.8910000324
960.0	0.0001657	24.9370000362
960.0	0.0001658	24.9839999676
960.0	0.0001662	25.0160000324
960.0	0.0001662	25.0620000362
960.0	0.0001666	25.0939998627
960.0	0.0001671	25.1410000324
960.0	0.0001671	25.1870000362
960.0	0.0001672	25.2189998627
960.0	0.0001671	25.2660000324
960.0	0.000167	25.3120000362
960.0	0.0001666	25.3439998627
960.0	0.0001665	25.3910000324
960.0	0.0001666	25.4370000362
960.0	0.0001665	25.4689998627
960.0	0.0001663	25.5160000324
960.0	0.0001663	25.5469999313
960.0	0.0001665	25.5939998627
960.0	0.0001663	25.6410000324
960.0	0.0001662	25.6719999313
960.0	0.0001662	25.7189998627
960.0	0.0001662	25.7660000324
960.0	0.0001663	25.7969999313
960.0	0.0001666	25.8439998627
960.0	0.0001668	25.875
960.0	0.0001668	25.9219999313
960.0	0.0001668	25.9689998627
960.0	0.0001666	26.0
960.0	0.0001666	26.0469999313
960.0	0.0001666	26.0939998627
960.0	0.000167	26.125
970.0	0.0001727	26.4059998989
970.0	0.0001747	26.4530000687
970.0	0.0001765	26.5
970.0	0.0001776	26.5309998989
970.0	0.0001785	26.5780000687
970.0	0.000179	26.6089999676
970.0	0.0001796	26.6559998989
970.0	0.0001801	26.7030000687
970.0	0.0001801	26.7339999676
970.0	0.0001802	26.7809998989
970.0	0.0001802	26.8280000687
970.0	0.0001803	26.8589999676
970.0	0.0001808	26.9059998989
970.0	0.000181	26.9370000362
970.0	0.0001808	26.9839999676
970.0	0.0001812	27.0309998989
970.0	0.0001816	27.0620000362
970.0	0.000182	27.1089999676
970.0	0.0001822	27.1559998989
970.0	0.0001825	27.1870000362
970.0	0.0001825	27.2339999676
970.0	0.0001822	27.2809998989
970.0	0.0001818	27.3120000362
970.0	0.0001815	27.3589999676
970.0	0.0001816	27.3910000324
970.0	0.0001815	27.4370000362
970.0	0.000182	27.4839999676
970.0	0.000182	27.5160000324
970.0	0.0001816	27.5620000362
970.0	0.0001816	27.6089999676
970.0	0.0001815	27.6410000324
970.0	0.0001815	27.6870000362
970.0	0.0001815	27.7189998627
970.0	0.0001812	27.7660000324
970.0	0.0001815	27.8120000362
970.0	0.0001816	27.8589999676
970.0	0.0001816	27.8910000324
980.0	0.0001883	28.1719999313
980.0	0.0001906	28.2189998627
980.0	0.0001922	28.2660000324
980.0	0.0001935	28.2969999313
980.0	0.0001943	28.3439998627
980.0	0.000195	28.375
980.0	0.0001957	28.4219999313
980.0	0.0001962	28.4689998627
980.0	0.0001965	28.5
980.0	0.0001968	28.5469999313
980.0	0.000197	28.5939998627
980.0	0.000197	28.625
980.0	0.0001968	28.6719999313
980.0	0.000197	28.7189998627
980.0	0.0001971	28.75
980.0	0.0001971	28.7969999313
980.0	0.000197	28.8280000687
980.0	0.0001968	28.875
980.0	0.0001968	28.9219999313
980.0	0.0001965	28.9530000687
980.0	0.000196	29.0
980.0	0.0001958	29.0469999313
980.0	0.0001957	29.0780000687
980.0	0.0001956	29.125
980.0	0.0001956	29.1719999313
980.0	0.0001958	29.2030000687
980.0	0.000196	29.25
980.0	0.0001962	29.2969999313
980.0	0.0001963	29.3280000687
980.0	0.0001965	29.375
980.0	0.0001965	29.4059998989
980.0	0.0001963	29.4530000687
980.0	0.0001963	29.5
980.0	0.0001963	29.5469999313
980.0	0.0001963	29.5780000687
980.0	0.0001965	29.625
980.0	0.0001962	29.6559998989
990.0	0.0002022	29.9370000362
990.0	0.0002046	29.9839999676
990.0	0.0002065	30.0309998989
990.0	0.0002082	30.0620000362
990.0	0.0002091	30.1089999676
990.0	0.00021	30.1559998989
990.0	0.0002106	30.1870000362
990.0	0.0002112	30.2339999676
990.0	0.0002115	30.2660000324
990.0	0.0002116	30.3120000362
990.0	0.0002116	30.3589999676
990.0	0.0002116	30.3910000324
990.0	0.0002112	30.4370000362
990.0	0.0002108	30.4839999676
990.0	0.0002107	30.5160000324
990.0	0.0002106	30.5620000362
990.0	0.0002103	30.5939998627
990.0	0.0002106	30.6410000324
990.0	0.0002106	30.6870000362
990.0	0.0002107	30.7189998627
990.0	0.0002107	30.7660000324
990.0	0.0002106	30.8120000362
990.0	0.0002107	30.8439998627
990.0	0.0002108	30.8910000324
990.0	0.0002108	30.9370000362
990.0	0.0002108	30.9689998627
990.0	0.000211	31.0160000324
990.0	0.0002115	31.0620000362
990.0	0.0002116	31.0939998627
990.0	0.0002113	31.1410000324
990.0	0.000211	31.1870000362
990.0	0.000211	31.2189998627
990.0	0.0002108	31.2660000324
990.0	0.0002113	31.3120000362
990.0	0.0002115	31.3439998627
990.0	0.0002116	31.3910000324
990.0	0.0002116	31.4370000362
1000.0	0.0002181	31.7030000687
1000.0	0.0002201	31.75
1000.0	0.0002215	31.7969999313
1000.0	0.0002228	31.8439998627
1000.0	0.0002238	31.875
1000.0	0.0002246	31.9219999313
1000.0	0.0002253	31.9530000687
1000.0	0.0002258	32.0
1000.0	0.000226	32.0469999313
1000.0	0.0002263	32.0780000687
1000.0	0.0002263	32.125
1000.0	0.0002265	32.1719999313
1000.0	0.0002265	32.2030000687
1000.0	0.0002262	32.25
1000.0	0.0002258	32.2809998989
1000.0	0.0002256	32.3280000687
1000.0	0.0002256	32.375
1000.0	0.0002258	32.4059998989
1000.0	0.0002258	32.4530000687
1000.0	0.000226	32.5
1000.0	0.0002262	32.5309998989
1000.0	0.0002262	32.5780000687
1000.0	0.0002262	32.6089999676
1000.0	0.0002265	32.6559998989
1000.0	0.0002263	32.7030000687
1000.0	0.0002262	32.7339999676
1000.0	0.0002257	32.7809998989
1000.0	0.0002253	32.8280000687
1000.0	0.0002253	32.8589999676
1000.0	0.0002251	32.9059998989
1000.0	0.0002251	32.9530000687
1000.0	0.0002256	32.9839999676
1000.0	0.0002258	33.0309998989
1000.0	0.000226	33.0620000362
1000.0	0.0002265	33.1089999676
1000.0	0.0002263	33.1559998989
1000.0	0.0002263	33.1870000362
1010.0	0.0002327	33.4689998627
1010.0	0.000235	33.5160000324
1010.0	0.0002365	33.5469999313
1010.0	0.0002378	33.5939998627
1010.0	0.0002388	33.6410000324
1010.0	0.0002395	33.6719999313
1010.0	0.0002402	33.7189998627
1010.0	0.0002408	33.7660000324
1010.0	0.0002412	33.7969999313
1010.0	0.0002413	33.8439998627
1010.0	0.0002416	33.875
1010.0	0.0002416	33.9219999313
1010.0	0.0002421	33.9689998627
1010.0	0.0002426	34.0
1010.0	0.0002426	34.0469999313
1010.0	0.0002427	34.0939998627
1010.0	0.0002427	34.125
1010.0	0.0002427	34.1719999313
1010.0	0.0002427	34.2030000687
1010.0	0.0002426	34.25
1010.0	0.0002425	34.2969999313
1010.0	0.0002425	34.3280000687
1010.0	0.0002422	34.375
1010.0	0.0002422	34.4219999313
1010.0	0.0002426	34.4530000687
1010.0	0.0002428	34.5
1010.0	0.0002431	34.5309998989
1010.0	0.0002427	34.5780000687
1010.0	0.0002427	34.625
1010.0	0.0002427	34.6559998989
1010.0	0.0002427	34.7030000687
1010.0	0.0002426	34.75
1010.0	0.0002426	34.7809998989
1010.0	0.0002425	34.8280000687
1010.0	0.0002426	34.875
1010.0	0.0002425	34.9059998989
1010.0	0.0002425	34.9530000687
1020.0	0.0002482	35.2339999676
1020.0	0.0002502	35.2660000324
1020.0	0.0002522	35.3120000362
1020.0	0.0002543	35.3589999676
1020.0	0.0002557	35.3910000324
1020.0	0.0002566	35.4370000362
1020.0	0.000257	35.4689998627
1020.0	0.0002571	35.5160000324
1020.0	0.0002576	35.5620000362
1020.0	0.0002577	35.5939998627
1020.0	0.0002577	35.6410000324
1020.0	0.0002578	35.6870000362
1020.0	0.0002582	35.7189998627
1020.0	0.0002583	35.7660000324
1020.0	0.0002583	35.7969999313
1020.0	0.0002583	35.8439998627
1020.0	0.0002582	35.8910000324
1020.0	0.0002581	35.9219999313
1020.0	0.0002582	35.9689998627
1020.0	0.0002587	36.0160000324
1020.0	0.0002587	36.0469999313
1020.0	0.0002588	36.0939998627
1020.0	0.0002588	36.1410000324
1020.0	0.000259	36.1719999313
1020.0	0.000259	36.2189998627
1020.0	0.0002588	36.2660000324
1020.0	0.0002587	36.2969999313
1020.0	0.0002587	36.3439998627
1020.0	0.0002585	36.3910000324
1020.0	0.0002587	36.4219999313
1020.0	0.0002587	36.4689998627
1020.0	0.0002587	36.5
1020.0	0.0002583	36.5469999313
1020.0	0.0002581	36.5939998627
1020.0	0.0002581	36.625
1020.0	0.0002578	36.6719999313
1020.0	0.0002577	36.7189998627
1030.0	0.0002643	36.9839999676
1030.0	0.0002666	37.0309998989
1030.0	0.0002687	37.0780000687
1030.0	0.0002702	37.1089999676
1030.0	0.0002715	37.1559998989
1030.0	0.0002725	37.2030000687
1030.0	0.0002732	37.2339999676
1030.0	0.0002738	37.2809998989
1030.0	0.0002743	37.3120000362
1030.0	0.0002746	37.3589999676
1030.0	0.0002752	37.4059998989
1030.0	0.0002757	37.4370000362
1030.0	0.0002758	37.4839999676
1030.0	0.0002756	37.5309998989
1030.0	0.0002752	37.5620000362
1030.0	0.0002751	37.6089999676
1030.0	0.0002752	37.6410000324
1030.0	0.0002752	37.6870000362
1030.0	0.0002751	37.7339999676
1030.0	0.0002751	37.7660000324
1030.0	0.0002752	37.8120000362
1030.0	0.0002753	37.8589999676
1030.0	0.0002757	37.8910000324
1030.0	0.0002757	37.9370000362
1030.0	0.0002758	37.9839999676
1030.0	0.000276	38.0160000324
1030.0	0.0002758	38.0620000362
1030.0	0.0002758	38.0939998627
1030.0	0.000276	38.1410000324
1030.0	0.0002762	38.1870000362
1030.0	0.0002762	38.2189998627
1030.0	0.000276	38.2660000324
1030.0	0.0002758	38.3120000362
1030.0	0.0002757	38.3439998627
1030.0	0.0002753	38.3910000324
1030.0	0.0002752	38.4219999313
1030.0	0.0002756	38.4689998627
1040.0	0.0002828	38.75
1040.0	0.0002851	38.7969999313
1040.0	0.0002866	38.8439998627
1040.0	0.0002882	38.875
1040.0	0.0002893	38.9219999313
1040.0	0.00029	38.9689998627
1040.0	0.0002907	39.0
1040.0	0.0002913	39.0469999313
1040.0	0.0002915	39.0939998627
1040.0	0.0002918	39.125
1040.0	0.0002916	39.1719999313
1040.0	0.0002916	39.2030000687
1040.0	0.0002918	39.25
1040.0	0.0002921	39.2969999313
1040.0	0.0002925	39.3280000687
1040.0	0.0002928	39.375
1040.0	0.0002927	39.4059998989
1040.0	0.0002925	39.4530000687
1040.0	0.0002926	39.5
1040.0	0.0002926	39.5309998989
1040.0	0.0002928	39.5780000687
1040.0	0.0002931	39.625
1040.0	0.0002932	39.6559998989
1040.0	0.0002933	39.7030000687
1040.0	0.0002931	39.75
1040.0	0.0002928	39.7809998989
1040.0	0.0002932	39.8280000687
1040.0	0.0002932	39.8589999676
1040.0	0.0002932	39.9059998989
1040.0	0.0002932	39.9530000687
1040.0	0.0002931	39.9839999676
1040.0	0.0002928	40.0309998989
1040.0	0.0002928	40.0780000687
1040.0	0.0002927	40.1089999676
1040.0	0.0002927	40.1559998989
1040.0	0.0002927	40.1870000362
1040.0	0.0002927	40.2339999676
1050.0	0.0002996	40.5160000324
1050.0	0.000302	40.5620000362
1050.0	0.000304	40.5939998627
1050.0	0.0003053	40.6410000324
1050.0	0.0003065	40.6870000362
1050.0	0.0003076	40.7189998627
1050.0	0.0003082	40.7660000324
1050.0	0.000309	40.8120000362
1050.0	0.0003096	40.8439998627
1050.0	0.00031	40.8910000324
1050.0	0.0003103	40.9370000362
1050.0	0.0003106	40.9689998627
1050.0	0.0003106	41.0160000324
1050.0	0.0003107	41.0620000362
1050.0	0.0003107	41.0939998627
1050.0	0.0003107	41.1410000324
1050.0	0.0003106	41.1870000362
1050.0	0.0003102	41.2189998627
1050.0	0.0003102	41.2660000324
1050.0	0.0003101	41.2969999313
1050.0	0.00031	41.3439998627
1050.0	0.0003097	41.3910000324
1050.0	0.0003097	41.4219999313
1050.0	0.00031	41.4689998627
1050.0	0.00031	41.5160000324
1050.0	0.0003096	41.5469999313
1050.0	0.0003096	41.5939998627
1050.0	0.0003096	41.6410000324
1050.0	0.0003096	41.6719999313
1050.0	0.0003096	41.7189998627
1050.0	0.0003095	41.75
1050.0	0.0003093	41.7969999313
1050.0	0.0003093	41.8439998627
1050.0	0.000309	41.875
1050.0	0.0003091	41.9219999313
1050.0	0.0003095	41.9689998627
1060.0	0.0003171	42.2339999676
1060.0	0.0003197	42.2809998989
1060.0	0.0003215	42.3280000687
1060.0	0.0003232	42.375
1060.0	0.0003246	42.4059998989
1060.0	0.0003255	42.4530000687
1060.0	0.0003257	42.4839999676
1060.0	0.0003258	42.5309998989
1060.0	0.0003261	42.5780000687
1060.0	0.0003265	42.6089999676
1060.0	0.0003268	42.6559998989
1060.0	0.0003271	42.7030000687
1060.0	0.0003273	42.7339999676
1060.0	0.0003271	42.7809998989
1060.0	0.0003273	42.8280000687
1060.0	0.0003276	42.8589999676
1060.0	0.0003276	42.9059998989
1060.0	0.0003273	42.9530000687
1060.0	0.0003271	42.9839999676
1060.0	0.0003273	43.0309998989
1060.0	0.0003275	43.0620000362
1060.0	0.0003275	43.1089999676
1060.0	0.0003277	43.1559998989
1060.0	0.0003276	43.1870000362
1060.0	0.0003275	43.2339999676
1060.0	0.0003276	43.2809998989
1060.0	0.000328	43.3120000362
1060.0	0.0003277	43.3589999676
1060.0	0.0003281	43.4059998989
1060.0	0.0003282	43.4370000362
1060.0	0.0003282	43.4839999676
1060.0	0.0003281	43.5309998989
1060.0	0.0003276	43.5620000362
1060.0	0.000328	43.6089999676
1060.0	0.000328	43.6559998989
1060.0	0.000328	43.6870000362
1060.0	0.0003282	43.7339999676
1070.0	0.0003333	44.0160000324
1070.0	0.0003356	44.0469999313
1070.0	0.0003373	44.0939998627
1070.0	0.0003388	44.1410000324
1070.0	0.0003405	44.1719999313
1070.0	0.0003417	44.2189998627
1070.0	0.0003426	44.25
1070.0	0.0003432	44.2969999313
1070.0	0.0003438	44.3439998627
1070.0	0.0003445	44.375
1070.0	0.000345	44.4219999313
1070.0	0.000345	44.4689998627
1070.0	0.0003448	44.5
1070.0	0.0003448	44.5469999313
1070.0	0.0003443	44.5939998627
1070.0	0.0003445	44.625
1070.0	0.0003445	44.6719999313
1070.0	0.0003442	44.7189998627
1070.0	0.0003438	44.75
1070.0	0.0003436	44.7969999313
1070.0	0.0003433	44.8439998627
1070.0	0.0003436	44.875
1070.0	0.0003436	44.9219999313
1070.0	0.0003437	44.9530000687
1070.0	0.0003438	45.0
1070.0	0.0003442	45.0469999313
1070.0	0.0003445	45.0780000687
1070.0	0.0003445	45.125
1070.0	0.0003442	45.1719999313
1070.0	0.0003438	45.2030000687
1070.0	0.0003438	45.25
1070.0	0.0003442	45.2809998989
1070.0	0.0003442	45.3280000687
1070.0	0.0003442	45.375
1070.0	0.0003443	45.4059998989
1070.0	0.0003445	45.4530000687
1070.0	0.0003446	45.5
1080.0	0.00035	45.7660000324
1080.0	0.0003518	45.8120000362
1080.0	0.0003538	45.8589999676
1080.0	0.0003555	45.8910000324
1080.0	0.0003567	45.9370000362
1080.0	0.0003576	45.9839999676
1080.0	0.0003582	46.0309998989
1080.0	0.0003587	46.0620000362
1080.0	0.0003587	46.1089999676
1080.0	0.0003588	46.1559998989
1080.0	0.0003588	46.1870000362
1080.0	0.0003592	46.2339999676
1080.0	0.0003588	46.2660000324
1080.0	0.000359	46.3120000362
1080.0	0.0003593	46.3589999676
1080.0	0.0003598	46.3910000324
1080.0	0.0003602	46.4370000362
1080.0	0.0003602	46.4839999676
1080.0	0.0003602	46.5160000324
1080.0	0.0003601	46.5620000362
1080.0	0.0003601	46.6089999676
1080.0	0.0003602	46.6410000324
1080.0	0.0003602	46.6870000362
1080.0	0.00036	46.7189998627
1080.0	0.0003596	46.7660000324
1080.0	0.0003593	46.8120000362
1080.0	0.0003587	46.8439998627
1080.0	0.0003586	46.8910000324
1080.0	0.0003586	46.9370000362
1080.0	0.0003586	46.9689998627
1080.0	0.0003586	47.0160000324
1080.0	0.0003588	47.0469999313
1080.0	0.0003595	47.0939998627
1080.0	0.0003598	47.1410000324
1080.0	0.0003595	47.1719999313
1080.0	0.0003598	47.2189998627
1080.0	0.00036	47.2660000324
1090.0	0.0003651	47.5309998989
1090.0	0.0003667	47.5780000687
1090.0	0.0003681	47.6089999676
1090.0	0.0003693	47.6559998989
1090.0	0.0003701	47.7030000687
1090.0	0.0003708	47.7339999676
1090.0	0.0003713	47.7809998989
1090.0	0.0003718	47.8280000687
1090.0	0.000372	47.8589999676
1090.0	0.0003723	47.9059998989
1090.0	0.0003726	47.9530000687
1090.0	0.0003731	47.9839999676
1090.0	0.0003736	48.0309998989
1090.0	0.0003733	48.0780000687
1090.0	0.0003733	48.1089999676
1090.0	0.0003732	48.1559998989
1090.0	0.0003731	48.2030000687
1090.0	0.0003727	48.2339999676
1090.0	0.0003726	48.2809998989
1090.0	0.0003727	48.3120000362
1090.0	0.000373	48.3589999676
1090.0	0.0003727	48.4059998989
1090.0	0.0003732	48.4370000362
1090.0	0.0003737	48.4839999676
1090.0	0.0003737	48.5309998989
1090.0	0.0003737	48.5620000362
1090.0	0.0003738	48.6089999676
1090.0	0.0003738	48.6410000324
1090.0	0.0003742	48.6870000362
1090.0	0.0003738	48.7339999676
1090.0	0.0003737	48.7660000324
1090.0	0.0003737	48.8120000362
1090.0	0.0003736	48.8589999676
1090.0	0.0003738	48.8910000324
1090.0	0.0003738	48.9370000362
1090.0	0.0003736	48.9689998627
1090.0	0.0003736	49.0160000324
1100.0	0.000378	49.2969999313
1100.0	0.0003792	49.3280000687
1100.0	0.0003805	49.375
1100.0	0.0003813	49.4219999313
1100.0	0.0003821	49.4530000687
1100.0	0.000383	49.5
1100.0	0.0003837	49.5469999313
1100.0	0.000384	49.5780000687
1100.0	0.0003838	49.625
1100.0	0.000384	49.6559998989
1100.0	0.000384	49.7030000687
1100.0	0.0003838	49.75
1100.0	0.000384	49.7809998989
1100.0	0.0003843	49.8280000687
1100.0	0.0003845	49.8589999676
1100.0	0.0003846	49.9059998989
1100.0	0.0003846	49.9530000687
1100.0	0.0003848	49.9839999676
1100.0	0.0003851	50.0309998989
1100.0	0.0003851	50.0780000687
1100.0	0.0003851	50.1089999676
1100.0	0.0003848	50.1559998989
1100.0	0.0003843	50.2030000687
1100.0	0.0003842	50.2339999676
1100.0	0.000384	50.2809998989
1100.0	0.0003838	50.3120000362
1100.0	0.0003837	50.3589999676
1100.0	0.0003836	50.4059998989
1100.0	0.0003838	50.4370000362
1100.0	0.000384	50.4839999676
1100.0	0.0003842	50.5309998989
1100.0	0.0003845	50.5620000362
1100.0	0.0003846	50.6089999676
1100.0	0.0003848	50.6410000324
1100.0	0.0003851	50.6870000362
1100.0	0.0003855	50.7339999676
1100.0	0.0003855	50.7660000324
1110.0	0.000388	51.0469999313
1110.0	0.000389	51.0780000687
1110.0	0.0003898	51.125
1110.0	0.0003906	51.1719999313
1110.0	0.0003908	51.2189998627
1110.0	0.0003908	51.25
1110.0	0.0003913	51.2969999313
1110.0	0.000392	51.3280000687
1110.0	0.0003925	51.375
1110.0	0.000393	51.4219999313
1110.0	0.0003932	51.4530000687
1110.0	0.0003932	51.5
1110.0	0.0003931	51.5469999313
1110.0	0.0003932	51.5939998627
1110.0	0.0003932	51.6410000324
1110.0	0.000393	51.6870000362
1110.0	0.0003927	51.7189998627
1110.0	0.0003926	51.7660000324
1110.0	0.000393	51.8120000362
1110.0	0.000393	51.8439998627
1110.0	0.0003925	51.8910000324
1110.0	0.0003926	51.9370000362
1110.0	0.0003926	51.9689998627
1110.0	0.0003927	52.0160000324
1110.0	0.0003931	52.0469999313
1110.0	0.0003932	52.0939998627
1110.0	0.0003931	52.1410000324
1110.0	0.0003927	52.1719999313
1110.0	0.000393	52.2189998627
1110.0	0.0003931	52.2660000324
1110.0	0.000393	52.2969999313
1110.0	0.0003926	52.3439998627
1110.0	0.0003926	52.375
1110.0	0.0003923	52.4219999313
1110.0	0.0003926	52.4689998627
1110.0	0.000393	52.5
1120.0	0.0003956	52.7660000324
1120.0	0.0003965	52.8120000362
1120.0	0.0003973	52.8589999676
1120.0	0.0003977	52.8910000324
1120.0	0.000398	52.9370000362
1120.0	0.0003981	52.9839999676
1120.0	0.0003982	53.0160000324
1120.0	0.0003983	53.0620000362
1120.0	0.0003982	53.0939998627
1120.0	0.0003983	53.1410000324
1120.0	0.0003982	53.1870000362
1120.0	0.000398	53.2189998627
1120.0	0.0003981	53.2660000324
1120.0	0.0003982	53.3120000362
1120.0	0.0003981	53.3439998627
1120.0	0.000398	53.3910000324
1120.0	0.0003982	53.4370000362
1120.0	0.0003986	53.4689998627
1120.0	0.0003983	53.5160000324
1120.0	0.0003982	53.5620000362
1120.0	0.0003983	53.5939998627
1120.0	0.0003982	53.6410000324
1120.0	0.0003981	53.6719999313
1120.0	0.0003986	53.7189998627
1120.0	0.0003992	53.7660000324
1120.0	0.0003993	53.7969999313
1120.0	0.0003993	53.8439998627
1120.0	0.0003993	53.8910000324
1120.0	0.0003993	53.9219999313
1120.0	0.0003988	53.9689998627
1120.0	0.0003982	54.0160000324
1120.0	0.000398	54.0469999313
1120.0	0.000398	54.0939998627
1120.0	0.0003977	54.1410000324
1120.0	0.0003976	54.1719999313
1120.0	0.0003977	54.2189998627
1120.0	0.0003976	54.2660000324
1130.0	0.0003986	54.5309998989
1130.0	0.0003988	54.5620000362
1130.0	0.000399	54.6089999676
1130.0	0.0003993	54.6410000324
1130.0	0.0003996	54.6870000362
1130.0	0.0004001	54.7339999676
1130.0	0.0004002	54.7660000324
1130.0	0.0004006	54.8120000362
1130.0	0.0004013	54.8589999676
1130.0	0.0004015	54.8910000324
1130.0	0.0004018	54.9370000362
1130.0	0.0004023	54.9839999676
1130.0	0.0004021	55.0160000324
1130.0	0.000402	55.0620000362
1130.0	0.0004015	55.1089999676
1130.0	0.0004018	55.1410000324
1130.0	0.0004021	55.1870000362
1130.0	0.000402	55.2339999676
1130.0	0.000402	55.2660000324
1130.0	0.0004017	55.3120000362
1130.0	0.0004012	55.3589999676
1130.0	0.0004012	55.3910000324
1130.0	0.0004013	55.4370000362
1130.0	0.0004013	55.4839999676
1130.0	0.0004012	55.5160000324
1130.0	0.0004012	55.5620000362
1130.0	0.0004013	55.6089999676
1130.0	0.0004012	55.6410000324
1130.0	0.0004008	55.6870000362
1130.0	0.0004011	55.7189998627
1130.0	0.0004011	55.7660000324
1130.0	0.0004007	55.8120000362
1130.0	0.0004011	55.8439998627
1130.0	0.0004013	55.8910000324
1130.0	0.0004015	55.9370000362
1130.0	0.0004015	55.9689998627
1130.0	0.0004017	56.0160000324
1140.0	0.000402	56.2809998989
1140.0	0.0004023	56.3120000362
1140.0	0.0004025	56.3589999676
1140.0	0.0004023	56.4059998989
1140.0	0.0004023	56.4370000362
1140.0	0.0004026	56.4839999676
1140.0	0.0004026	56.5309998989
1140.0	0.0004023	56.5620000362
1140.0	0.000402	56.6089999676
1140.0	0.0004021	56.6559998989
1140.0	0.000402	56.6870000362
1140.0	0.0004018	56.7339999676
1140.0	0.0004025	56.7660000324
1140.0	0.000403	56.8120000362
1140.0	0.0004027	56.8589999676
1140.0	0.0004023	56.8910000324
1140.0	0.000402	56.9370000362
1140.0	0.000402	56.9839999676
1140.0	0.0004017	57.0160000324
1140.0	0.0004018	57.0620000362
1140.0	0.0004021	57.0939998627
1140.0	0.0004023	57.1410000324
1140.0	0.0004023	57.1870000362
1140.0	0.0004023	57.2189998627
1140.0	0.0004021	57.2660000324
1140.0	0.0004018	57.3120000362
1140.0	0.0004017	57.3439998627
1140.0	0.0004017	57.3910000324
1140.0	0.000402	57.4219999313
1140.0	0.000402	57.4689998627
1140.0	0.000402	57.5160000324
1140.0	0.0004021	57.5469999313
1140.0	0.0004018	57.5939998627
1140.0	0.0004018	57.6410000324
1140.0	0.000402	57.6719999313
1140.0	0.000402	57.7189998627
1140.0	0.0004018	57.7660000324
1150.0	0.0004031	58.0309998989
1150.0	0.000403	58.0620000362
1150.0	0.0004027	58.1089999676
1150.0	0.0004025	58.1410000324
1150.0	0.0004021	58.1870000362
1150.0	0.0004018	58.2339999676
1150.0	0.0004013	58.2660000324
1150.0	0.0004015	58.3120000362
1150.0	0.0004015	58.3589999676
1150.0	0.0004012	58.3910000324
1150.0	0.0004012	58.4370000362
1150.0	0.0004012	58.4689998627
1150.0	0.0004015	58.5160000324
1150.0	0.0004018	58.5620000362
1150.0	0.000402	58.6089999676
1150.0	0.0004018	58.6410000324
1150.0	0.0004013	58.6870000362
1150.0	0.0004011	58.7339999676
1150.0	0.0004013	58.7660000324
1150.0	0.0004011	58.8120000362
1150.0	0.0004007	58.8439998627
1150.0	0.0004008	58.8910000324
1150.0	0.0004007	58.9370000362
1150.0	0.0004002	58.9689998627
1150.0	0.0004002	59.0160000324
1150.0	0.0004006	59.0620000362
1150.0	0.0004011	59.0939998627
1150.0	0.0004012	59.1410000324
1150.0	0.0004012	59.1719999313
1150.0	0.0004015	59.2189998627
1150.0	0.0004013	59.2660000324
1150.0	0.0004011	59.2969999313
1150.0	0.0004011	59.3439998627
1150.0	0.0004006	59.3910000324
1150.0	0.0004002	59.4219999313
1150.0	0.0004	59.4689998627
1150.0	0.0004	59.5
1160.0	0.0003995	59.7809998989
1160.0	0.0003993	59.8120000362
1160.0	0.0003993	59.8589999676
1160.0	0.0003995	59.8910000324
1160.0	0.0003995	59.9370000362
1160.0	0.0003998	59.9839999676
1160.0	0.0003998	60.0160000324
1160.0	0.0003992	60.0620000362
1160.0	0.0003995	60.1089999676
1160.0	0.0003996	60.1410000324
1160.0	0.0003996	60.1870000362
1160.0	0.0003996	60.2189998627
1160.0	0.0004001	60.2660000324
1160.0	0.0004006	60.3120000362
1160.0	0.0004008	60.3439998627
1160.0	0.0004007	60.3910000324
1160.0	0.0004006	60.4370000362
1160.0	0.0004008	60.4689998627
1160.0	0.0004001	60.5160000324
1160.0	0.0004	60.5620000362
1160.0	0.0004	60.5939998627
1160.0	0.0004	60.6410000324
1160.0	0.0004001	60.6719999313
1160.0	0.0004002	60.7189998627
1160.0	0.0004002	60.7660000324
1160.0	0.0004002	60.7969999313
1160.0	0.0004005	60.8439998627
1160.0	0.0004007	60.8910000324
1160.0	0.0004012	60.9219999313
1160.0	0.0004007	60.9689998627
1160.0	0.0004007	61.0
1160.0	0.0004006	61.0469999313
1160.0	0.0004002	61.0939998627
1160.0	0.0004	61.125
1160.0	0.0004001	61.1719999313
1160.0	0.0004008	61.2189998627
1160.0	0.0004012	61.25
1170.0	0.0004006	61.5309998989
1170.0	0.0004001	61.5620000362
1170.0	0.0003996	61.6089999676
1170.0	0.0003995	61.6410000324
1170.0	0.0003998	61.6870000362
1170.0	0.0003996	61.7339999676
1170.0	0.0003995	61.7660000324
1170.0	0.0003995	61.8120000362
1170.0	0.0003995	61.8589999676
1170.0	0.0003995	61.8910000324
1170.0	0.0003993	61.9370000362
1170.0	0.0003992	61.9689998627
1170.0	0.0003992	62.0160000324
1170.0	0.0003992	62.0620000362
1170.0	0.0003993	62.1089999676
1170.0	0.0003995	62.1410000324
1170.0	0.0003992	62.1870000362
1170.0	0.000399	62.2189998627
1170.0	0.000399	62.2660000324
1170.0	0.0003987	62.3120000362
1170.0	0.0003986	62.3439998627
1170.0	0.0003983	62.3910000324
1170.0	0.0003986	62.4370000362
1170.0	0.0003987	62.4689998627
1170.0	0.0003992	62.5160000324
1170.0	0.0003998	62.5620000362
1170.0	0.0004001	62.5939998627
1170.0	0.0004	62.6410000324
1170.0	0.0003998	62.6719999313
1170.0	0.0003998	62.7189998627
1170.0	0.0003995	62.7660000324
1170.0	0.0003993	62.7969999313
1170.0	0.0003993	62.8439998627
1170.0	0.0003995	62.8910000324
1170.0	0.0003995	62.9219999313
1170.0	0.0003992	62.9689998627
1170.0	0.0003995	63.0
1180.0	0.000399	63.2809998989
1180.0	0.000399	63.3120000362
1180.0	0.0003988	63.3589999676
1180.0	0.0003987	63.4059998989
1180.0	0.0003986	63.4370000362
1180.0	0.0003988	63.4839999676
1180.0	0.0003986	63.5309998989
1180.0	0.0003983	63.5620000362
1180.0	0.0003986	63.6089999676
1180.0	0.0003982	63.6410000324
1180.0	0.0003977	63.6870000362
1180.0	0.0003976	63.7339999676
1180.0	0.0003976	63.7660000324
1180.0	0.0003977	63.8120000362
1180.0	0.000398	63.8589999676
1180.0	0.0003981	63.8910000324
1180.0	0.0003986	63.9370000362
1180.0	0.0003982	63.9689998627
1180.0	0.0003983	64.0160000324
1180.0	0.0003987	64.0620000362
1180.0	0.0003987	64.0939998627
1180.0	0.0003987	64.1410000324
1180.0	0.0003983	64.1870000362
1180.0	0.0003986	64.2189998627
1180.0	0.0003982	64.2660000324
1180.0	0.0003982	64.2969999313
1180.0	0.0003982	64.3439998627
1180.0	0.0003983	64.3910000324
1180.0	0.0003983	64.4219999313
1180.0	0.0003983	64.4689998627
1180.0	0.0003986	64.5160000324
1180.0	0.0003986	64.5469999313
1180.0	0.0003982	64.5939998627
1180.0	0.000398	64.6410000324
1180.0	0.0003977	64.6719999313
1180.0	0.0003981	64.7189998627
1180.0	0.0003981	64.75
1190.0	0.0003986	65.0309998989
1190.0	0.0003986	65.0620000362
1190.0	0.0003987	65.1089999676
1190.0	0.0003987	65.1559998989
1190.0	0.000399	65.1870000362
1190.0	0.0003993	65.2339999676
1190.0	0.0003996	65.2809998989
1190.0	0.0003995	65.3120000362
1190.0	0.0003993	65.3589999676
1190.0	0.0003992	65.3910000324
1190.0	0.0003995	65.4370000362
1190.0	0.0003996	65.4839999676
1190.0	0.0003995	65.5160000324
1190.0	0.0003992	65.5620000362
1190.0	0.0003992	65.6089999676
1190.0	0.000399	65.6410000324
1190.0	0.000399	65.6870000362
1190.0	0.000399	65.7189998627
1190.0	0.000399	65.7660000324
1190.0	0.000399	65.8120000362
1190.0	0.0003992	65.8439998627
1190.0	0.000399	65.8910000324
1190.0	0.0003993	65.9370000362
1190.0	0.0003992	65.9689998627
1190.0	0.0003993	66.0160000324
1190.0	0.0003995	66.0469999313
1190.0	0.0003995	66.0939998627
1190.0	0.0003993	66.1410000324
1190.0	0.0003995	66.1719999313
1190.0	0.0003992	66.2189998627
1190.0	0.0003992	66.2660000324
1190.0	0.0003992	66.2969999313
1190.0	0.0003992	66.3439998627
1190.0	0.000399	66.3910000324
1190.0	0.000399	66.4219999313
1190.0	0.0003992	66.4689998627
1190.0	0.0003993	66.5
1200.0	0.0004005	66.7809998989
1200.0	0.0004007	66.8120000362
1200.0	0.0004011	66.8589999676
1200.0	0.0004011	66.9059998989
1200.0	0.0004012	66.9370000362
1200.0	0.0004015	66.9839999676
1200.0	0.0004013	67.0160000324
1200.0	0.0004013	67.0620000362
1200.0	0.0004015	67.1089999676
1200.0	0.0004017	67.1410000324
1200.0	0.0004017	67.1870000362
1200.0	0.000402	67.2339999676
1200.0	0.000402	67.2660000324
1200.0	0.0004018	67.3120000362
1200.0	0.0004015	67.3589999676
1200.0	0.0004017	67.3910000324
1200.0	0.0004017	67.4370000362
1200.0	0.0004013	67.4689998627
1200.0	0.0004012	67.5160000324
1200.0	0.0004013	67.5620000362
1200.0	0.0004017	67.5939998627
1200.0	0.000402	67.6410000324
1200.0	0.0004021	67.6870000362
1200.0	0.0004026	67.7189998627
1200.0	0.0004027	67.7660000324
1200.0	0.0004026	67.7969999313
1200.0	0.0004025	67.8439998627
1200.0	0.0004023	67.8910000324
1200.0	0.000402	67.9219999313
1200.0	0.0004023	67.9689998627
1200.0	0.0004026	68.0160000324
1200.0	0.0004026	68.0469999313
1200.0	0.0004023	68.0939998627
1200.0	0.0004021	68.1410000324
1200.0	0.0004023	68.1719999313
1200.0	0.0004021	68.2189998627
1200.0	0.0004018	68.25
1210.0	0.0004031	68.5309998989
1210.0	0.0004036	68.5620000362
1210.0	0.0004042	68.6089999676
1210.0	0.000405	68.6559998989
1210.0	0.0004055	68.6870000362
1210.0	0.0004061	68.7339999676
1210.0	0.0004062	68.7809998989
1210.0	0.0004063	68.8120000362
1210.0	0.0004065	68.8589999676
1210.0	0.0004065	68.8910000324
1210.0	0.0004067	68.9370000362
1210.0	0.0004068	68.9839999676
1210.0	0.000407	69.0160000324
1210.0	0.0004071	69.0620000362
1210.0	0.000407	69.1089999676
1210.0	0.0004067	69.1410000324
1210.0	0.0004065	69.1870000362
1210.0	0.0004063	69.2189998627
1210.0	0.0004061	69.2660000324
1210.0	0.0004061	69.3120000362
1210.0	0.0004062	69.3439998627
1210.0	0.0004065	69.3910000324
1210.0	0.0004067	69.4370000362
1210.0	0.0004065	69.4689998627
1210.0	0.0004065	69.5160000324
1210.0	0.0004067	69.5469999313
1210.0	0.0004063	69.5939998627
1210.0	0.0004063	69.6410000324
1210.0	0.0004063	69.6719999313
1210.0	0.0004062	69.7189998627
1210.0	0.0004061	69.7660000324
1210.0	0.0004061	69.7969999313
1210.0	0.0004063	69.8439998627
1210.0	0.0004063	69.875
1210.0	0.0004063	69.9219999313
1210.0	0.0004063	69.9689998627
1210.0	0.0004065	70.0
1220.0	0.000409	70.2660000324
1220.0	0.00041	70.3120000362
1220.0	0.0004105	70.3589999676
1220.0	0.0004111	70.3910000324
1220.0	0.0004113	70.4370000362
1220.0	0.0004118	70.4839999676
1220.0	0.0004118	70.5160000324
1220.0	0.0004121	70.5620000362
1220.0	0.0004126	70.5939998627
1220.0	0.0004131	70.6410000324
1220.0	0.000413	70.6870000362
1220.0	0.000413	70.7189998627
1220.0	0.000413	70.7660000324
1220.0	0.0004127	70.8120000362
1220.0	0.0004126	70.8439998627
1220.0	0.000413	70.8910000324
1220.0	0.000413	70.9370000362
1220.0	0.0004126	70.9689998627
1220.0	0.000413	71.0160000324
1220.0	0.0004131	71.0469999313
1220.0	0.000413	71.0939998627
1220.0	0.000413	71.1410000324
1220.0	0.0004131	71.1719999313
1220.0	0.0004136	71.2189998627
1220.0	0.0004137	71.2660000324
1220.0	0.0004137	71.2969999313
1220.0	0.0004138	71.3439998627
1220.0	0.0004136	71.375
1220.0	0.0004133	71.4219999313
1220.0	0.0004132	71.4689998627
1220.0	0.0004132	71.5
1220.0	0.0004131	71.5469999313
1220.0	0.0004127	71.5939998627
1220.0	0.0004126	71.625
1220.0	0.0004126	71.6719999313
1220.0	0.0004123	71.7030000687
1220.0	0.0004118	71.75
1230.0	0.0004148	72.0160000324
1230.0	0.0004157	72.0620000362
1230.0	0.0004167	72.0939998627
1230.0	0.0004176	72.1410000324
1230.0	0.000418	72.1870000362
1230.0	0.0004183	72.2189998627
1230.0	0.0004187	72.2660000324
1230.0	0.0004188	72.3120000362
1230.0	0.0004187	72.3439998627
1230.0	0.0004187	72.3910000324
1230.0	0.0004188	72.4370000362
1230.0	0.000419	72.4839999676
1230.0	0.000419	72.5160000324
1230.0	0.0004196	72.5620000362
1230.0	0.0004198	72.5939998627
1230.0	0.0004201	72.6410000324
1230.0	0.0004202	72.6870000362
1230.0	0.0004202	72.7189998627
1230.0	0.0004202	72.7660000324
1230.0	0.0004202	72.8120000362
1230.0	0.0004205	72.8439998627
1230.0	0.0004205	72.8910000324
1230.0	0.00042	72.9370000362
1230.0	0.0004198	72.9689998627
1230.0	0.00042	73.0160000324
1230.0	0.00042	73.0469999313
1230.0	0.0004195	73.0939998627
1230.0	0.0004195	73.1410000324
1230.0	0.0004195	73.1719999313
1230.0	0.0004195	73.2189998627
1230.0	0.0004195	73.2660000324
1230.0	0.0004195	73.2969999313
1230.0	0.0004192	73.3439998627
1230.0	0.000419	73.375
1230.0	0.0004188	73.4219999313
1230.0	0.0004193	73.4689998627
1240.0	0.0004215	73.7339999676
1240.0	0.0004223	73.7660000324
1240.0	0.000423	73.8120000362
1240.0	0.0004231	73.8589999676
1240.0	0.0004232	73.8910000324
1240.0	0.0004242	73.9370000362
1240.0	0.0004251	73.9839999676
1240.0	0.0004258	74.0160000324
1240.0	0.0004263	74.0620000362
1240.0	0.0004267	74.0939998627
1240.0	0.0004267	74.1410000324
1240.0	0.0004267	74.1870000362
1240.0	0.000427	74.2189998627
1240.0	0.0004273	74.2660000324
1240.0	0.0004273	74.3120000362
1240.0	0.0004273	74.3439998627
1240.0	0.0004273	74.3910000324
1240.0	0.0004271	74.4219999313
1240.0	0.0004273	74.4689998627
1240.0	0.0004276	74.5160000324
1240.0	0.0004277	74.5469999313
1240.0	0.000428	74.5939998627
1240.0	0.0004275	74.6410000324
1240.0	0.0004275	74.6719999313
1240.0	0.0004276	74.7189998627
1240.0	0.000427	74.7660000324
1240.0	0.000427	74.7969999313
1240.0	0.0004271	74.8439998627
1240.0	0.0004273	74.8910000324
1240.0	0.0004273	74.9219999313
1240.0	0.0004273	74.9689998627
1240.0	0.0004273	75.0160000324
1240.0	0.000427	75.0469999313
1240.0	0.0004267	75.0939998627
1240.0	0.0004267	75.125
1240.0	0.0004268	75.1719999313
1240.0	0.0004268	75.2189998627
1250.0	0.0004296	75.4839999676
1250.0	0.0004306	75.5160000324
1250.0	0.0004313	75.5620000362
1250.0	0.0004323	75.6089999676
1250.0	0.0004327	75.6410000324
1250.0	0.0004333	75.6870000362
1250.0	0.0004338	75.7339999676
1250.0	0.0004342	75.7660000324
1250.0	0.0004342	75.8120000362
1250.0	0.0004342	75.8439998627
1250.0	0.0004343	75.8910000324
1250.0	0.0004348	75.9370000362
1250.0	0.000435	75.9689998627
1250.0	0.000435	76.0160000324
1250.0	0.000435	76.0620000362
1250.0	0.000435	76.0939998627
1250.0	0.000435	76.1410000324
1250.0	0.0004352	76.1719999313
1250.0	0.0004352	76.2189998627
1250.0	0.0004352	76.2660000324
1250.0	0.000435	76.2969999313
1250.0	0.0004346	76.3439998627
1250.0	0.0004343	76.3910000324
1250.0	0.0004336	76.4219999313
1250.0	0.0004336	76.4689998627
1250.0	0.0004338	76.5
1250.0	0.0004343	76.5469999313
1250.0	0.0004348	76.5939998627
1250.0	0.000435	76.625
1250.0	0.000435	76.6719999313
1250.0	0.0004348	76.7189998627
1250.0	0.0004346	76.75
1250.0	0.000435	76.7969999313
1250.0	0.0004351	76.8280000687
1250.0	0.000435	76.875
1250.0	0.0004348	76.9219999313
1250.0	0.000435	76.9530000687
1260.0	0.0004371	77.2189998627
1260.0	0.0004387	77.2660000324
1260.0	0.00044	77.3120000362
1260.0	0.0004406	77.3439998627
1260.0	0.0004408	77.3910000324
1260.0	0.0004412	77.4370000362
1260.0	0.0004413	77.4689998627
1260.0	0.0004418	77.5160000324
1260.0	0.0004421	77.5469999313
1260.0	0.0004421	77.5939998627
1260.0	0.0004421	77.6410000324
1260.0	0.000442	77.6719999313
1260.0	0.0004425	77.7189998627
1260.0	0.0004425	77.7660000324
1260.0	0.0004421	77.7969999313
1260.0	0.000442	77.8439998627
1260.0	0.0004421	77.8910000324
1260.0	0.0004421	77.9219999313
1260.0	0.000442	77.9689998627
1260.0	0.0004421	78.0
1260.0	0.0004423	78.0469999313
1260.0	0.0004423	78.0939998627
1260.0	0.0004421	78.125
1260.0	0.0004421	78.1719999313
1260.0	0.0004418	78.2189998627
1260.0	0.0004415	78.25
1260.0	0.0004415	78.2969999313
1260.0	0.0004413	78.3280000687
1260.0	0.0004413	78.375
1260.0	0.0004417	78.4219999313
1260.0	0.0004418	78.4530000687
1260.0	0.0004421	78.5
1260.0	0.000442	78.5469999313
1260.0	0.0004418	78.5780000687
1260.0	0.0004417	78.625
1260.0	0.0004417	78.6559998989
1260.0	0.0004413	78.7030000687
1270.0	0.0004437	78.9689998627
1270.0	0.0004443	79.0160000324
1270.0	0.0004448	79.0469999313
1270.0	0.0004455	79.0939998627
1270.0	0.0004461	79.1410000324
1270.0	0.0004463	79.1719999313
1270.0	0.0004471	79.2189998627
1270.0	0.0004476	79.2660000324
1270.0	0.000448	79.2969999313
1270.0	0.0004477	79.3439998627
1270.0	0.0004477	79.375
1270.0	0.0004475	79.4219999313
1270.0	0.0004471	79.4689998627
1270.0	0.0004471	79.5
1270.0	0.0004473	79.5469999313
1270.0	0.0004473	79.5939998627
1270.0	0.0004473	79.625
1270.0	0.0004473	79.6719999313
1270.0	0.0004473	79.7189998627
1270.0	0.0004473	79.75
1270.0	0.0004473	79.7969999313
1270.0	0.0004477	79.8280000687
1270.0	0.0004481	79.875
1270.0	0.000448	79.9219999313
1270.0	0.000448	79.9530000687
1270.0	0.000448	80.0
1270.0	0.000448	80.0309998989
1270.0	0.0004475	80.0780000687
1270.0	0.0004473	80.125
1270.0	0.0004473	80.1559998989
1270.0	0.0004477	80.2030000687
1270.0	0.0004477	80.25
1270.0	0.0004477	80.2809998989
1270.0	0.0004476	80.3280000687
1270.0	0.0004475	80.375
1270.0	0.0004475	80.4059998989
1270.0	0.0004475	80.4530000687
1280.0	0.0004495	80.7189998627
1280.0	0.0004506	80.7660000324
1280.0	0.0004512	80.7969999313
1280.0	0.0004513	80.8439998627
1280.0	0.000452	80.875
1280.0	0.0004525	80.9219999313
1280.0	0.0004525	80.9689998627
1280.0	0.0004525	81.0
1280.0	0.0004525	81.0469999313
1280.0	0.0004527	81.0939998627
1280.0	0.000453	81.125
1280.0	0.000453	81.1719999313
1280.0	0.000453	81.2030000687
1280.0	0.0004527	81.25
1280.0	0.0004523	81.2969999313
1280.0	0.0004523	81.3280000687
1280.0	0.0004521	81.375
1280.0	0.0004518	81.4219999313
1280.0	0.0004517	81.4530000687
1280.0	0.000452	81.5
1280.0	0.0004527	81.5469999313
1280.0	0.000453	81.5780000687
1280.0	0.000453	81.625
1280.0	0.0004526	81.6559998989
1280.0	0.0004525	81.7030000687
1280.0	0.0004521	81.75
1280.0	0.0004521	81.7809998989
1280.0	0.0004523	81.8280000687
1280.0	0.0004526	81.8589999676
1280.0	0.0004525	81.9059998989
1280.0	0.0004525	81.9530000687
1280.0	0.0004526	81.9839999676
1280.0	0.0004526	82.0309998989
1280.0	0.0004525	82.0780000687
1280.0	0.0004527	82.1089999676
1280.0	0.0004531	82.1559998989
1280.0	0.000453	82.1870000362
1290.0	0.0004536	82.4689998627
1290.0	0.0004536	82.5
1290.0	0.0004536	82.5469999313
1290.0	0.0004538	82.5939998627
1290.0	0.0004537	82.625
1290.0	0.0004537	82.6719999313
1290.0	0.0004538	82.7030000687
1290.0	0.0004542	82.75
1290.0	0.0004545	82.7969999313
1290.0	0.0004545	82.8280000687
1290.0	0.000455	82.875
1290.0	0.0004551	82.9219999313
1290.0	0.0004545	82.9530000687
1290.0	0.0004538	83.0
1290.0	0.0004538	83.0309998989
1290.0	0.0004538	83.0780000687
1290.0	0.000454	83.125
1290.0	0.0004542	83.1559998989
1290.0	0.0004546	83.2030000687
1290.0	0.0004551	83.25
1290.0	0.0004552	83.2809998989
1290.0	0.0004557	83.3280000687
1290.0	0.0004557	83.3589999676
1290.0	0.0004552	83.4059998989
1290.0	0.0004552	83.4530000687
1290.0	0.0004555	83.4839999676
1290.0	0.0004551	83.5309998989
1290.0	0.0004548	83.5780000687
1290.0	0.0004546	83.6089999676
1290.0	0.0004545	83.6559998989
1290.0	0.0004543	83.6870000362
1290.0	0.0004542	83.7339999676
1290.0	0.0004542	83.7809998989
1290.0	0.0004543	83.8120000362
1290.0	0.0004542	83.8589999676
1290.0	0.0004542	83.9059998989
1290.0	0.0004542	83.9370000362
1300.0	0.0004543	84.2030000687
1300.0	0.000455	84.25
1300.0	0.0004551	84.2969999313
1300.0	0.0004551	84.3280000687
1300.0	0.0004551	84.375
1300.0	0.0004551	84.4059998989
1300.0	0.0004548	84.4530000687
1300.0	0.0004542	84.5
1300.0	0.0004538	84.5309998989
1300.0	0.0004542	84.5780000687
1300.0	0.000454	84.625
1300.0	0.0004538	84.6559998989
1300.0	0.0004542	84.7030000687
1300.0	0.000454	84.7339999676
1300.0	0.0004538	84.7809998989
1300.0	0.0004542	84.8280000687
1300.0	0.0004545	84.8589999676
1300.0	0.0004546	84.9059998989
1300.0	0.0004545	84.9530000687
1300.0	0.0004545	84.9839999676
1300.0	0.0004548	85.0309998989
1300.0	0.0004548	85.0780000687
1300.0	0.0004546	85.1089999676
1300.0	0.0004548	85.1559998989
1300.0	0.0004545	85.1870000362
1300.0	0.0004545	85.2339999676
1300.0	0.0004543	85.2809998989
1300.0	0.0004542	85.3120000362
1300.0	0.000454	85.3589999676
1300.0	0.0004538	85.4059998989
1300.0	0.0004538	85.4370000362
1300.0	0.000454	85.4839999676
1300.0	0.0004538	85.5160000324
1300.0	0.0004538	85.5620000362
1300.0	0.0004545	85.6089999676
1300.0	0.0004543	85.6410000324
1300.0	0.0004543	85.6870000362
1310.0	0.0004527	85.9530000687
1310.0	0.0004517	86.0
1310.0	0.0004513	86.0469999313
1310.0	0.0004511	86.0780000687
1310.0	0.0004511	86.125
1310.0	0.0004506	86.1719999313
1310.0	0.0004505	86.2030000687
1310.0	0.0004502	86.25
1310.0	0.0004501	86.2809998989
1310.0	0.00045	86.3280000687
1310.0	0.0004505	86.375
1310.0	0.0004502	86.4059998989
1310.0	0.0004501	86.4530000687
1310.0	0.0004502	86.4839999676
1310.0	0.0004502	86.5309998989
1310.0	0.0004505	86.5780000687
1310.0	0.0004505	86.6089999676
1310.0	0.0004505	86.6559998989
1310.0	0.0004505	86.7030000687
1310.0	0.0004505	86.7339999676
1310.0	0.0004502	86.7809998989
1310.0	0.0004506	86.8280000687
1310.0	0.0004507	86.8589999676
1310.0	0.0004508	86.9059998989
1310.0	0.0004511	86.9530000687
1310.0	0.0004507	87.0
1310.0	0.0004507	87.0309998989
1310.0	0.0004505	87.0780000687
1310.0	0.0004501	87.1089999676
1310.0	0.0004498	87.1559998989
1310.0	0.0004496	87.2030000687
1310.0	0.0004498	87.2339999676
1310.0	0.00045	87.2809998989
1310.0	0.00045	87.3280000687
1310.0	0.0004498	87.3589999676
1310.0	0.00045	87.4059998989
1310.0	0.0004502	87.4530000687
1320.0	0.000447	87.7189998627
1320.0	0.0004458	87.7660000324
1320.0	0.0004446	87.7969999313
1320.0	0.0004436	87.8439998627
1320.0	0.0004427	87.8910000324
1320.0	0.0004425	87.9219999313
1320.0	0.0004418	87.9689998627
1320.0	0.0004415	88.0
1320.0	0.0004412	88.0469999313
1320.0	0.0004407	88.0939998627
1320.0	0.0004405	88.125
1320.0	0.0004406	88.1719999313
1320.0	0.0004406	88.2189998627
1320.0	0.0004405	88.25
1320.0	0.0004407	88.2969999313
1320.0	0.0004411	88.3439998627
1320.0	0.0004417	88.375
1320.0	0.000442	88.4219999313
1320.0	0.000442	88.4530000687
1320.0	0.0004421	88.5
1320.0	0.000442	88.5469999313
1320.0	0.0004417	88.5780000687
1320.0	0.0004418	88.625
1320.0	0.0004417	88.6559998989
1320.0	0.0004417	88.7030000687
1320.0	0.0004418	88.75
1320.0	0.0004421	88.7809998989
1320.0	0.000443	88.8280000687
1320.0	0.0004427	88.875
1320.0	0.0004426	88.9059998989
1320.0	0.0004426	88.9530000687
1320.0	0.0004425	89.0
1320.0	0.0004423	89.0309998989
1320.0	0.0004421	89.0780000687
1320.0	0.000442	89.1089999676
1320.0	0.0004413	89.1559998989
1320.0	0.0004411	89.2030000687
1330.0	0.000437	89.4689998627
1330.0	0.0004351	89.5160000324
1330.0	0.0004336	89.5469999313
1330.0	0.0004321	89.5939998627
1330.0	0.0004308	89.6410000324
1330.0	0.0004301	89.6719999313
1330.0	0.0004298	89.7189998627
1330.0	0.0004295	89.7660000324
1330.0	0.0004292	89.7969999313
1330.0	0.000429	89.8439998627
1330.0	0.0004287	89.8910000324
1330.0	0.0004286	89.9370000362
1330.0	0.0004286	89.9689998627
1330.0	0.0004288	90.0160000324
1330.0	0.0004288	90.0469999313
1330.0	0.0004287	90.0939998627
1330.0	0.0004288	90.1410000324
1330.0	0.0004292	90.1719999313
1330.0	0.000429	90.2189998627
1330.0	0.0004287	90.2660000324
1330.0	0.0004286	90.2969999313
1330.0	0.0004283	90.3439998627
1330.0	0.0004283	90.375
1330.0	0.0004283	90.4219999313
1330.0	0.0004281	90.4689998627
1330.0	0.000428	90.5
1330.0	0.0004277	90.5469999313
1330.0	0.000428	90.5939998627
1330.0	0.0004282	90.625
1330.0	0.0004281	90.6719999313
1330.0	0.0004277	90.7030000687
1330.0	0.0004277	90.75
1330.0	0.0004276	90.7969999313
1330.0	0.0004276	90.8280000687
1330.0	0.000428	90.875
1330.0	0.0004282	90.9219999313
1340.0	0.0004206	91.1870000362
1340.0	0.0004183	91.2339999676
1340.0	0.0004165	91.2660000324
1340.0	0.0004155	91.3120000362
1340.0	0.0004142	91.3439998627
1340.0	0.0004132	91.3910000324
1340.0	0.0004123	91.4370000362
1340.0	0.0004117	91.4689998627
1340.0	0.0004111	91.5160000324
1340.0	0.0004106	91.5620000362
1340.0	0.0004098	91.5939998627
1340.0	0.0004093	91.6410000324
1340.0	0.0004095	91.6719999313
1340.0	0.0004093	91.7189998627
1340.0	0.0004093	91.7660000324
1340.0	0.0004095	91.7969999313
1340.0	0.0004093	91.8439998627
1340.0	0.0004093	91.8910000324
1340.0	0.0004088	91.9219999313
1340.0	0.0004088	91.9689998627
1340.0	0.0004088	92.0160000324
1340.0	0.0004087	92.0469999313
1340.0	0.0004083	92.0939998627
1340.0	0.0004083	92.125
1340.0	0.0004086	92.1719999313
1340.0	0.0004086	92.2189998627
1340.0	0.0004083	92.25
1340.0	0.0004087	92.2969999313
1340.0	0.0004088	92.3439998627
1340.0	0.0004087	92.375
1340.0	0.0004087	92.4219999313
1340.0	0.0004086	92.4530000687
1340.0	0.0004081	92.5
1340.0	0.0004077	92.5469999313
1340.0	0.0004075	92.5780000687
1340.0	0.0004075	92.625
1340.0	0.0004077	92.6719999313
1350.0	0.0004013	92.9370000362
1350.0	0.0003987	92.9689998627
1350.0	0.0003967	93.0160000324
1350.0	0.0003951	93.0620000362
1350.0	0.000394	93.0939998627
1350.0	0.000393	93.1410000324
1350.0	0.0003923	93.1719999313
1350.0	0.0003915	93.2189998627
1350.0	0.0003907	93.2660000324
1350.0	0.00039	93.2969999313
1350.0	0.0003898	93.3439998627
1350.0	0.0003892	93.3910000324
1350.0	0.0003888	93.4219999313
1350.0	0.0003887	93.4689998627
1350.0	0.0003888	93.5
1350.0	0.000389	93.5469999313
1350.0	0.0003888	93.5939998627
1350.0	0.000389	93.625
1350.0	0.0003892	93.6719999313
1350.0	0.000389	93.7189998627
1350.0	0.0003892	93.75
1350.0	0.0003893	93.7969999313
1350.0	0.0003892	93.8280000687
1350.0	0.000389	93.875
1350.0	0.0003892	93.9219999313
1350.0	0.0003895	93.9530000687
1350.0	0.0003896	94.0
1350.0	0.0003895	94.0469999313
1350.0	0.0003893	94.0780000687
1350.0	0.0003888	94.125
1350.0	0.0003886	94.1559998989
1350.0	0.0003882	94.2030000687
1350.0	0.0003882	94.25
1350.0	0.0003882	94.2809998989
1350.0	0.0003882	94.3280000687
1350.0	0.0003882	94.375
1350.0	0.0003882	94.4059998989
1360.0	0.0003805	94.6719999313
1360.0	0.0003777	94.7189998627
1360.0	0.0003756	94.7660000324
1360.0	0.000374	94.7969999313
1360.0	0.0003725	94.8439998627
1360.0	0.0003713	94.8910000324
1360.0	0.0003698	94.9219999313
1360.0	0.0003687	94.9689998627
1360.0	0.0003683	95.0
1360.0	0.0003682	95.0469999313
1360.0	0.0003676	95.0939998627
1360.0	0.0003671	95.125
1360.0	0.0003668	95.1719999313
1360.0	0.0003667	95.2189998627
1360.0	0.0003667	95.25
1360.0	0.000367	95.2969999313
1360.0	0.0003673	95.3280000687
1360.0	0.0003671	95.375
1360.0	0.0003671	95.4219999313
1360.0	0.0003675	95.4530000687
1360.0	0.0003677	95.5
1360.0	0.0003675	95.5469999313
1360.0	0.0003673	95.5780000687
1360.0	0.0003671	95.625
1360.0	0.000367	95.6719999313
1360.0	0.0003668	95.7030000687
1360.0	0.0003667	95.75
1360.0	0.0003668	95.7969999313
1360.0	0.0003667	95.8280000687
1360.0	0.0003663	95.875
1360.0	0.0003663	95.9059998989
1360.0	0.0003667	95.9530000687
1360.0	0.0003667	96.0
1360.0	0.0003668	96.0309998989
1360.0	0.0003667	96.0780000687
1360.0	0.0003663	96.125
1360.0	0.0003662	96.1559998989
1370.0	0.0003588	96.4219999313
1370.0	0.0003556	96.4689998627
1370.0	0.000353	96.5160000324
1370.0	0.0003508	96.5469999313
1370.0	0.000349	96.5939998627
1370.0	0.0003475	96.6410000324
1370.0	0.0003463	96.6719999313
1370.0	0.0003457	96.7189998627
1370.0	0.0003451	96.7660000324
1370.0	0.0003446	96.8120000362
1370.0	0.0003443	96.8439998627
1370.0	0.000344	96.8910000324
1370.0	0.000344	96.9219999313
1370.0	0.0003437	96.9689998627
1370.0	0.0003436	97.0160000324
1370.0	0.0003436	97.0469999313
1370.0	0.0003437	97.0939998627
1370.0	0.0003437	97.1410000324
1370.0	0.0003438	97.1719999313
1370.0	0.0003438	97.2189998627
1370.0	0.000344	97.25
1370.0	0.000344	97.2969999313
1370.0	0.000344	97.3439998627
1370.0	0.000344	97.375
1370.0	0.0003436	97.4219999313
1370.0	0.0003436	97.4689998627
1370.0	0.0003433	97.5
1370.0	0.0003436	97.5469999313
1370.0	0.0003438	97.5939998627
1370.0	0.000344	97.625
1370.0	0.0003442	97.6719999313
1370.0	0.0003445	97.7030000687
1370.0	0.000345	97.75
1370.0	0.000345	97.7969999313
1370.0	0.0003448	97.8280000687
1370.0	0.0003446	97.875
1370.0	0.0003445	97.9059998989
1380.0	0.0003352	98.1870000362
1380.0	0.000332	98.2189998627
1380.0	0.0003296	98.2660000324
1380.0	0.0003275	98.2969999313
1380.0	0.0003256	98.3439998627
1380.0	0.0003242	98.3910000324
1380.0	0.0003236	98.4219999313
1380.0	0.0003232	98.4689998627
1380.0	0.000323	98.5160000324
1380.0	0.0003221	98.5469999313
1380.0	0.0003217	98.5939998627
1380.0	0.0003217	98.625
1380.0	0.0003217	98.6719999313
1380.0	0.0003217	98.7189998627
1380.0	0.0003215	98.75
1380.0	0.0003218	98.7969999313
1380.0	0.000322	98.8439998627
1380.0	0.0003221	98.875
1380.0	0.000322	98.9219999313
1380.0	0.000322	98.9689998627
1380.0	0.0003218	99.0
1380.0	0.0003217	99.0469999313
1380.0	0.0003217	99.0780000687
1380.0	0.0003215	99.125
1380.0	0.0003217	99.1719999313
1380.0	0.0003217	99.2030000687
1380.0	0.0003217	99.25
1380.0	0.0003217	99.2969999313
1380.0	0.0003217	99.3280000687
1380.0	0.0003213	99.375
1380.0	0.0003212	99.4059998989
1380.0	0.0003211	99.4530000687
1380.0	0.0003213	99.5
1380.0	0.0003213	99.5309998989
1380.0	0.0003213	99.5780000687
1380.0	0.0003213	99.625
1380.0	0.0003213	99.6559998989
1390.0	0.0003138	99.9219999313
1390.0	0.0003112	99.9689998627
1390.0	0.000309	100.016000032
1390.0	0.0003075	100.046999931
1390.0	0.000306	100.093999863
1390.0	0.0003051	100.125
1390.0	0.0003045	100.171999931
1390.0	0.0003038	100.218999863
1390.0	0.0003032	100.25
1390.0	0.0003028	100.296999931
1390.0	0.0003027	100.343999863
1390.0	0.0003025	100.375
1390.0	0.0003021	100.421999931
1390.0	0.000302	100.453000069
1390.0	0.0003021	100.5
1390.0	0.0003018	100.546999931
1390.0	0.0003012	100.578000069
1390.0	0.0003008	100.625
1390.0	0.0003007	100.671999931
1390.0	0.0003006	100.703000069
1390.0	0.0003006	100.75
1390.0	0.0003006	100.780999899
1390.0	0.0003006	100.828000069
1390.0	0.0003008	100.875
1390.0	0.0003012	100.905999899
1390.0	0.0003015	100.953000069
1390.0	0.0003016	101.0
1390.0	0.0003015	101.030999899
1390.0	0.0003018	101.078000069
1390.0	0.000302	101.125
1390.0	0.0003018	101.155999899
1390.0	0.0003018	101.203000069
1390.0	0.0003018	101.233999968
1390.0	0.0003018	101.280999899
1390.0	0.000302	101.328000069
1390.0	0.0003021	101.358999968
1390.0	0.0003026	101.405999899
1400.0	0.0002953	101.671999931
1400.0	0.0002928	101.718999863
1400.0	0.0002907	101.75
1400.0	0.0002888	101.796999931
1400.0	0.0002872	101.843999863
1400.0	0.0002866	101.875
1400.0	0.0002862	101.921999931
1400.0	0.0002858	101.953000069
1400.0	0.0002856	102.0
1400.0	0.0002853	102.046999931
1400.0	0.0002853	102.078000069
1400.0	0.0002853	102.125
1400.0	0.0002853	102.171999931
1400.0	0.0002851	102.203000069
1400.0	0.0002846	102.25
1400.0	0.0002845	102.280999899
1400.0	0.0002843	102.328000069
1400.0	0.000284	102.375
1400.0	0.0002841	102.405999899
1400.0	0.0002841	102.453000069
1400.0	0.0002841	102.5
1400.0	0.0002841	102.530999899
1400.0	0.0002843	102.578000069
1400.0	0.0002847	102.608999968
1400.0	0.000285	102.655999899
1400.0	0.0002846	102.703000069
1400.0	0.0002846	102.733999968
1400.0	0.0002846	102.780999899
1400.0	0.0002846	102.828000069
1400.0	0.000285	102.858999968
1400.0	0.0002852	102.905999899
1400.0	0.0002853	102.937000036
1400.0	0.0002856	102.983999968
1400.0	0.0002858	103.030999899
1400.0	0.0002858	103.062000036
1400.0	0.0002857	103.108999968
1400.0	0.0002853	103.155999899
1410.0	0.000279	103.421999931
1410.0	0.0002775	103.453000069
1410.0	0.0002763	103.5
1410.0	0.0002756	103.546999931
1410.0	0.0002745	103.578000069
1410.0	0.0002737	103.625
1410.0	0.0002733	103.671999931
1410.0	0.0002727	103.703000069
1410.0	0.0002725	103.75
1410.0	0.0002726	103.780999899
1410.0	0.0002726	103.828000069
1410.0	0.0002726	103.875
1410.0	0.0002727	103.905999899
1410.0	0.0002731	103.953000069
1410.0	0.0002731	103.983999968
1410.0	0.0002727	104.030999899
1410.0	0.0002726	104.078000069
1410.0	0.0002725	104.108999968
1410.0	0.000272	104.155999899
1410.0	0.0002716	104.203000069
1410.0	0.0002715	104.233999968
1410.0	0.0002715	104.280999899
1410.0	0.000272	104.328000069
1410.0	0.0002721	104.358999968
1410.0	0.000272	104.405999899
1410.0	0.0002718	104.437000036
1410.0	0.0002715	104.483999968
1410.0	0.0002715	104.530999899
1410.0	0.0002715	104.562000036
1410.0	0.0002715	104.608999968
1410.0	0.0002718	104.655999899
1410.0	0.0002721	104.687000036
1410.0	0.0002725	104.733999968
1410.0	0.0002726	104.766000032
1410.0	0.0002726	104.812000036
1410.0	0.0002726	104.858999968
1410.0	0.0002727	104.891000032
1420.0	0.0002681	105.155999899
1420.0	0.0002671	105.203000069
1420.0	0.0002658	105.25
1420.0	0.0002647	105.280999899
1420.0	0.0002645	105.328000069
1420.0	0.0002643	105.375
1420.0	0.000264	105.405999899
1420.0	0.0002638	105.453000069
1420.0	0.0002637	105.483999968
1420.0	0.0002632	105.530999899
1420.0	0.0002627	105.578000069
1420.0	0.0002626	105.608999968
1420.0	0.0002628	105.655999899
1420.0	0.0002632	105.703000069
1420.0	0.0002632	105.733999968
1420.0	0.0002633	105.780999899
1420.0	0.0002633	105.828000069
1420.0	0.0002631	105.858999968
1420.0	0.0002633	105.905999899
1420.0	0.0002633	105.953000069
1420.0	0.0002632	105.983999968
1420.0	0.0002632	106.030999899
1420.0	0.0002632	106.078000069
1420.0	0.0002633	106.108999968
1420.0	0.0002635	106.155999899
1420.0	0.0002637	106.187000036
1420.0	0.000264	106.233999968
1420.0	0.0002641	106.280999899
1420.0	0.000264	106.312000036
1420.0	0.0002641	106.358999968
1420.0	0.0002643	106.405999899
1420.0	0.0002641	106.437000036
1420.0	0.000264	106.483999968
1420.0	0.000264	106.530999899
1420.0	0.000264	106.562000036
1420.0	0.0002635	106.608999968
1420.0	0.0002635	106.655999899
1430.0	0.0002626	106.921999931
1430.0	0.000262	106.953000069
1430.0	0.0002616	107.0
1430.0	0.0002615	107.046999931
1430.0	0.0002608	107.078000069
1430.0	0.000261	107.125
1430.0	0.0002612	107.155999899
1430.0	0.0002612	107.203000069
1430.0	0.0002608	107.25
1430.0	0.0002606	107.280999899
1430.0	0.0002603	107.328000069
1430.0	0.0002603	107.375
1430.0	0.0002603	107.405999899
1430.0	0.0002607	107.453000069
1430.0	0.0002607	107.5
1430.0	0.0002603	107.530999899
1430.0	0.0002603	107.578000069
1430.0	0.0002603	107.625
1430.0	0.0002603	107.655999899
1430.0	0.0002606	107.703000069
1430.0	0.0002603	107.75
1430.0	0.0002606	107.780999899
1430.0	0.0002606	107.828000069
1430.0	0.0002603	107.858999968
1430.0	0.0002606	107.905999899
1430.0	0.0002603	107.953000069
1430.0	0.0002602	107.983999968
1430.0	0.0002601	108.030999899
1430.0	0.0002601	108.078000069
1430.0	0.0002602	108.108999968
1430.0	0.0002601	108.155999899
1430.0	0.00026	108.187000036
1430.0	0.00026	108.233999968
1430.0	0.00026	108.280999899
1430.0	0.00026	108.312000036
1430.0	0.0002603	108.358999968
1430.0	0.0002606	108.405999899
1440.0	0.0002601	108.671999931
1440.0	0.0002601	108.703000069
1440.0	0.0002602	108.75
1440.0	0.0002607	108.796999931
1440.0	0.000261	108.828000069
1440.0	0.0002607	108.875
1440.0	0.0002606	108.905999899
1440.0	0.0002607	108.953000069
1440.0	0.0002607	109.0
1440.0	0.0002606	109.030999899
1440.0	0.0002606	109.078000069
1440.0	0.0002607	109.125
1440.0	0.0002608	109.155999899
1440.0	0.0002608	109.203000069
1440.0	0.000261	109.233999968
1440.0	0.0002612	109.280999899
1440.0	0.000261	109.328000069
1440.0	0.0002608	109.358999968
1440.0	0.0002612	109.405999899
1440.0	0.0002612	109.453000069
1440.0	0.000261	109.483999968
1440.0	0.0002607	109.530999899
1440.0	0.0002608	109.562000036
1440.0	0.0002608	109.608999968
1440.0	0.0002607	109.655999899
1440.0	0.0002607	109.687000036
1440.0	0.0002608	109.733999968
1440.0	0.0002606	109.780999899
1440.0	0.0002608	109.812000036
1440.0	0.000261	109.858999968
1440.0	0.0002616	109.905999899
1440.0	0.0002618	109.937000036
1440.0	0.0002615	109.983999968
1440.0	0.000261	110.016000032
1440.0	0.0002608	110.062000036
1440.0	0.0002603	110.108999968
1440.0	0.0002602	110.141000032
1450.0	0.0002616	110.405999899
1450.0	0.000262	110.453000069
1450.0	0.0002625	110.5
1450.0	0.0002628	110.530999899
1450.0	0.0002635	110.578000069
1450.0	0.0002638	110.625
1450.0	0.0002641	110.655999899
1450.0	0.0002645	110.703000069
1450.0	0.0002647	110.733999968
1450.0	0.0002651	110.780999899
1450.0	0.0002653	110.828000069
1450.0	0.0002653	110.858999968
1450.0	0.0002652	110.905999899
1450.0	0.0002653	110.953000069
1450.0	0.0002653	110.983999968
1450.0	0.0002657	111.030999899
1450.0	0.0002658	111.062000036
1450.0	0.0002658	111.108999968
1450.0	0.0002653	111.155999899
1450.0	0.0002652	111.187000036
1450.0	0.0002652	111.233999968
1450.0	0.0002651	111.280999899
1450.0	0.0002652	111.312000036
1450.0	0.000265	111.358999968
1450.0	0.0002647	111.405999899
1450.0	0.0002646	111.437000036
1450.0	0.0002645	111.483999968
1450.0	0.0002643	111.516000032
1450.0	0.000264	111.562000036
1450.0	0.000264	111.608999968
1450.0	0.0002641	111.641000032
1450.0	0.0002643	111.687000036
1450.0	0.0002645	111.718999863
1450.0	0.0002645	111.766000032
1450.0	0.0002643	111.812000036
1450.0	0.0002643	111.843999863
1450.0	0.0002643	111.891000032
1460.0	0.0002668	112.155999899
1460.0	0.0002677	112.203000069
1460.0	0.0002678	112.233999968
1460.0	0.0002685	112.280999899
1460.0	0.0002687	112.328000069
1460.0	0.0002691	112.358999968
1460.0	0.0002697	112.405999899
1460.0	0.0002702	112.453000069
1460.0	0.0002703	112.483999968
1460.0	0.0002702	112.530999899
1460.0	0.00027	112.562000036
1460.0	0.00027	112.608999968
1460.0	0.0002702	112.655999899
1460.0	0.0002701	112.687000036
1460.0	0.0002703	112.733999968
1460.0	0.0002708	112.780999899
1460.0	0.000271	112.812000036
1460.0	0.000271	112.858999968
1460.0	0.0002712	112.891000032
1460.0	0.0002712	112.937000036
1460.0	0.000271	112.983999968
1460.0	0.0002706	113.016000032
1460.0	0.0002707	113.062000036
1460.0	0.000271	113.108999968
1460.0	0.0002713	113.141000032
1460.0	0.0002715	113.187000036
1460.0	0.0002718	113.218999863
1460.0	0.0002716	113.266000032
1460.0	0.0002712	113.312000036
1460.0	0.0002708	113.343999863
1460.0	0.0002708	113.391000032
1460.0	0.0002707	113.437000036
1460.0	0.0002707	113.468999863
1460.0	0.000271	113.516000032
1460.0	0.0002712	113.546999931
1460.0	0.0002713	113.593999863
1460.0	0.0002713	113.641000032
1470.0	0.0002731	113.905999899
1470.0	0.0002741	113.953000069
1470.0	0.000275	113.983999968
1470.0	0.0002757	114.030999899
1470.0	0.0002763	114.078000069
1470.0	0.0002768	114.108999968
1470.0	0.0002772	114.155999899
1470.0	0.0002775	114.187000036
1470.0	0.0002775	114.233999968
1470.0	0.0002772	114.280999899
1470.0	0.0002775	114.312000036
1470.0	0.0002771	114.358999968
1470.0	0.0002772	114.405999899
1470.0	0.0002772	114.437000036
1470.0	0.0002772	114.483999968
1470.0	0.0002775	114.516000032
1470.0	0.0002776	114.562000036
1470.0	0.0002772	114.608999968
1470.0	0.0002772	114.641000032
1470.0	0.0002772	114.687000036
1470.0	0.0002771	114.733999968
1470.0	0.000277	114.766000032
1470.0	0.0002768	114.812000036
1470.0	0.0002771	114.858999968
1470.0	0.000277	114.891000032
1470.0	0.0002768	114.937000036
1470.0	0.0002768	114.968999863
1470.0	0.0002768	115.016000032
1470.0	0.0002768	115.062000036
1470.0	0.000277	115.108999968
1470.0	0.0002771	115.141000032
1470.0	0.0002772	115.187000036
1470.0	0.0002771	115.218999863
1470.0	0.000277	115.266000032
1470.0	0.000277	115.312000036
1470.0	0.0002771	115.343999863
1470.0	0.0002771	115.391000032
1480.0	0.0002787	115.655999899
1480.0	0.0002793	115.703000069
1480.0	0.0002801	115.75
1480.0	0.000281	115.780999899
1480.0	0.0002815	115.828000069
1480.0	0.0002816	115.875
1480.0	0.000282	115.905999899
1480.0	0.000282	115.953000069
1480.0	0.0002821	115.983999968
1480.0	0.0002825	116.030999899
1480.0	0.0002828	116.078000069
1480.0	0.0002831	116.108999968
1480.0	0.0002828	116.155999899
1480.0	0.0002827	116.187000036
1480.0	0.0002827	116.233999968
1480.0	0.0002822	116.280999899
1480.0	0.0002821	116.312000036
1480.0	0.0002821	116.358999968
1480.0	0.000282	116.405999899
1480.0	0.0002821	116.437000036
1480.0	0.0002822	116.483999968
1480.0	0.0002825	116.530999899
1480.0	0.0002826	116.562000036
1480.0	0.0002822	116.608999968
1480.0	0.0002825	116.641000032
1480.0	0.0002828	116.687000036
1480.0	0.0002832	116.733999968
1480.0	0.0002831	116.766000032
1480.0	0.0002827	116.812000036
1480.0	0.0002826	116.858999968
1480.0	0.0002825	116.891000032
1480.0	0.000282	116.937000036
1480.0	0.0002816	116.968999863
1480.0	0.000282	117.016000032
1480.0	0.0002818	117.062000036
1480.0	0.000282	117.093999863
1480.0	0.000282	117.141000032
1490.0	0.0002835	117.405999899
1490.0	0.000285	117.453000069
1490.0	0.0002857	117.5
1490.0	0.0002862	117.530999899
1490.0	0.0002866	117.578000069
1490.0	0.000287	117.608999968
1490.0	0.000287	117.655999899
1490.0	0.0002871	117.703000069
1490.0	0.0002872	117.733999968
1490.0	0.0002875	117.780999899
1490.0	0.0002868	117.828000069
1490.0	0.0002865	117.858999968
1490.0	0.0002862	117.905999899
1490.0	0.0002865	117.953000069
1490.0	0.0002865	117.983999968
1490.0	0.0002865	118.030999899
1490.0	0.0002868	118.062000036
1490.0	0.0002868	118.108999968
1490.0	0.0002866	118.155999899
1490.0	0.0002868	118.187000036
1490.0	0.0002871	118.233999968
1490.0	0.0002871	118.280999899
1490.0	0.0002866	118.312000036
1490.0	0.000287	118.358999968
1490.0	0.0002871	118.405999899
1490.0	0.0002872	118.437000036
1490.0	0.0002872	118.483999968
1490.0	0.0002871	118.530999899
1490.0	0.0002871	118.562000036
1490.0	0.0002871	118.608999968
1490.0	0.0002872	118.641000032
1490.0	0.0002872	118.687000036
1490.0	0.000287	118.733999968
1490.0	0.0002868	118.766000032
1490.0	0.0002868	118.812000036
1490.0	0.000287	118.858999968
1490.0	0.0002868	118.891000032
1500.0	0.0002888	119.171999931
1500.0	0.0002887	119.203000069
1500.0	0.0002888	119.25
1500.0	0.0002893	119.280999899
1500.0	0.0002897	119.328000069
1500.0	0.0002901	119.375
1500.0	0.0002903	119.405999899
1500.0	0.0002907	119.453000069
1500.0	0.000291	119.5
1500.0	0.0002912	119.530999899
1500.0	0.0002915	119.578000069
1500.0	0.0002915	119.608999968
1500.0	0.0002912	119.655999899
1500.0	0.0002912	119.703000069
1500.0	0.0002912	119.733999968
1500.0	0.0002912	119.780999899
1500.0	0.0002912	119.828000069
1500.0	0.0002908	119.858999968
1500.0	0.0002908	119.905999899
1500.0	0.0002908	119.937000036
1500.0	0.0002907	119.983999968
1500.0	0.0002907	120.030999899
1500.0	0.0002907	120.062000036
1500.0	0.0002907	120.108999968
1500.0	0.0002907	120.155999899
1500.0	0.0002908	120.187000036
1500.0	0.0002912	120.233999968
1500.0	0.0002913	120.280999899
1500.0	0.0002915	120.312000036
1500.0	0.0002916	120.358999968
1500.0	0.0002915	120.405999899
1500.0	0.0002913	120.437000036
1500.0	0.0002913	120.483999968
1500.0	0.0002913	120.530999899
1500.0	0.0002913	120.562000036
1500.0	0.0002913	120.608999968
1500.0	0.0002912	120.641000032
1510.0	0.0002918	120.921999931
1510.0	0.0002926	120.968999863
1510.0	0.0002931	121.0
1510.0	0.0002933	121.046999931
1510.0	0.0002933	121.093999863
1510.0	0.0002935	121.125
1510.0	0.0002937	121.171999931
1510.0	0.0002935	121.203000069
1510.0	0.0002937	121.25
1510.0	0.0002933	121.296999931
1510.0	0.0002931	121.328000069
1510.0	0.0002932	121.375
1510.0	0.0002932	121.421999931
1510.0	0.0002931	121.453000069
1510.0	0.0002931	121.5
1510.0	0.0002933	121.530999899
1510.0	0.0002938	121.578000069
1510.0	0.0002941	121.625
1510.0	0.0002943	121.655999899
1510.0	0.0002945	121.703000069
1510.0	0.0002946	121.75
1510.0	0.0002946	121.780999899
1510.0	0.0002946	121.828000069
1510.0	0.0002945	121.875
1510.0	0.0002943	121.905999899
1510.0	0.0002943	121.953000069
1510.0	0.0002943	121.983999968
1510.0	0.0002946	122.030999899
1510.0	0.0002946	122.078000069
1510.0	0.0002941	122.108999968
1510.0	0.0002943	122.155999899
1510.0	0.0002945	122.203000069
1510.0	0.0002945	122.233999968
1510.0	0.0002947	122.280999899
1510.0	0.000295	122.312000036
1510.0	0.000295	122.358999968
1510.0	0.0002951	122.405999899
1520.0	0.0002957	122.671999931
1520.0	0.0002958	122.718999863
1520.0	0.0002962	122.766000032
1520.0	0.0002968	122.796999931
1520.0	0.0002971	122.843999863
1520.0	0.0002971	122.875
1520.0	0.0002971	122.921999931
1520.0	0.0002971	122.968999863
1520.0	0.0002968	123.016000032
1520.0	0.000297	123.046999931
1520.0	0.0002968	123.093999863
1520.0	0.0002966	123.141000032
1520.0	0.000297	123.171999931
1520.0	0.000297	123.218999863
1520.0	0.000297	123.25
1520.0	0.000297	123.296999931
1520.0	0.0002971	123.343999863
1520.0	0.0002972	123.375
1520.0	0.0002976	123.421999931
1520.0	0.0002976	123.468999863
1520.0	0.0002977	123.5
1520.0	0.0002982	123.546999931
1520.0	0.0002981	123.578000069
1520.0	0.0002977	123.625
1520.0	0.0002976	123.671999931
1520.0	0.0002975	123.703000069
1520.0	0.0002977	123.75
1520.0	0.0002977	123.796999931
1520.0	0.0002981	123.828000069
1520.0	0.0002981	123.875
1520.0	0.0002978	123.905999899
1520.0	0.0002978	123.953000069
1520.0	0.0002978	124.0
1520.0	0.0002976	124.030999899
1520.0	0.0002975	124.078000069
1520.0	0.0002972	124.125
1520.0	0.0002972	124.155999899
1530.0	0.0002981	124.437000036
1530.0	0.0002981	124.468999863
1530.0	0.0002978	124.516000032
1530.0	0.0002977	124.562000036
1530.0	0.0002976	124.593999863
1530.0	0.0002978	124.641000032
1530.0	0.0002978	124.687000036
1530.0	0.0002981	124.718999863
1530.0	0.0002983	124.766000032
1530.0	0.0002985	124.812000036
1530.0	0.0002988	124.843999863
1530.0	0.000299	124.891000032
1530.0	0.0002987	124.921999931
1530.0	0.0002985	124.968999863
1530.0	0.0002983	125.016000032
1530.0	0.0002985	125.062000036
1530.0	0.0002987	125.093999863
1530.0	0.0002987	125.141000032
1530.0	0.0002988	125.171999931
1530.0	0.0002988	125.218999863
1530.0	0.0002987	125.266000032
1530.0	0.0002988	125.296999931
1530.0	0.0002987	125.343999863
1530.0	0.0002985	125.391000032
1530.0	0.0002985	125.421999931
1530.0	0.0002981	125.468999863
1530.0	0.0002981	125.5
1530.0	0.0002982	125.546999931
1530.0	0.0002982	125.593999863
1530.0	0.0002982	125.625
1530.0	0.0002985	125.671999931
1530.0	0.0002983	125.718999863
1530.0	0.0002983	125.75
1530.0	0.0002985	125.796999931
1530.0	0.0002983	125.828000069
1530.0	0.0002982	125.875
1530.0	0.0002981	125.921999931
1540.0	0.0002981	126.187000036
1540.0	0.0002981	126.233999968
1540.0	0.0002981	126.280999899
1540.0	0.0002981	126.312000036
1540.0	0.0002982	126.358999968
1540.0	0.0002983	126.391000032
1540.0	0.0002987	126.437000036
1540.0	0.000299	126.483999968
1540.0	0.0002993	126.516000032
1540.0	0.0002996	126.562000036
1540.0	0.0002997	126.608999968
1540.0	0.0002996	126.641000032
1540.0	0.0002993	126.687000036
1540.0	0.000299	126.733999968
1540.0	0.0002988	126.766000032
1540.0	0.0002983	126.812000036
1540.0	0.0002982	126.858999968
1540.0	0.0002983	126.891000032
1540.0	0.0002982	126.937000036
1540.0	0.0002983	126.983999968
1540.0	0.0002985	127.016000032
1540.0	0.0002987	127.062000036
1540.0	0.000299	127.093999863
1540.0	0.000299	127.141000032
1540.0	0.0002988	127.187000036
1540.0	0.0002987	127.218999863
1540.0	0.0002987	127.266000032
1540.0	0.0002988	127.312000036
1540.0	0.000299	127.343999863
1540.0	0.000299	127.391000032
1540.0	0.0002991	127.421999931
1540.0	0.0002993	127.468999863
1540.0	0.0002991	127.516000032
1540.0	0.0002991	127.546999931
1540.0	0.0002993	127.593999863
1540.0	0.0002991	127.641000032
1540.0	0.0002991	127.671999931
1550.0	0.0002982	127.953000069
1550.0	0.0002982	127.983999968
1550.0	0.0002978	128.030999899
1550.0	0.0002976	128.078000069
1550.0	0.0002971	128.125
1550.0	0.0002965	128.155999899
1550.0	0.0002965	128.203000069
1550.0	0.0002968	128.233999968
1550.0	0.0002965	128.280999899
1550.0	0.0002963	128.328000069
1550.0	0.0002965	128.358999968
1550.0	0.0002965	128.405999899
1550.0	0.0002968	128.453000069
1550.0	0.000297	128.483999968
1550.0	0.0002971	128.530999899
1550.0	0.000297	128.578000069
1550.0	0.0002966	128.608999968
1550.0	0.0002965	128.655999899
1550.0	0.0002963	128.687000036
1550.0	0.000296	128.733999968
1550.0	0.0002958	128.780999899
1550.0	0.0002957	128.812000036
1550.0	0.000296	128.858999968
1550.0	0.0002963	128.905999899
1550.0	0.0002965	128.937000036
1550.0	0.0002966	128.983999968
1550.0	0.0002968	129.016000032
1550.0	0.0002966	129.062000036
1550.0	0.0002966	129.108999968
1550.0	0.0002966	129.141000032
1550.0	0.0002966	129.187000036
1550.0	0.0002963	129.233999968
1550.0	0.0002963	129.266000032
1550.0	0.0002965	129.312000036
1550.0	0.0002963	129.343999863
1550.0	0.0002958	129.391000032
1550.0	0.0002957	129.437000036
1560.0	0.000294	129.703000069
1560.0	0.0002933	129.75
1560.0	0.0002931	129.796999931
1560.0	0.0002926	129.828000069
1560.0	0.0002922	129.875
1560.0	0.0002922	129.905999899
1560.0	0.0002921	129.953000069
1560.0	0.0002916	130.0
1560.0	0.0002916	130.030999899
1560.0	0.0002915	130.078000069
1560.0	0.0002915	130.125
1560.0	0.0002915	130.155999899
1560.0	0.0002915	130.203000069
1560.0	0.0002915	130.233999968
1560.0	0.0002913	130.280999899
1560.0	0.0002913	130.328000069
1560.0	0.0002913	130.358999968
1560.0	0.0002913	130.405999899
1560.0	0.0002913	130.453000069
1560.0	0.0002915	130.483999968
1560.0	0.0002915	130.530999899
1560.0	0.0002912	130.578000069
1560.0	0.0002908	130.608999968
1560.0	0.0002908	130.655999899
1560.0	0.000291	130.687000036
1560.0	0.000291	130.733999968
1560.0	0.000291	130.780999899
1560.0	0.0002908	130.812000036
1560.0	0.0002907	130.858999968
1560.0	0.0002906	130.905999899
1560.0	0.0002907	130.937000036
1560.0	0.0002907	130.983999968
1560.0	0.0002907	131.016000032
1560.0	0.0002908	131.062000036
1560.0	0.0002908	131.108999968
1560.0	0.000291	131.141000032
1560.0	0.0002912	131.187000036
1570.0	0.0002883	131.468999863
1570.0	0.0002871	131.5
1570.0	0.000286	131.546999931
1570.0	0.0002856	131.578000069
1570.0	0.000285	131.625
1570.0	0.0002847	131.671999931
1570.0	0.0002846	131.703000069
1570.0	0.0002847	131.75
1570.0	0.0002846	131.796999931
1570.0	0.0002845	131.828000069
1570.0	0.0002843	131.875
1570.0	0.0002841	131.905999899
1570.0	0.000284	131.953000069
1570.0	0.000284	132.0
1570.0	0.0002843	132.030999899
1570.0	0.000284	132.078000069
1570.0	0.0002835	132.125
1570.0	0.0002833	132.155999899
1570.0	0.0002831	132.203000069
1570.0	0.0002833	132.233999968
1570.0	0.0002837	132.280999899
1570.0	0.000284	132.328000069
1570.0	0.0002841	132.358999968
1570.0	0.000284	132.405999899
1570.0	0.0002837	132.453000069
1570.0	0.0002837	132.483999968
1570.0	0.0002833	132.530999899
1570.0	0.0002832	132.578000069
1570.0	0.0002835	132.608999968
1570.0	0.0002835	132.655999899
1570.0	0.0002833	132.687000036
1570.0	0.0002832	132.733999968
1570.0	0.0002831	132.780999899
1570.0	0.0002831	132.812000036
1570.0	0.0002828	132.858999968
1570.0	0.0002828	132.905999899
1570.0	0.0002831	132.937000036
1580.0	0.0002801	133.218999863
1580.0	0.0002785	133.25
1580.0	0.0002772	133.296999931
1580.0	0.0002762	133.343999863
1580.0	0.0002756	133.375
1580.0	0.0002746	133.421999931
1580.0	0.000274	133.468999863
1580.0	0.0002735	133.5
1580.0	0.0002731	133.546999931
1580.0	0.0002727	133.578000069
1580.0	0.0002726	133.625
1580.0	0.0002726	133.671999931
1580.0	0.0002727	133.703000069
1580.0	0.0002727	133.75
1580.0	0.0002726	133.796999931
1580.0	0.0002727	133.828000069
1580.0	0.0002726	133.875
1580.0	0.0002722	133.905999899
1580.0	0.000272	133.953000069
1580.0	0.000272	134.0
1580.0	0.0002721	134.030999899
1580.0	0.0002726	134.078000069
1580.0	0.0002727	134.125
1580.0	0.0002727	134.155999899
1580.0	0.0002727	134.203000069
1580.0	0.0002725	134.233999968
1580.0	0.0002722	134.280999899
1580.0	0.0002721	134.328000069
1580.0	0.0002722	134.358999968
1580.0	0.0002727	134.405999899
1580.0	0.0002731	134.453000069
1580.0	0.0002731	134.483999968
1580.0	0.0002728	134.530999899
1580.0	0.0002731	134.578000069
1580.0	0.0002735	134.608999968
1580.0	0.0002738	134.655999899
1580.0	0.0002737	134.687000036
1590.0	0.0002677	134.968999863
1590.0	0.0002657	135.016000032
1590.0	0.0002643	135.046999931
1590.0	0.0002632	135.093999863
1590.0	0.0002618	135.141000032
1590.0	0.0002613	135.171999931
1590.0	0.0002608	135.218999863
1590.0	0.0002603	135.266000032
1590.0	0.0002601	135.296999931
1590.0	0.0002601	135.343999863
1590.0	0.00026	135.391000032
1590.0	0.0002597	135.421999931
1590.0	0.0002595	135.468999863
1590.0	0.0002596	135.5
1590.0	0.0002597	135.546999931
1590.0	0.0002597	135.593999863
1590.0	0.0002596	135.625
1590.0	0.0002596	135.671999931
1590.0	0.00026	135.718999863
1590.0	0.00026	135.75
1590.0	0.0002601	135.796999931
1590.0	0.0002602	135.843999863
1590.0	0.0002601	135.875
1590.0	0.00026	135.921999931
1590.0	0.0002601	135.953000069
1590.0	0.0002602	136.0
1590.0	0.0002601	136.046999931
1590.0	0.00026	136.078000069
1590.0	0.0002596	136.125
1590.0	0.0002593	136.171999931
1590.0	0.0002591	136.203000069
1590.0	0.0002595	136.25
1590.0	0.0002595	136.280999899
1590.0	0.0002595	136.328000069
1590.0	0.0002595	136.375
1590.0	0.00026	136.405999899
1590.0	0.0002597	136.453000069
1600.0	0.0002541	136.733999968
1600.0	0.000252	136.766000032
1600.0	0.00025	136.812000036
1600.0	0.0002485	136.843999863
1600.0	0.0002472	136.891000032
1600.0	0.0002462	136.937000036
1600.0	0.0002452	136.968999863
1600.0	0.0002446	137.016000032
1600.0	0.0002443	137.062000036
1600.0	0.0002441	137.093999863
1600.0	0.0002441	137.141000032
1600.0	0.0002438	137.171999931
1600.0	0.0002437	137.218999863
1600.0	0.0002435	137.266000032
1600.0	0.0002437	137.296999931
1600.0	0.000244	137.343999863
1600.0	0.000244	137.391000032
1600.0	0.0002438	137.421999931
1600.0	0.0002433	137.468999863
1600.0	0.0002431	137.516000032
1600.0	0.0002427	137.546999931
1600.0	0.0002426	137.593999863
1600.0	0.0002427	137.625
1600.0	0.0002431	137.671999931
1600.0	0.0002431	137.718999863
1600.0	0.0002432	137.75
1600.0	0.0002435	137.796999931
1600.0	0.0002437	137.843999863
1600.0	0.0002433	137.875
1600.0	0.0002432	137.921999931
1600.0	0.0002432	137.953000069
1600.0	0.0002432	138.0
1600.0	0.0002431	138.046999931
1600.0	0.0002431	138.078000069
1600.0	0.0002432	138.125
1600.0	0.0002431	138.171999931
1600.0	0.0002432	138.203000069
1610.0	0.0002358	138.483999968
1610.0	0.0002333	138.530999899
1610.0	0.0002313	138.562000036
1610.0	0.0002293	138.608999968
1610.0	0.0002282	138.655999899
1610.0	0.0002272	138.687000036
1610.0	0.0002265	138.733999968
1610.0	0.000226	138.780999899
1610.0	0.0002257	138.812000036
1610.0	0.0002256	138.858999968
1610.0	0.0002256	138.905999899
1610.0	0.0002256	138.937000036
1610.0	0.0002256	138.983999968
1610.0	0.0002256	139.016000032
1610.0	0.0002253	139.062000036
1610.0	0.0002253	139.108999968
1610.0	0.0002253	139.141000032
1610.0	0.0002256	139.187000036
1610.0	0.0002258	139.233999968
1610.0	0.0002258	139.266000032
1610.0	0.0002258	139.312000036
1610.0	0.000226	139.358999968
1610.0	0.0002262	139.391000032
1610.0	0.0002263	139.437000036
1610.0	0.0002263	139.483999968
1610.0	0.0002262	139.516000032
1610.0	0.0002262	139.562000036
1610.0	0.0002262	139.608999968
1610.0	0.0002262	139.641000032
1610.0	0.0002262	139.687000036
1610.0	0.0002258	139.718999863
1610.0	0.0002257	139.766000032
1610.0	0.0002256	139.812000036
1610.0	0.0002253	139.843999863
1610.0	0.0002256	139.891000032
1610.0	0.0002252	139.937000036
1620.0	0.0002181	140.203000069
1620.0	0.0002156	140.25
1620.0	0.0002137	140.296999931
1620.0	0.0002118	140.328000069
1620.0	0.0002106	140.375
1620.0	0.0002095	140.421999931
1620.0	0.0002087	140.453000069
1620.0	0.0002083	140.5
1620.0	0.0002082	140.530999899
1620.0	0.0002078	140.578000069
1620.0	0.0002075	140.625
1620.0	0.0002075	140.655999899
1620.0	0.0002072	140.703000069
1620.0	0.0002068	140.75
1620.0	0.0002068	140.780999899
1620.0	0.0002068	140.828000069
1620.0	0.0002063	140.858999968
1620.0	0.0002062	140.905999899
1620.0	0.0002063	140.953000069
1620.0	0.0002068	141.0
1620.0	0.0002072	141.030999899
1620.0	0.0002075	141.078000069
1620.0	0.0002077	141.125
1620.0	0.0002077	141.155999899
1620.0	0.0002076	141.203000069
1620.0	0.0002076	141.25
1620.0	0.0002075	141.280999899
1620.0	0.0002075	141.328000069
1620.0	0.0002072	141.375
1620.0	0.0002072	141.405999899
1620.0	0.000207	141.453000069
1620.0	0.0002066	141.483999968
1620.0	0.000207	141.530999899
1620.0	0.0002072	141.578000069
1620.0	0.0002071	141.608999968
1620.0	0.0002068	141.655999899
1620.0	0.0002066	141.703000069
1630.0	0.0001988	141.983999968
1630.0	0.0001963	142.016000032
1630.0	0.000194	142.062000036
1630.0	0.000192	142.108999968
1630.0	0.0001902	142.141000032
1630.0	0.0001888	142.187000036
1630.0	0.0001877	142.233999968
1630.0	0.0001872	142.266000032
1630.0	0.0001868	142.312000036
1630.0	0.0001865	142.343999863
1630.0	0.0001865	142.391000032
1630.0	0.0001863	142.437000036
1630.0	0.0001866	142.468999863
1630.0	0.0001866	142.516000032
1630.0	0.0001868	142.562000036
1630.0	0.000187	142.593999863
1630.0	0.000187	142.641000032
1630.0	0.0001872	142.671999931
1630.0	0.0001875	142.718999863
1630.0	0.0001871	142.766000032
1630.0	0.0001868	142.796999931
1630.0	0.0001868	142.843999863
1630.0	0.0001866	142.891000032
1630.0	0.000187	142.921999931
1630.0	0.0001871	142.968999863
1630.0	0.0001871	143.0
1630.0	0.0001872	143.046999931
1630.0	0.0001871	143.093999863
1630.0	0.000187	143.125
1630.0	0.0001868	143.171999931
1630.0	0.0001865	143.218999863
1630.0	0.0001862	143.25
1630.0	0.0001862	143.296999931
1630.0	0.0001862	143.343999863
1630.0	0.0001865	143.375
1630.0	0.0001866	143.421999931
1630.0	0.0001866	143.453000069
1640.0	0.00018	143.75
1640.0	0.0001771	143.780999899
1640.0	0.0001751	143.828000069
1640.0	0.0001733	143.858999968
1640.0	0.0001721	143.905999899
1640.0	0.0001712	143.953000069
1640.0	0.0001706	143.983999968
1640.0	0.0001703	144.030999899
1640.0	0.00017	144.078000069
1640.0	0.0001696	144.108999968
1640.0	0.0001691	144.155999899
1640.0	0.0001687	144.187000036
1640.0	0.0001682	144.233999968
1640.0	0.0001681	144.280999899
1640.0	0.0001682	144.312000036
1640.0	0.0001682	144.358999968
1640.0	0.0001681	144.405999899
1640.0	0.0001678	144.437000036
1640.0	0.0001681	144.483999968
1640.0	0.0001682	144.516000032
1640.0	0.0001678	144.562000036
1640.0	0.0001681	144.608999968
1640.0	0.0001681	144.641000032
1640.0	0.0001682	144.687000036
1640.0	0.0001682	144.733999968
1640.0	0.0001678	144.766000032
1640.0	0.0001677	144.812000036
1640.0	0.0001676	144.858999968
1640.0	0.0001675	144.891000032
1640.0	0.0001675	144.937000036
1640.0	0.0001672	144.983999968
1640.0	0.0001671	145.016000032
1640.0	0.0001671	145.062000036
1640.0	0.000167	145.108999968
1640.0	0.0001668	145.141000032
1640.0	0.0001671	145.187000036
1640.0	0.0001672	145.218999863
1650.0	0.0001597	145.516000032
1650.0	0.0001576	145.546999931
1650.0	0.0001556	145.593999863
1650.0	0.0001543	145.625
1650.0	0.0001528	145.671999931
1650.0	0.0001518	145.718999863
1650.0	0.0001512	145.75
1650.0	0.0001507	145.796999931
1650.0	0.0001507	145.843999863
1650.0	0.0001503	145.875
1650.0	0.00015	145.921999931
1650.0	0.00015	145.953000069
1650.0	0.0001496	146.0
1650.0	0.0001496	146.046999931
1650.0	0.0001496	146.078000069
1650.0	0.0001493	146.125
1650.0	0.0001493	146.171999931
1650.0	0.0001496	146.203000069
1650.0	0.0001496	146.25
1650.0	0.0001497	146.280999899
1650.0	0.0001497	146.328000069
1650.0	0.0001496	146.375
1650.0	0.0001497	146.405999899
1650.0	0.0001497	146.453000069
1650.0	0.0001496	146.5
1650.0	0.0001495	146.530999899
1650.0	0.0001493	146.578000069
1650.0	0.0001496	146.608999968
1650.0	0.0001496	146.655999899
1650.0	0.0001496	146.703000069
1650.0	0.0001496	146.75
1650.0	0.0001495	146.780999899
1650.0	0.0001493	146.828000069
1650.0	0.0001496	146.875
1650.0	0.0001495	146.905999899
1650.0	0.0001496	146.953000069
1650.0	0.0001495	147.0
1660.0	0.0001432	147.280999899
1660.0	0.0001412	147.328000069
1660.0	0.0001393	147.358999968
1660.0	0.0001378	147.405999899
1660.0	0.0001368	147.453000069
1660.0	0.0001357	147.483999968
1660.0	0.0001347	147.530999899
1660.0	0.0001341	147.578000069
1660.0	0.0001337	147.608999968
1660.0	0.0001333	147.655999899
1660.0	0.0001328	147.687000036
1660.0	0.0001326	147.733999968
1660.0	0.0001322	147.780999899
1660.0	0.000132	147.812000036
1660.0	0.0001321	147.858999968
1660.0	0.0001321	147.905999899
1660.0	0.000132	147.937000036
1660.0	0.0001321	147.983999968
1660.0	0.0001322	148.016000032
1660.0	0.0001325	148.062000036
1660.0	0.0001322	148.108999968
1660.0	0.000132	148.141000032
1660.0	0.0001318	148.187000036
1660.0	0.000132	148.233999968
1660.0	0.0001321	148.266000032
1660.0	0.0001325	148.312000036
1660.0	0.0001325	148.343999863
1660.0	0.0001327	148.391000032
1660.0	0.0001328	148.437000036
1660.0	0.0001326	148.468999863
1660.0	0.0001325	148.516000032
1660.0	0.0001322	148.562000036
1660.0	0.0001321	148.593999863
1660.0	0.000132	148.641000032
1660.0	0.0001321	148.687000036
1660.0	0.000132	148.718999863
1660.0	0.0001321	148.766000032
1670.0	0.0001258	149.046999931
1670.0	0.000124	149.093999863
1670.0	0.0001226	149.141000032
1670.0	0.0001213	149.171999931
1670.0	0.0001206	149.218999863
1670.0	0.0001196	149.266000032
1670.0	0.0001191	149.296999931
1670.0	0.0001187	149.343999863
1670.0	0.0001183	149.375
1670.0	0.0001181	149.421999931
1670.0	0.0001181	149.468999863
1670.0	0.0001176	149.5
1670.0	0.0001176	149.546999931
1670.0	0.0001172	149.593999863
1670.0	0.0001172	149.625
1670.0	0.0001176	149.671999931
1670.0	0.0001175	149.703000069
1670.0	0.0001172	149.75
1670.0	0.0001172	149.796999931
1670.0	0.000117	149.828000069
1670.0	0.0001168	149.875
1670.0	0.0001166	149.921999931
1670.0	0.0001166	149.953000069
1670.0	0.000117	150.0
1670.0	0.0001171	150.046999931
1670.0	0.0001175	150.078000069
1670.0	0.0001177	150.125
1670.0	0.0001177	150.171999931
1670.0	0.0001181	150.203000069
1670.0	0.0001183	150.25
1670.0	0.0001182	150.280999899
1670.0	0.0001183	150.328000069
1670.0	0.0001183	150.375
1670.0	0.0001182	150.405999899
1670.0	0.0001181	150.453000069
1670.0	0.0001181	150.5
1670.0	0.0001181	150.530999899
1680.0	0.000112	150.828000069
1680.0	0.0001102	150.858999968
1680.0	0.000109	150.905999899
1680.0	0.0001078	150.953000069
1680.0	0.0001075	150.983999968
1680.0	0.000107	151.030999899
1680.0	0.0001062	151.062000036
1680.0	0.0001056	151.108999968
1680.0	0.0001051	151.155999899
1680.0	0.0001047	151.187000036
1680.0	0.0001045	151.233999968
1680.0	0.0001041	151.280999899
1680.0	0.0001038	151.312000036
1680.0	0.0001035	151.358999968
1680.0	0.0001035	151.391000032
1680.0	0.0001035	151.437000036
1680.0	0.0001038	151.483999968
1680.0	0.000104	151.516000032
1680.0	0.0001041	151.562000036
1680.0	0.000104	151.608999968
1680.0	0.000104	151.641000032
1680.0	0.0001041	151.687000036
1680.0	0.0001038	151.733999968
1680.0	0.0001038	151.766000032
1680.0	0.0001038	151.812000036
1680.0	0.0001038	151.843999863
1680.0	0.000104	151.891000032
1680.0	0.0001043	151.937000036
1680.0	0.0001045	151.968999863
1680.0	0.0001047	152.016000032
1680.0	0.000105	152.062000036
1680.0	0.0001045	152.093999863
1680.0	0.0001045	152.141000032
1680.0	0.0001038	152.187000036
1680.0	0.0001035	152.218999863
1680.0	0.0001035	152.266000032
1680.0	0.0001037	152.312000036
1690.0	9.93e-05	152.593999863
1690.0	9.81e-05	152.625
1690.0	9.71e-05	152.655999899
1690.0	9.63e-05	152.703000069
1690.0	9.56e-05	152.733999968
1690.0	9.51e-05	152.780999899
1690.0	9.47e-05	152.812000036
1690.0	9.41e-05	152.858999968
1690.0	9.38e-05	152.891000032
1690.0	9.33e-05	152.921999931
1690.0	9.31e-05	152.968999863
1690.0	9.31e-05	153.0
1690.0	9.32e-05	153.046999931
1690.0	9.28e-05	153.078000069
1690.0	9.27e-05	153.108999968
1690.0	9.22e-05	153.155999899
1690.0	9.18e-05	153.187000036
1690.0	9.15e-05	153.218999863
1690.0	9.16e-05	153.266000032
1690.0	9.2e-05	153.296999931
1690.0	9.21e-05	153.343999863
1690.0	9.25e-05	153.375
1690.0	9.25e-05	153.405999899
1690.0	9.22e-05	153.453000069
1690.0	9.22e-05	153.483999968
1690.0	9.21e-05	153.516000032
1690.0	9.21e-05	153.562000036
1690.0	9.21e-05	153.593999863
1690.0	9.22e-05	153.641000032
1690.0	9.21e-05	153.671999931
1690.0	9.22e-05	153.703000069
1690.0	9.21e-05	153.75
1690.0	9.2e-05	153.780999899
1690.0	9.2e-05	153.812000036
1690.0	9.18e-05	153.858999968
1690.0	9.18e-05	153.891000032
1690.0	9.2e-05	153.921999931
1690.0	9.2e-05	153.968999863
1690.0	9.2e-05	154.0
1690.0	9.21e-05	154.046999931
1700.0	8.81e-05	154.312000036
1700.0	8.7e-05	154.358999968
1700.0	8.58e-05	154.391000032
1700.0	8.5e-05	154.437000036
1700.0	8.41e-05	154.468999863
1700.0	8.35e-05	154.5
1700.0	8.31e-05	154.546999931
1700.0	8.26e-05	154.578000069
1700.0	8.25e-05	154.625
1700.0	8.21e-05	154.655999899
1700.0	8.2e-05	154.687000036
1700.0	8.18e-05	154.733999968
1700.0	8.18e-05	154.766000032
1700.0	8.16e-05	154.812000036
1700.0	8.13e-05	154.843999863
1700.0	8.12e-05	154.875
1700.0	8.15e-05	154.921999931
1700.0	8.15e-05	154.953000069
1700.0	8.16e-05	154.983999968
1700.0	8.2e-05	155.030999899
1700.0	8.21e-05	155.062000036
1700.0	8.21e-05	155.108999968
1700.0	8.22e-05	155.141000032
1700.0	8.22e-05	155.171999931
1700.0	8.22e-05	155.218999863
1700.0	8.25e-05	155.25
1700.0	8.25e-05	155.280999899
1700.0	8.21e-05	155.328000069
1700.0	8.2e-05	155.358999968
1700.0	8.16e-05	155.405999899
1700.0	8.15e-05	155.437000036
1700.0	8.15e-05	155.468999863
1700.0	8.18e-05	155.516000032
1700.0	8.2e-05	155.546999931
1700.0	8.21e-05	155.578000069
1700.0	8.25e-05	155.625
1700.0	8.22e-05	155.655999899
1700.0	8.22e-05	155.687000036
1700.0	8.25e-05	155.733999968
1700.0	8.22e-05	155.766000032
1700.0	8.22e-05	155.812000036
1710.0	7.93e-05	156.093999863
1710.0	7.82e-05	156.125
1710.0	7.72e-05	156.155999899
1710.0	7.66e-05	156.203000069
1710.0	7.62e-05	156.233999968
1710.0	7.57e-05	156.280999899
1710.0	7.47e-05	156.312000036
1710.0	7.41e-05	156.343999863
1710.0	7.37e-05	156.391000032
1710.0	7.32e-05	156.421999931
1710.0	7.27e-05	156.468999863
1710.0	7.27e-05	156.5
1710.0	7.25e-05	156.530999899
1710.0	7.22e-05	156.578000069
1710.0	7.25e-05	156.608999968
1710.0	7.25e-05	156.641000032
1710.0	7.25e-05	156.687000036
1710.0	7.25e-05	156.718999863
1710.0	7.22e-05	156.766000032
1710.0	7.21e-05	156.796999931
1710.0	7.22e-05	156.828000069
1710.0	7.22e-05	156.875
1710.0	7.25e-05	156.905999899
1710.0	7.28e-05	156.953000069
1710.0	7.31e-05	156.983999968
1710.0	7.33e-05	157.016000032
1710.0	7.35e-05	157.062000036
1710.0	7.37e-05	157.093999863
1710.0	7.37e-05	157.125
1710.0	7.4e-05	157.171999931
1710.0	7.4e-05	157.203000069
1710.0	7.38e-05	157.25
1710.0	7.38e-05	157.280999899
1710.0	7.37e-05	157.312000036
1710.0	7.33e-05	157.358999968
1710.0	7.33e-05	157.391000032
1710.0	7.32e-05	157.421999931
1710.0	7.32e-05	157.468999863
1710.0	7.33e-05	157.5
1710.0	7.33e-05	157.530999899
1720.0	7.08e-05	157.812000036
1720.0	7.01e-05	157.858999968
1720.0	6.91e-05	157.891000032
1720.0	6.83e-05	157.921999931
1720.0	6.81e-05	157.968999863
1720.0	6.77e-05	158.0
1720.0	6.77e-05	158.046999931
1720.0	6.75e-05	158.078000069
1720.0	6.71e-05	158.108999968
1720.0	6.71e-05	158.155999899
1720.0	6.68e-05	158.187000036
1720.0	6.63e-05	158.233999968
1720.0	6.63e-05	158.266000032
1720.0	6.65e-05	158.296999931
1720.0	6.62e-05	158.343999863
1720.0	6.58e-05	158.375
1720.0	6.56e-05	158.421999931
1720.0	6.53e-05	158.453000069
1720.0	6.53e-05	158.483999968
1720.0	6.53e-05	158.530999899
1720.0	6.51e-05	158.562000036
1720.0	6.5e-05	158.593999863
1720.0	6.5e-05	158.641000032
1720.0	6.47e-05	158.671999931
1720.0	6.5e-05	158.703000069
1720.0	6.5e-05	158.75
1720.0	6.5e-05	158.780999899
1720.0	6.51e-05	158.828000069
1720.0	6.57e-05	158.858999968
1720.0	6.6e-05	158.891000032
1720.0	6.63e-05	158.937000036
1720.0	6.65e-05	158.968999863
1720.0	6.68e-05	159.016000032
1720.0	6.68e-05	159.046999931
1720.0	6.68e-05	159.093999863
1720.0	6.7e-05	159.125
1720.0	6.66e-05	159.155999899
1720.0	6.62e-05	159.203000069
1720.0	6.62e-05	159.233999968
1720.0	6.62e-05	159.280999899
1730.0	6.38e-05	159.562000036
1730.0	6.27e-05	159.593999863
1730.0	6.25e-05	159.625
1730.0	6.2e-05	159.671999931
1730.0	6.13e-05	159.703000069
1730.0	6.12e-05	159.75
1730.0	6.08e-05	159.780999899
1730.0	6.06e-05	159.828000069
1730.0	6.03e-05	159.858999968
1730.0	6.02e-05	159.891000032
1730.0	6e-05	159.937000036
1730.0	5.97e-05	159.968999863
1730.0	5.96e-05	160.0
1730.0	5.96e-05	160.046999931
1730.0	5.97e-05	160.078000069
1730.0	6.01e-05	160.125
1730.0	6.02e-05	160.155999899
1730.0	6.02e-05	160.187000036
1730.0	6.02e-05	160.233999968
1730.0	6.02e-05	160.266000032
1730.0	6e-05	160.296999931
1730.0	5.97e-05	160.343999863
1730.0	5.96e-05	160.375
1730.0	5.96e-05	160.405999899
1730.0	5.96e-05	160.453000069
1730.0	5.95e-05	160.483999968
1730.0	5.96e-05	160.530999899
1730.0	5.97e-05	160.562000036
1730.0	5.97e-05	160.593999863
1730.0	5.97e-05	160.641000032
1730.0	6e-05	160.671999931
1730.0	5.97e-05	160.703000069
1730.0	6.01e-05	160.75
1730.0	6.01e-05	160.780999899
1730.0	6e-05	160.828000069
1730.0	6.01e-05	160.858999968
1730.0	6.02e-05	160.891000032
1730.0	6.02e-05	160.937000036
1730.0	6.02e-05	160.968999863
1730.0	6.02e-05	161.0
1730.0	6.01e-05	161.046999931
1740.0	5.77e-05	161.328000069
1740.0	5.7e-05	161.358999968
1740.0	5.63e-05	161.405999899
1740.0	5.6e-05	161.437000036
1740.0	5.53e-05	161.483999968
1740.0	5.52e-05	161.516000032
1740.0	5.51e-05	161.562000036
1740.0	5.5e-05	161.593999863
1740.0	5.5e-05	161.625
1740.0	5.47e-05	161.671999931
1740.0	5.45e-05	161.703000069
1740.0	5.4e-05	161.733999968
1740.0	5.38e-05	161.780999899
1740.0	5.37e-05	161.812000036
1740.0	5.37e-05	161.858999968
1740.0	5.38e-05	161.891000032
1740.0	5.4e-05	161.921999931
1740.0	5.41e-05	161.968999863
1740.0	5.45e-05	162.0
1740.0	5.46e-05	162.046999931
1740.0	5.47e-05	162.078000069
1740.0	5.5e-05	162.108999968
1740.0	5.46e-05	162.155999899
1740.0	5.43e-05	162.187000036
1740.0	5.41e-05	162.218999863
1740.0	5.4e-05	162.266000032
1740.0	5.41e-05	162.296999931
1740.0	5.45e-05	162.343999863
1740.0	5.46e-05	162.375
1740.0	5.46e-05	162.405999899
1740.0	5.46e-05	162.453000069
1740.0	5.45e-05	162.483999968
1740.0	5.45e-05	162.516000032
1740.0	5.46e-05	162.562000036
1740.0	5.5e-05	162.593999863
1740.0	5.52e-05	162.625
1740.0	5.53e-05	162.671999931
1740.0	5.53e-05	162.703000069
1740.0	5.52e-05	162.75
1740.0	5.51e-05	162.780999899
1750.0	5.27e-05	163.062000036
1750.0	5.25e-05	163.093999863
1750.0	5.21e-05	163.141000032
1750.0	5.13e-05	163.171999931
1750.0	5.08e-05	163.203000069
1750.0	5.07e-05	163.25
1750.0	5.02e-05	163.280999899
1750.0	4.97e-05	163.312000036
1750.0	4.97e-05	163.358999968
1750.0	4.97e-05	163.391000032
1750.0	4.97e-05	163.421999931
1750.0	5e-05	163.468999863
1750.0	4.97e-05	163.5
1750.0	4.95e-05	163.546999931
1750.0	4.93e-05	163.578000069
1750.0	4.91e-05	163.608999968
1750.0	4.91e-05	163.655999899
1750.0	4.93e-05	163.687000036
1750.0	4.93e-05	163.718999863
1750.0	4.93e-05	163.766000032
1750.0	4.95e-05	163.796999931
1750.0	4.96e-05	163.828000069
1750.0	4.96e-05	163.875
1750.0	4.96e-05	163.905999899
1750.0	4.96e-05	163.953000069
1750.0	5e-05	163.983999968
1750.0	5.03e-05	164.016000032
1750.0	5.03e-05	164.062000036
1750.0	5.03e-05	164.093999863
1750.0	5.03e-05	164.125
1750.0	5.03e-05	164.171999931
1750.0	5.02e-05	164.203000069
1750.0	5.02e-05	164.233999968
1750.0	5e-05	164.280999899
1750.0	5e-05	164.312000036
1750.0	4.96e-05	164.358999968
1750.0	4.96e-05	164.391000032
1750.0	5e-05	164.421999931
1750.0	5.02e-05	164.468999863
1750.0	5.02e-05	164.5
1750.0	5.02e-05	164.530999899
1760.0	4.87e-05	164.812000036
1760.0	4.81e-05	164.858999968
1760.0	4.75e-05	164.891000032
1760.0	4.7e-05	164.921999931
1760.0	4.68e-05	164.968999863
1760.0	4.65e-05	165.0
1760.0	4.62e-05	165.046999931
1760.0	4.57e-05	165.078000069
1760.0	4.53e-05	165.108999968
1760.0	4.52e-05	165.155999899
1760.0	4.5e-05	165.187000036
1760.0	4.5e-05	165.218999863
1760.0	4.52e-05	165.266000032
1760.0	4.53e-05	165.296999931
1760.0	4.53e-05	165.343999863
1760.0	4.53e-05	165.375
1760.0	4.53e-05	165.405999899
1760.0	4.52e-05	165.453000069
1760.0	4.53e-05	165.483999968
1760.0	4.56e-05	165.516000032
1760.0	4.57e-05	165.562000036
1760.0	4.58e-05	165.593999863
1760.0	4.6e-05	165.641000032
1760.0	4.58e-05	165.671999931
1760.0	4.57e-05	165.703000069
1760.0	4.57e-05	165.75
1760.0	4.6e-05	165.780999899
1760.0	4.63e-05	165.812000036
1760.0	4.62e-05	165.858999968
1760.0	4.63e-05	165.891000032
1760.0	4.63e-05	165.937000036
1760.0	4.6e-05	165.968999863
1760.0	4.58e-05	166.0
1760.0	4.58e-05	166.046999931
1760.0	4.58e-05	166.078000069
1760.0	4.6e-05	166.108999968
1760.0	4.6e-05	166.155999899
1760.0	4.58e-05	166.187000036
1760.0	4.57e-05	166.218999863
1760.0	4.57e-05	166.266000032
1760.0	4.53e-05	166.296999931
1770.0	4.28e-05	166.578000069
1770.0	4.22e-05	166.608999968
1770.0	4.18e-05	166.655999899
1770.0	4.18e-05	166.687000036
1770.0	4.18e-05	166.733999968
1770.0	4.2e-05	166.766000032
1770.0	4.21e-05	166.796999931
1770.0	4.21e-05	166.843999863
1770.0	4.2e-05	166.875
1770.0	4.18e-05	166.905999899
1770.0	4.16e-05	166.953000069
1770.0	4.16e-05	166.983999968
1770.0	4.15e-05	167.016000032
1770.0	4.13e-05	167.062000036
1770.0	4.08e-05	167.093999863
1770.0	4.08e-05	167.141000032
1770.0	4.08e-05	167.171999931
1770.0	4.12e-05	167.203000069
1770.0	4.15e-05	167.25
1770.0	4.16e-05	167.280999899
1770.0	4.15e-05	167.312000036
1770.0	4.12e-05	167.358999968
1770.0	4.12e-05	167.391000032
1770.0	4.13e-05	167.421999931
1770.0	4.13e-05	167.468999863
1770.0	4.16e-05	167.5
1770.0	4.16e-05	167.546999931
1770.0	4.18e-05	167.578000069
1770.0	4.18e-05	167.608999968
1770.0	4.16e-05	167.655999899
1770.0	4.12e-05	167.687000036
1770.0	4.08e-05	167.733999968
1770.0	4.03e-05	167.766000032
1770.0	4.01e-05	167.796999931
1770.0	4.02e-05	167.843999863
1770.0	4.03e-05	167.875
1770.0	4.06e-05	167.905999899
1770.0	4.08e-05	167.953000069
1770.0	4.12e-05	167.983999968
1770.0	4.15e-05	168.030999899
1770.0	4.15e-05	168.062000036
1780.0	3.97e-05	168.343999863
1780.0	3.95e-05	168.375
1780.0	3.9e-05	168.421999931
1780.0	3.87e-05	168.453000069
1780.0	3.85e-05	168.483999968
1780.0	3.83e-05	168.530999899
1780.0	3.81e-05	168.562000036
1780.0	3.81e-05	168.593999863
1780.0	3.78e-05	168.641000032
1780.0	3.78e-05	168.671999931
1780.0	3.81e-05	168.718999863
1780.0	3.81e-05	168.75
1780.0	3.81e-05	168.796999931
1780.0	3.81e-05	168.828000069
1780.0	3.82e-05	168.858999968
1780.0	3.81e-05	168.905999899
1780.0	3.77e-05	168.937000036
1780.0	3.75e-05	168.968999863
1780.0	3.71e-05	169.016000032
1780.0	3.68e-05	169.046999931
1780.0	3.66e-05	169.093999863
1780.0	3.63e-05	169.125
1780.0	3.6e-05	169.171999931
1780.0	3.63e-05	169.203000069
1780.0	3.68e-05	169.233999968
1780.0	3.7e-05	169.280999899
1780.0	3.71e-05	169.312000036
1780.0	3.7e-05	169.343999863
1780.0	3.7e-05	169.391000032
1780.0	3.68e-05	169.421999931
1780.0	3.68e-05	169.468999863
1780.0	3.7e-05	169.5
1780.0	3.7e-05	169.530999899
1780.0	3.7e-05	169.578000069
1780.0	3.75e-05	169.608999968
1780.0	3.78e-05	169.641000032
1780.0	3.78e-05	169.687000036
1780.0	3.77e-05	169.718999863
1780.0	3.76e-05	169.766000032
1780.0	3.75e-05	169.796999931
1790.0	3.51e-05	170.078000069
1790.0	3.47e-05	170.108999968
1790.0	3.43e-05	170.141000032
1790.0	3.43e-05	170.187000036
1790.0	3.41e-05	170.218999863
1790.0	3.4e-05	170.266000032
1790.0	3.4e-05	170.296999931
1790.0	3.4e-05	170.328000069
1790.0	3.4e-05	170.375
1790.0	3.4e-05	170.405999899
1790.0	3.4e-05	170.437000036
1790.0	3.38e-05	170.483999968
1790.0	3.38e-05	170.516000032
1790.0	3.37e-05	170.546999931
1790.0	3.35e-05	170.593999863
1790.0	3.35e-05	170.625
1790.0	3.35e-05	170.671999931
1790.0	3.33e-05	170.703000069
1790.0	3.35e-05	170.75
1790.0	3.35e-05	170.780999899
1790.0	3.35e-05	170.812000036
1790.0	3.37e-05	170.858999968
1790.0	3.38e-05	170.891000032
1790.0	3.35e-05	170.921999931
1790.0	3.35e-05	170.968999863
1790.0	3.33e-05	171.0
1790.0	3.33e-05	171.046999931
1790.0	3.33e-05	171.078000069
1790.0	3.32e-05	171.108999968
1790.0	3.32e-05	171.155999899
1790.0	3.33e-05	171.187000036
1790.0	3.33e-05	171.218999863
1790.0	3.33e-05	171.266000032
1790.0	3.32e-05	171.296999931
1790.0	3.32e-05	171.328000069
1790.0	3.32e-05	171.375
1790.0	3.33e-05	171.405999899
1790.0	3.33e-05	171.453000069
1790.0	3.32e-05	171.483999968
1790.0	3.33e-05	171.516000032
1790.0	3.37e-05	171.562000036
1800.0	3.26e-05	171.843999863
1800.0	3.25e-05	171.875
1800.0	3.2e-05	171.921999931
1800.0	3.18e-05	171.953000069
1800.0	3.13e-05	171.983999968
1800.0	3.08e-05	172.030999899
1800.0	3.06e-05	172.062000036
1800.0	3.06e-05	172.093999863
1800.0	3.03e-05	172.141000032
1800.0	3.06e-05	172.171999931
1800.0	3.06e-05	172.203000069
1800.0	3.07e-05	172.25
1800.0	3.06e-05	172.280999899
1800.0	3.03e-05	172.328000069
1800.0	3.02e-05	172.358999968
1800.0	3.01e-05	172.391000032
1800.0	3e-05	172.437000036
1800.0	2.97e-05	172.468999863
1800.0	2.95e-05	172.5
1800.0	2.95e-05	172.546999931
1800.0	2.93e-05	172.578000069
1800.0	2.91e-05	172.608999968
1800.0	2.91e-05	172.655999899
1800.0	2.91e-05	172.687000036
1800.0	2.91e-05	172.733999968
1800.0	2.93e-05	172.766000032
1800.0	2.93e-05	172.812000036
1800.0	2.91e-05	172.843999863
1800.0	2.91e-05	172.875
1800.0	2.93e-05	172.921999931
1800.0	2.93e-05	172.953000069
1800.0	2.95e-05	172.983999968
1800.0	2.95e-05	173.030999899
1800.0	2.93e-05	173.062000036
1800.0	2.93e-05	173.093999863
1800.0	2.93e-05	173.141000032
1800.0	2.93e-05	173.171999931
1800.0	2.93e-05	173.218999863
1800.0	2.95e-05	173.25
1800.0	2.96e-05	173.280999899
1800.0	2.97e-05	173.328000069
