Your edit line - do NOT delete this line
Wavelength [nm], Voltage [V], Elapsed time [s]
900.0	0.0001978	14.0940001011
900.0	0.000194	14.1410000324
900.0	0.0001913	14.1870000362
900.0	0.000189	14.2339999676
900.0	0.0001875	14.2660000324
900.0	0.0001858	14.3120000362
900.0	0.000185	14.3440001011
900.0	0.0001838	14.3910000324
900.0	0.000183	14.4370000362
900.0	0.0001828	14.4690001011
900.0	0.0001825	14.5160000324
900.0	0.0001825	14.5620000362
900.0	0.0001825	14.5940001011
900.0	0.000182	14.6410000324
900.0	0.000182	14.6719999313
900.0	0.0001818	14.7190001011
900.0	0.000182	14.7660000324
900.0	0.000182	14.7969999313
900.0	0.0001825	14.8440001011
900.0	0.0001825	14.8910000324
900.0	0.0001825	14.9219999313
900.0	0.0001825	14.9690001011
900.0	0.0001825	15.0
900.0	0.0001825	15.0469999313
900.0	0.0001825	15.0940001011
900.0	0.0001828	15.125
900.0	0.0001828	15.1719999313
900.0	0.0001825	15.2190001011
900.0	0.0001828	15.25
900.0	0.0001828	15.2969999313
900.0	0.000183	15.3280000687
900.0	0.0001828	15.375
900.0	0.0001825	15.4219999313
900.0	0.0001825	15.4530000687
900.0	0.0001825	15.5
900.0	0.0001828	15.5469999313
900.0	0.0001828	15.5780000687
910.0	0.0001913	15.8910000324
910.0	0.0001938	15.9370000362
910.0	0.0001958	15.9690001011
910.0	0.0001975	16.0160000324
910.0	0.0001988	16.0620000362
910.0	0.0001995	16.0940001011
910.0	0.0002005	16.1410000324
910.0	0.0002005	16.1719999313
910.0	0.0002008	16.2190001011
910.0	0.0002008	16.2660000324
910.0	0.0002013	16.2969999313
910.0	0.0002015	16.3440001011
910.0	0.0002018	16.375
910.0	0.000202	16.4219999313
910.0	0.0002028	16.4690001011
910.0	0.0002028	16.5
910.0	0.0002028	16.5469999313
910.0	0.000203	16.5940001011
910.0	0.0002028	16.6410000324
910.0	0.0002028	16.6719999313
910.0	0.0002028	16.7190001011
910.0	0.0002028	16.75
910.0	0.0002028	16.7969999313
910.0	0.0002025	16.8440001011
910.0	0.0002025	16.875
910.0	0.0002025	16.9219999313
910.0	0.000202	16.9690001011
910.0	0.000202	17.0
910.0	0.000202	17.0469999313
910.0	0.000202	17.0780000687
910.0	0.000202	17.125
910.0	0.0002018	17.1719999313
910.0	0.0002015	17.2030000687
910.0	0.000202	17.25
910.0	0.0002025	17.2969999313
910.0	0.000202	17.3280000687
910.0	0.0002018	17.375
920.0	0.0002118	17.6719999313
920.0	0.0002145	17.7190001011
920.0	0.0002165	17.7660000324
920.0	0.0002183	17.7969999313
920.0	0.00022	17.8440001011
920.0	0.0002213	17.875
920.0	0.0002218	17.9219999313
920.0	0.0002225	17.9690001011
920.0	0.0002228	18.0
920.0	0.0002233	18.0469999313
920.0	0.0002233	18.0940001011
920.0	0.0002233	18.125
920.0	0.0002238	18.1719999313
920.0	0.0002238	18.2030000687
920.0	0.0002238	18.25
920.0	0.0002238	18.2969999313
920.0	0.0002238	18.3280000687
920.0	0.0002238	18.375
920.0	0.0002233	18.4219999313
920.0	0.000223	18.4690001011
920.0	0.000223	18.5
920.0	0.0002228	18.5469999313
920.0	0.000223	18.5780000687
920.0	0.0002233	18.625
920.0	0.0002233	18.6719999313
920.0	0.0002238	18.7030000687
920.0	0.0002238	18.75
920.0	0.0002233	18.7969999313
920.0	0.0002233	18.8280000687
920.0	0.000223	18.875
920.0	0.0002233	18.9059998989
920.0	0.0002238	18.9530000687
920.0	0.0002238	19.0
920.0	0.0002238	19.0309998989
920.0	0.0002238	19.0780000687
920.0	0.0002238	19.125
920.0	0.000224	19.1559998989
930.0	0.000234	19.4690001011
930.0	0.000237	19.5
930.0	0.0002393	19.5469999313
930.0	0.0002415	19.5940001011
930.0	0.000243	19.625
930.0	0.0002443	19.6719999313
930.0	0.0002455	19.7030000687
930.0	0.0002463	19.75
930.0	0.0002465	19.7969999313
930.0	0.0002468	19.8280000687
930.0	0.0002468	19.875
930.0	0.0002468	19.9219999313
930.0	0.0002468	19.9530000687
930.0	0.0002465	20.0
930.0	0.0002465	20.0309998989
930.0	0.0002468	20.0780000687
930.0	0.0002468	20.125
930.0	0.0002468	20.1559998989
930.0	0.000247	20.2030000687
930.0	0.000247	20.25
930.0	0.000247	20.2809998989
930.0	0.000247	20.3280000687
930.0	0.0002475	20.3589999676
930.0	0.0002475	20.4059998989
930.0	0.0002475	20.4530000687
930.0	0.0002478	20.5
930.0	0.0002475	20.5309998989
930.0	0.0002475	20.5780000687
930.0	0.0002478	20.625
930.0	0.0002475	20.6559998989
930.0	0.0002475	20.7030000687
930.0	0.000247	20.7339999676
930.0	0.0002475	20.7809998989
930.0	0.000247	20.8280000687
930.0	0.0002475	20.8589999676
930.0	0.000247	20.9059998989
930.0	0.0002475	20.9530000687
940.0	0.0002575	21.2339999676
940.0	0.0002613	21.2809998989
940.0	0.0002633	21.3280000687
940.0	0.0002653	21.375
940.0	0.000267	21.4059998989
940.0	0.000268	21.4530000687
940.0	0.000269	21.5
940.0	0.0002695	21.5309998989
940.0	0.00027	21.5780000687
940.0	0.0002703	21.6089999676
940.0	0.0002708	21.6559998989
940.0	0.0002713	21.7030000687
940.0	0.0002718	21.7339999676
940.0	0.0002718	21.7809998989
940.0	0.0002715	21.8280000687
940.0	0.0002715	21.8589999676
940.0	0.0002715	21.9059998989
940.0	0.0002715	21.9370000362
940.0	0.0002715	21.9839999676
940.0	0.0002715	22.0309998989
940.0	0.0002715	22.0620000362
940.0	0.0002718	22.1089999676
940.0	0.0002718	22.1559998989
940.0	0.0002718	22.1870000362
940.0	0.0002713	22.2339999676
940.0	0.0002713	22.2660000324
940.0	0.0002713	22.3120000362
940.0	0.0002713	22.3589999676
940.0	0.0002713	22.3910000324
940.0	0.0002708	22.4370000362
940.0	0.0002708	22.4839999676
940.0	0.0002708	22.5160000324
940.0	0.0002713	22.5620000362
940.0	0.0002715	22.6089999676
940.0	0.000272	22.6410000324
940.0	0.0002725	22.6870000362
940.0	0.0002725	22.7190001011
950.0	0.0002825	23.0160000324
950.0	0.0002853	23.0620000362
950.0	0.0002878	23.0940001011
950.0	0.0002895	23.1410000324
950.0	0.0002913	23.1870000362
950.0	0.000292	23.2190001011
950.0	0.0002928	23.2660000324
950.0	0.0002933	23.2969999313
950.0	0.000294	23.3440001011
950.0	0.0002943	23.3910000324
950.0	0.0002945	23.4219999313
950.0	0.0002943	23.4690001011
950.0	0.0002943	23.5160000324
950.0	0.0002943	23.5469999313
950.0	0.0002943	23.5940001011
950.0	0.0002943	23.625
950.0	0.000294	23.6719999313
950.0	0.0002943	23.7190001011
950.0	0.000295	23.75
950.0	0.0002953	23.7969999313
950.0	0.000295	23.8440001011
950.0	0.0002953	23.875
950.0	0.000295	23.9219999313
950.0	0.0002945	23.9530000687
950.0	0.0002943	24.0
950.0	0.000294	24.0469999313
950.0	0.0002943	24.0780000687
950.0	0.0002943	24.125
950.0	0.0002945	24.1719999313
950.0	0.000295	24.2030000687
950.0	0.000295	24.25
950.0	0.000295	24.2969999313
950.0	0.000295	24.3280000687
950.0	0.0002945	24.375
950.0	0.0002945	24.4219999313
950.0	0.000295	24.4530000687
950.0	0.000295	24.5
960.0	0.0003045	24.7809998989
960.0	0.0003078	24.8280000687
960.0	0.0003105	24.875
960.0	0.0003128	24.9059998989
960.0	0.0003145	24.9530000687
960.0	0.0003158	24.9839999676
960.0	0.0003165	25.0309998989
960.0	0.0003168	25.0780000687
960.0	0.0003175	25.1089999676
960.0	0.0003175	25.1559998989
960.0	0.0003178	25.2030000687
960.0	0.000318	25.2339999676
960.0	0.000318	25.2809998989
960.0	0.0003183	25.3280000687
960.0	0.0003183	25.3589999676
960.0	0.0003183	25.4059998989
960.0	0.0003188	25.4370000362
960.0	0.000319	25.4839999676
960.0	0.0003188	25.5309998989
960.0	0.0003183	25.5620000362
960.0	0.0003183	25.6089999676
960.0	0.0003183	25.6559998989
960.0	0.000318	25.6870000362
960.0	0.000318	25.7339999676
960.0	0.0003183	25.7660000324
960.0	0.0003188	25.8120000362
960.0	0.0003188	25.8589999676
960.0	0.0003188	25.8910000324
960.0	0.000319	25.9370000362
960.0	0.0003193	25.9839999676
960.0	0.0003195	26.0160000324
960.0	0.0003195	26.0620000362
960.0	0.00032	26.0940001011
960.0	0.00032	26.1410000324
960.0	0.00032	26.1870000362
960.0	0.00032	26.2190001011
960.0	0.0003195	26.2660000324
970.0	0.0003293	26.5469999313
970.0	0.000332	26.5940001011
970.0	0.0003345	26.625
970.0	0.0003368	26.6719999313
970.0	0.0003383	26.7190001011
970.0	0.0003393	26.75
970.0	0.0003405	26.7969999313
970.0	0.0003413	26.8280000687
970.0	0.0003415	26.875
970.0	0.0003415	26.9219999313
970.0	0.000342	26.9530000687
970.0	0.0003425	27.0
970.0	0.000343	27.0469999313
970.0	0.000343	27.0780000687
970.0	0.000343	27.125
970.0	0.0003433	27.1719999313
970.0	0.0003433	27.2030000687
970.0	0.0003433	27.25
970.0	0.000343	27.2809998989
970.0	0.0003428	27.3280000687
970.0	0.000343	27.375
970.0	0.000343	27.4059998989
970.0	0.000343	27.4530000687
970.0	0.0003428	27.5
970.0	0.0003425	27.5309998989
970.0	0.0003425	27.5780000687
970.0	0.0003428	27.6089999676
970.0	0.0003425	27.6559998989
970.0	0.0003425	27.7030000687
970.0	0.0003428	27.7339999676
970.0	0.0003433	27.7809998989
970.0	0.000344	27.8280000687
970.0	0.000344	27.8589999676
970.0	0.0003438	27.9059998989
970.0	0.0003438	27.9370000362
970.0	0.0003433	27.9839999676
970.0	0.000343	28.0309998989
980.0	0.0003515	28.3120000362
980.0	0.0003545	28.3440001011
980.0	0.0003568	28.3910000324
980.0	0.000359	28.4219999313
980.0	0.0003605	28.4690001011
980.0	0.0003618	28.5160000324
980.0	0.000363	28.5469999313
980.0	0.000364	28.5940001011
980.0	0.0003645	28.6410000324
980.0	0.000365	28.6719999313
980.0	0.0003653	28.7190001011
980.0	0.0003653	28.7660000324
980.0	0.0003655	28.7969999313
980.0	0.0003658	28.8440001011
980.0	0.0003658	28.8910000324
980.0	0.0003658	28.9219999313
980.0	0.0003658	28.9690001011
980.0	0.0003655	29.0160000324
980.0	0.0003655	29.0469999313
980.0	0.0003653	29.0940001011
980.0	0.0003653	29.125
980.0	0.0003655	29.1719999313
980.0	0.0003655	29.2190001011
980.0	0.0003655	29.25
980.0	0.0003653	29.2969999313
980.0	0.000365	29.3440001011
980.0	0.000365	29.375
980.0	0.0003653	29.4219999313
980.0	0.0003653	29.4530000687
980.0	0.0003653	29.5
980.0	0.000365	29.5469999313
980.0	0.0003645	29.5780000687
980.0	0.0003645	29.625
980.0	0.0003645	29.6719999313
980.0	0.000365	29.7030000687
980.0	0.0003653	29.75
980.0	0.000365	29.7809998989
990.0	0.0003743	30.0620000362
990.0	0.000377	30.1089999676
990.0	0.00038	30.1559998989
990.0	0.000382	30.1870000362
990.0	0.000384	30.2339999676
990.0	0.0003853	30.2809998989
990.0	0.0003863	30.3120000362
990.0	0.000387	30.3589999676
990.0	0.0003875	30.3910000324
990.0	0.0003875	30.4370000362
990.0	0.000388	30.4839999676
990.0	0.000388	30.5160000324
990.0	0.000388	30.5620000362
990.0	0.000388	30.6089999676
990.0	0.000388	30.6410000324
990.0	0.0003883	30.6870000362
990.0	0.0003883	30.7190001011
990.0	0.0003888	30.7660000324
990.0	0.000388	30.8120000362
990.0	0.000388	30.8440001011
990.0	0.0003878	30.8910000324
990.0	0.0003875	30.9370000362
990.0	0.0003878	30.9690001011
990.0	0.0003878	31.0160000324
990.0	0.0003878	31.0469999313
990.0	0.0003878	31.0940001011
990.0	0.0003878	31.1410000324
990.0	0.000388	31.1719999313
990.0	0.000388	31.2190001011
990.0	0.000388	31.2660000324
990.0	0.000388	31.2969999313
990.0	0.000388	31.3440001011
990.0	0.0003883	31.375
990.0	0.0003888	31.4219999313
990.0	0.0003888	31.4690001011
990.0	0.0003888	31.5
990.0	0.0003888	31.5469999313
1000.0	0.000397	31.8280000687
1000.0	0.0004005	31.8589999676
1000.0	0.000403	31.9059998989
1000.0	0.000405	31.9530000687
1000.0	0.0004068	31.9839999676
1000.0	0.000408	32.0309998989
1000.0	0.0004088	32.0780000687
1000.0	0.0004093	32.1089999676
1000.0	0.00041	32.1559998989
1000.0	0.0004105	32.2030000687
1000.0	0.0004108	32.2339999676
1000.0	0.0004108	32.2809998989
1000.0	0.0004113	32.3120000362
1000.0	0.0004108	32.3589999676
1000.0	0.0004108	32.4059998989
1000.0	0.0004113	32.4370000362
1000.0	0.0004115	32.4839999676
1000.0	0.0004115	32.5309998989
1000.0	0.0004115	32.5620000362
1000.0	0.0004113	32.6089999676
1000.0	0.0004113	32.6410000324
1000.0	0.0004115	32.6870000362
1000.0	0.0004118	32.7339999676
1000.0	0.0004118	32.7660000324
1000.0	0.0004118	32.8120000362
1000.0	0.000412	32.8589999676
1000.0	0.000412	32.8910000324
1000.0	0.000412	32.9370000362
1000.0	0.000412	32.9690001011
1000.0	0.0004118	33.0160000324
1000.0	0.0004115	33.0620000362
1000.0	0.0004115	33.0940001011
1000.0	0.0004113	33.1410000324
1000.0	0.0004113	33.1870000362
1000.0	0.0004113	33.2190001011
1000.0	0.0004108	33.2660000324
1000.0	0.0004113	33.3120000362
1010.0	0.0004208	33.5780000687
1010.0	0.000424	33.625
1010.0	0.0004268	33.6719999313
1010.0	0.0004293	33.7030000687
1010.0	0.0004313	33.75
1010.0	0.000432	33.7809998989
1010.0	0.000433	33.8280000687
1010.0	0.0004338	33.875
1010.0	0.000434	33.9059998989
1010.0	0.0004338	33.9530000687
1010.0	0.0004343	34.0
1010.0	0.0004343	34.0469999313
1010.0	0.0004345	34.0780000687
1010.0	0.000435	34.125
1010.0	0.000435	34.1559998989
1010.0	0.0004355	34.2030000687
1010.0	0.0004358	34.25
1010.0	0.0004363	34.2809998989
1010.0	0.0004363	34.3280000687
1010.0	0.0004358	34.375
1010.0	0.0004358	34.4059998989
1010.0	0.0004358	34.4530000687
1010.0	0.0004358	34.4839999676
1010.0	0.0004358	34.5309998989
1010.0	0.0004363	34.5780000687
1010.0	0.0004363	34.6089999676
1010.0	0.0004363	34.6559998989
1010.0	0.0004363	34.7030000687
1010.0	0.0004358	34.7339999676
1010.0	0.0004358	34.7809998989
1010.0	0.0004358	34.8280000687
1010.0	0.0004363	34.8589999676
1010.0	0.0004363	34.9059998989
1010.0	0.0004358	34.9370000362
1010.0	0.0004355	34.9839999676
1010.0	0.0004355	35.0309998989
1010.0	0.0004353	35.0620000362
1020.0	0.000444	35.3440001011
1020.0	0.0004468	35.3910000324
1020.0	0.00045	35.4219999313
1020.0	0.000452	35.4690001011
1020.0	0.0004538	35.5160000324
1020.0	0.000455	35.5469999313
1020.0	0.0004558	35.5940001011
1020.0	0.0004563	35.6410000324
1020.0	0.000457	35.6719999313
1020.0	0.0004575	35.7190001011
1020.0	0.0004578	35.75
1020.0	0.000458	35.7969999313
1020.0	0.0004588	35.8440001011
1020.0	0.000459	35.875
1020.0	0.0004593	35.9219999313
1020.0	0.000459	35.9690001011
1020.0	0.000459	36.0
1020.0	0.0004588	36.0469999313
1020.0	0.0004583	36.0780000687
1020.0	0.000458	36.125
1020.0	0.0004578	36.1719999313
1020.0	0.0004578	36.2030000687
1020.0	0.0004578	36.25
1020.0	0.0004578	36.2969999313
1020.0	0.000458	36.3280000687
1020.0	0.000458	36.375
1020.0	0.000458	36.4059998989
1020.0	0.000458	36.4530000687
1020.0	0.0004583	36.5
1020.0	0.000458	36.5309998989
1020.0	0.000458	36.5780000687
1020.0	0.000458	36.625
1020.0	0.000458	36.6559998989
1020.0	0.000458	36.7030000687
1020.0	0.0004578	36.7339999676
1020.0	0.0004578	36.7809998989
1020.0	0.0004578	36.8280000687
1030.0	0.000467	37.1089999676
1030.0	0.00047	37.1559998989
1030.0	0.000472	37.1870000362
1030.0	0.0004738	37.2339999676
1030.0	0.0004753	37.2660000324
1030.0	0.0004763	37.3120000362
1030.0	0.0004775	37.3589999676
1030.0	0.0004783	37.3910000324
1030.0	0.000479	37.4370000362
1030.0	0.0004795	37.4839999676
1030.0	0.00048	37.5160000324
1030.0	0.0004805	37.5620000362
1030.0	0.0004808	37.6089999676
1030.0	0.0004805	37.6410000324
1030.0	0.0004805	37.6870000362
1030.0	0.0004805	37.7190001011
1030.0	0.0004805	37.7660000324
1030.0	0.0004805	37.8120000362
1030.0	0.0004805	37.8440001011
1030.0	0.0004805	37.8910000324
1030.0	0.0004805	37.9219999313
1030.0	0.0004805	37.9690001011
1030.0	0.0004808	38.0160000324
1030.0	0.0004808	38.0469999313
1030.0	0.0004808	38.0940001011
1030.0	0.0004808	38.1410000324
1030.0	0.0004808	38.1719999313
1030.0	0.0004805	38.2190001011
1030.0	0.0004808	38.25
1030.0	0.0004813	38.2969999313
1030.0	0.0004813	38.3440001011
1030.0	0.0004815	38.3910000324
1030.0	0.0004818	38.4219999313
1030.0	0.0004815	38.4690001011
1030.0	0.0004813	38.5160000324
1030.0	0.0004813	38.5469999313
1030.0	0.0004813	38.5940001011
1040.0	0.0004905	38.875
1040.0	0.0004938	38.9219999313
1040.0	0.0004963	38.9530000687
1040.0	0.0004983	39.0
1040.0	0.0005	39.0309998989
1040.0	0.0005008	39.0780000687
1040.0	0.0005015	39.125
1040.0	0.0005018	39.1559998989
1040.0	0.000502	39.2030000687
1040.0	0.0005025	39.25
1040.0	0.000503	39.2809998989
1040.0	0.0005033	39.3280000687
1040.0	0.0005038	39.375
1040.0	0.0005043	39.4059998989
1040.0	0.0005043	39.4530000687
1040.0	0.0005045	39.4839999676
1040.0	0.0005045	39.5309998989
1040.0	0.0005045	39.5780000687
1040.0	0.0005045	39.6089999676
1040.0	0.0005045	39.6559998989
1040.0	0.0005045	39.7030000687
1040.0	0.0005045	39.7339999676
1040.0	0.000505	39.7809998989
1040.0	0.0005053	39.8120000362
1040.0	0.0005053	39.8589999676
1040.0	0.0005055	39.9059998989
1040.0	0.0005055	39.9370000362
1040.0	0.0005058	39.9839999676
1040.0	0.0005055	40.0309998989
1040.0	0.0005058	40.0620000362
1040.0	0.0005055	40.1089999676
1040.0	0.0005053	40.1410000324
1040.0	0.0005055	40.1870000362
1040.0	0.0005055	40.2339999676
1040.0	0.0005055	40.2660000324
1040.0	0.0005055	40.3120000362
1040.0	0.0005055	40.3589999676
1050.0	0.0005143	40.6410000324
1050.0	0.0005175	40.6719999313
1050.0	0.00052	40.7190001011
1050.0	0.0005218	40.7660000324
1050.0	0.000523	40.7969999313
1050.0	0.0005243	40.8440001011
1050.0	0.0005255	40.875
1050.0	0.0005265	40.9219999313
1050.0	0.0005275	40.9690001011
1050.0	0.0005278	41.0
1050.0	0.000528	41.0469999313
1050.0	0.0005283	41.0940001011
1050.0	0.0005283	41.125
1050.0	0.0005283	41.1719999313
1050.0	0.0005283	41.2030000687
1050.0	0.0005283	41.25
1050.0	0.0005288	41.2969999313
1050.0	0.0005288	41.3280000687
1050.0	0.000529	41.375
1050.0	0.0005293	41.4219999313
1050.0	0.0005295	41.4530000687
1050.0	0.0005295	41.5
1050.0	0.0005295	41.5469999313
1050.0	0.0005295	41.5780000687
1050.0	0.00053	41.625
1050.0	0.00053	41.6559998989
1050.0	0.00053	41.7030000687
1050.0	0.0005303	41.75
1050.0	0.0005303	41.7809998989
1050.0	0.00053	41.8280000687
1050.0	0.00053	41.875
1050.0	0.00053	41.9059998989
1050.0	0.00053	41.9530000687
1050.0	0.0005295	41.9839999676
1050.0	0.0005295	42.0309998989
1050.0	0.00053	42.0780000687
1050.0	0.00053	42.1089999676
1060.0	0.000539	42.4059998989
1060.0	0.000542	42.4370000362
1060.0	0.0005443	42.4839999676
1060.0	0.0005458	42.5160000324
1060.0	0.0005475	42.5620000362
1060.0	0.0005483	42.6089999676
1060.0	0.0005493	42.6410000324
1060.0	0.00055	42.6870000362
1060.0	0.0005503	42.7339999676
1060.0	0.0005508	42.7660000324
1060.0	0.0005513	42.8120000362
1060.0	0.0005518	42.8440001011
1060.0	0.0005518	42.8910000324
1060.0	0.0005518	42.9370000362
1060.0	0.0005515	42.9690001011
1060.0	0.0005513	43.0160000324
1060.0	0.0005513	43.0620000362
1060.0	0.0005515	43.0940001011
1060.0	0.0005515	43.1410000324
1060.0	0.0005518	43.1719999313
1060.0	0.000552	43.2190001011
1060.0	0.0005525	43.2660000324
1060.0	0.0005525	43.2969999313
1060.0	0.0005528	43.3440001011
1060.0	0.0005525	43.3910000324
1060.0	0.0005525	43.4219999313
1060.0	0.000552	43.4690001011
1060.0	0.000552	43.5
1060.0	0.000552	43.5469999313
1060.0	0.0005518	43.5940001011
1060.0	0.0005518	43.625
1060.0	0.0005518	43.6719999313
1060.0	0.0005518	43.7190001011
1060.0	0.0005515	43.75
1060.0	0.0005515	43.7969999313
1060.0	0.0005515	43.8280000687
1060.0	0.0005513	43.875
1070.0	0.00056	44.1559998989
1070.0	0.0005628	44.2030000687
1070.0	0.0005645	44.2339999676
1070.0	0.0005663	44.2809998989
1070.0	0.0005678	44.3280000687
1070.0	0.000569	44.3589999676
1070.0	0.0005703	44.4059998989
1070.0	0.0005713	44.4530000687
1070.0	0.000572	44.5
1070.0	0.0005728	44.5309998989
1070.0	0.000573	44.5780000687
1070.0	0.0005728	44.6089999676
1070.0	0.0005725	44.6559998989
1070.0	0.000572	44.7030000687
1070.0	0.000572	44.7339999676
1070.0	0.0005725	44.7809998989
1070.0	0.0005725	44.8280000687
1070.0	0.0005725	44.8589999676
1070.0	0.0005725	44.9059998989
1070.0	0.0005725	44.9370000362
1070.0	0.0005718	44.9839999676
1070.0	0.0005715	45.0309998989
1070.0	0.0005715	45.0620000362
1070.0	0.0005715	45.1089999676
1070.0	0.0005715	45.1559998989
1070.0	0.0005715	45.1870000362
1070.0	0.0005715	45.2339999676
1070.0	0.0005715	45.2809998989
1070.0	0.0005715	45.3120000362
1070.0	0.0005718	45.3589999676
1070.0	0.0005715	45.3910000324
1070.0	0.0005713	45.4370000362
1070.0	0.0005713	45.4839999676
1070.0	0.0005713	45.5160000324
1070.0	0.0005708	45.5620000362
1070.0	0.0005708	45.6089999676
1080.0	0.0005788	45.8910000324
1080.0	0.0005815	45.9219999313
1080.0	0.0005838	45.9690001011
1080.0	0.0005853	46.0
1080.0	0.0005865	46.0469999313
1080.0	0.0005875	46.0940001011
1080.0	0.0005883	46.125
1080.0	0.0005888	46.1719999313
1080.0	0.000589	46.2190001011
1080.0	0.0005893	46.25
1080.0	0.0005893	46.2969999313
1080.0	0.0005893	46.3440001011
1080.0	0.0005895	46.375
1080.0	0.0005893	46.4219999313
1080.0	0.0005895	46.4690001011
1080.0	0.00059	46.5
1080.0	0.00059	46.5469999313
1080.0	0.00059	46.5940001011
1080.0	0.00059	46.625
1080.0	0.00059	46.6719999313
1080.0	0.00059	46.7030000687
1080.0	0.0005895	46.75
1080.0	0.0005893	46.7969999313
1080.0	0.000589	46.8280000687
1080.0	0.000589	46.875
1080.0	0.000589	46.9219999313
1080.0	0.0005893	46.9530000687
1080.0	0.0005895	47.0
1080.0	0.00059	47.0469999313
1080.0	0.00059	47.0780000687
1080.0	0.0005903	47.125
1080.0	0.0005903	47.1719999313
1080.0	0.0005903	47.2030000687
1080.0	0.0005908	47.25
1080.0	0.0005908	47.2969999313
1080.0	0.0005905	47.3280000687
1080.0	0.0005905	47.375
1090.0	0.000597	47.6559998989
1090.0	0.000599	47.6870000362
1090.0	0.0006008	47.7339999676
1090.0	0.0006025	47.7809998989
1090.0	0.0006038	47.8120000362
1090.0	0.0006045	47.8589999676
1090.0	0.0006053	47.8910000324
1090.0	0.0006055	47.9370000362
1090.0	0.0006058	47.9839999676
1090.0	0.0006063	48.0160000324
1090.0	0.0006065	48.0620000362
1090.0	0.0006065	48.1089999676
1090.0	0.0006068	48.1410000324
1090.0	0.0006065	48.1870000362
1090.0	0.0006068	48.2190001011
1090.0	0.0006068	48.2660000324
1090.0	0.0006068	48.3120000362
1090.0	0.000607	48.3440001011
1090.0	0.0006075	48.3910000324
1090.0	0.000607	48.4370000362
1090.0	0.0006075	48.4690001011
1090.0	0.0006075	48.5160000324
1090.0	0.0006075	48.5469999313
1090.0	0.000607	48.5940001011
1090.0	0.000607	48.6410000324
1090.0	0.000607	48.6719999313
1090.0	0.000607	48.7190001011
1090.0	0.0006075	48.7660000324
1090.0	0.0006078	48.7969999313
1090.0	0.0006083	48.8440001011
1090.0	0.0006083	48.8910000324
1090.0	0.0006088	48.9219999313
1090.0	0.0006088	48.9690001011
1090.0	0.0006083	49.0
1090.0	0.0006083	49.0469999313
1090.0	0.000608	49.0940001011
1090.0	0.000608	49.125
1100.0	0.000612	49.4059998989
1100.0	0.000614	49.4530000687
1100.0	0.0006155	49.5
1100.0	0.0006168	49.5309998989
1100.0	0.000618	49.5780000687
1100.0	0.000619	49.625
1100.0	0.0006193	49.6559998989
1100.0	0.0006195	49.7030000687
1100.0	0.00062	49.7339999676
1100.0	0.0006195	49.7809998989
1100.0	0.00062	49.8280000687
1100.0	0.00062	49.8589999676
1100.0	0.0006203	49.9059998989
1100.0	0.0006203	49.9530000687
1100.0	0.0006208	49.9839999676
1100.0	0.0006215	50.0309998989
1100.0	0.0006218	50.0780000687
1100.0	0.000622	50.1089999676
1100.0	0.0006225	50.1559998989
1100.0	0.0006228	50.2030000687
1100.0	0.0006228	50.2339999676
1100.0	0.0006228	50.2809998989
1100.0	0.0006225	50.3280000687
1100.0	0.0006225	50.3589999676
1100.0	0.0006225	50.4059998989
1100.0	0.000622	50.4530000687
1100.0	0.0006225	50.4839999676
1100.0	0.0006225	50.5309998989
1100.0	0.000622	50.5780000687
1100.0	0.0006218	50.6089999676
1100.0	0.0006215	50.6559998989
1100.0	0.0006218	50.6870000362
1100.0	0.0006218	50.7339999676
1100.0	0.0006218	50.7809998989
1100.0	0.0006218	50.8120000362
1100.0	0.000622	50.8589999676
1110.0	0.0006263	51.1410000324
1110.0	0.0006275	51.1719999313
1110.0	0.000628	51.2190001011
1110.0	0.0006288	51.2660000324
1110.0	0.000629	51.2969999313
1110.0	0.0006293	51.3440001011
1110.0	0.00063	51.3910000324
1110.0	0.00063	51.4219999313
1110.0	0.00063	51.4690001011
1110.0	0.0006303	51.5
1110.0	0.0006308	51.5469999313
1110.0	0.0006308	51.5940001011
1110.0	0.0006308	51.625
1110.0	0.0006308	51.6719999313
1110.0	0.0006313	51.7190001011
1110.0	0.0006315	51.75
1110.0	0.0006315	51.7969999313
1110.0	0.0006315	51.8440001011
1110.0	0.0006313	51.875
1110.0	0.0006313	51.9219999313
1110.0	0.0006308	51.9530000687
1110.0	0.0006305	52.0
1110.0	0.0006303	52.0469999313
1110.0	0.0006303	52.0780000687
1110.0	0.00063	52.125
1110.0	0.00063	52.1719999313
1110.0	0.00063	52.2030000687
1110.0	0.00063	52.25
1110.0	0.0006303	52.2809998989
1110.0	0.0006303	52.3280000687
1110.0	0.00063	52.375
1110.0	0.0006303	52.4059998989
1110.0	0.0006303	52.4530000687
1110.0	0.0006303	52.5
1110.0	0.0006305	52.5309998989
1110.0	0.0006305	52.5780000687
1110.0	0.0006305	52.6089999676
1120.0	0.0006318	52.8910000324
1120.0	0.0006325	52.9370000362
1120.0	0.000633	52.9690001011
1120.0	0.0006338	53.0160000324
1120.0	0.0006338	53.0620000362
1120.0	0.000634	53.0940001011
1120.0	0.0006343	53.1410000324
1120.0	0.000635	53.1719999313
1120.0	0.000635	53.2190001011
1120.0	0.0006353	53.2660000324
1120.0	0.0006358	53.2969999313
1120.0	0.0006358	53.3440001011
1120.0	0.0006363	53.3910000324
1120.0	0.0006365	53.4219999313
1120.0	0.0006363	53.4690001011
1120.0	0.0006363	53.5160000324
1120.0	0.0006365	53.5469999313
1120.0	0.0006368	53.5940001011
1120.0	0.0006368	53.625
1120.0	0.0006368	53.6719999313
1120.0	0.0006368	53.7190001011
1120.0	0.0006368	53.75
1120.0	0.000637	53.7969999313
1120.0	0.000637	53.8440001011
1120.0	0.000637	53.875
1120.0	0.000637	53.9219999313
1120.0	0.000637	53.9530000687
1120.0	0.0006375	54.0
1120.0	0.0006375	54.0469999313
1120.0	0.0006375	54.0780000687
1120.0	0.0006378	54.125
1120.0	0.0006383	54.1719999313
1120.0	0.0006388	54.2030000687
1120.0	0.0006383	54.25
1120.0	0.000638	54.2809998989
1120.0	0.000638	54.3280000687
1120.0	0.0006383	54.375
1130.0	0.0006393	54.6410000324
1130.0	0.0006398	54.6870000362
1130.0	0.00064	54.7339999676
1130.0	0.0006405	54.7660000324
1130.0	0.0006413	54.8120000362
1130.0	0.0006413	54.8589999676
1130.0	0.0006415	54.8910000324
1130.0	0.0006418	54.9370000362
1130.0	0.0006415	54.9690001011
1130.0	0.0006415	55.0160000324
1130.0	0.0006413	55.0620000362
1130.0	0.000641	55.0940001011
1130.0	0.0006405	55.1410000324
1130.0	0.0006403	55.1870000362
1130.0	0.0006403	55.2190001011
1130.0	0.00064	55.2660000324
1130.0	0.0006403	55.2969999313
1130.0	0.0006403	55.3440001011
1130.0	0.00064	55.3910000324
1130.0	0.0006398	55.4219999313
1130.0	0.0006398	55.4690001011
1130.0	0.0006398	55.5160000324
1130.0	0.0006398	55.5469999313
1130.0	0.0006398	55.5940001011
1130.0	0.0006398	55.625
1130.0	0.00064	55.6719999313
1130.0	0.0006398	55.7190001011
1130.0	0.0006398	55.75
1130.0	0.0006398	55.7969999313
1130.0	0.0006398	55.8440001011
1130.0	0.0006398	55.875
1130.0	0.0006398	55.9219999313
1130.0	0.0006398	55.9530000687
1130.0	0.0006398	56.0
1130.0	0.0006398	56.0469999313
1130.0	0.0006395	56.0780000687
1130.0	0.0006395	56.125
1140.0	0.0006403	56.3910000324
1140.0	0.0006405	56.4370000362
1140.0	0.000641	56.4839999676
1140.0	0.000641	56.5160000324
1140.0	0.0006413	56.5620000362
1140.0	0.0006415	56.5940001011
1140.0	0.0006415	56.6410000324
1140.0	0.0006415	56.6870000362
1140.0	0.0006418	56.7190001011
1140.0	0.0006423	56.7660000324
1140.0	0.0006428	56.8120000362
1140.0	0.0006428	56.8589999676
1140.0	0.0006428	56.8910000324
1140.0	0.000643	56.9370000362
1140.0	0.0006428	56.9690001011
1140.0	0.0006428	57.0160000324
1140.0	0.0006428	57.0620000362
1140.0	0.0006428	57.1089999676
1140.0	0.0006428	57.1410000324
1140.0	0.000643	57.1870000362
1140.0	0.0006435	57.2339999676
1140.0	0.0006435	57.2660000324
1140.0	0.0006435	57.3120000362
1140.0	0.000643	57.3589999676
1140.0	0.0006428	57.3910000324
1140.0	0.0006428	57.4370000362
1140.0	0.0006428	57.4690001011
1140.0	0.0006425	57.5160000324
1140.0	0.0006428	57.5620000362
1140.0	0.0006428	57.5940001011
1140.0	0.0006428	57.6410000324
1140.0	0.000643	57.6870000362
1140.0	0.0006428	57.7190001011
1140.0	0.0006425	57.7660000324
1140.0	0.0006425	57.7969999313
1140.0	0.0006428	57.8440001011
1140.0	0.0006425	57.8910000324
1150.0	0.0006423	58.1559998989
1150.0	0.0006425	58.1870000362
1150.0	0.0006425	58.2339999676
1150.0	0.0006425	58.2809998989
1150.0	0.0006423	58.3120000362
1150.0	0.0006425	58.3589999676
1150.0	0.0006425	58.4059998989
1150.0	0.0006425	58.4370000362
1150.0	0.0006425	58.4839999676
1150.0	0.0006425	58.5309998989
1150.0	0.0006425	58.5620000362
1150.0	0.0006423	58.6089999676
1150.0	0.0006423	58.6410000324
1150.0	0.0006423	58.6870000362
1150.0	0.0006423	58.7339999676
1150.0	0.0006423	58.7660000324
1150.0	0.0006423	58.8120000362
1150.0	0.0006423	58.8589999676
1150.0	0.0006423	58.8910000324
1150.0	0.0006425	58.9370000362
1150.0	0.0006425	58.9690001011
1150.0	0.0006428	59.0160000324
1150.0	0.0006425	59.0620000362
1150.0	0.0006425	59.0940001011
1150.0	0.0006425	59.1410000324
1150.0	0.0006428	59.1719999313
1150.0	0.0006425	59.2190001011
1150.0	0.0006425	59.2660000324
1150.0	0.0006425	59.2969999313
1150.0	0.0006425	59.3440001011
1150.0	0.0006425	59.3910000324
1150.0	0.0006428	59.4219999313
1150.0	0.000643	59.4690001011
1150.0	0.0006435	59.5160000324
1150.0	0.0006435	59.5469999313
1150.0	0.0006435	59.5940001011
1150.0	0.000643	59.625
1160.0	0.000644	59.8910000324
1160.0	0.0006448	59.9370000362
1160.0	0.0006443	59.9839999676
1160.0	0.0006443	60.0160000324
1160.0	0.0006443	60.0620000362
1160.0	0.0006448	60.0940001011
1160.0	0.0006448	60.1410000324
1160.0	0.0006448	60.1870000362
1160.0	0.0006448	60.2190001011
1160.0	0.0006448	60.2660000324
1160.0	0.0006443	60.3120000362
1160.0	0.0006443	60.3440001011
1160.0	0.0006448	60.3910000324
1160.0	0.000645	60.4219999313
1160.0	0.0006453	60.4690001011
1160.0	0.000646	60.5160000324
1160.0	0.000646	60.5469999313
1160.0	0.0006455	60.5940001011
1160.0	0.0006455	60.6410000324
1160.0	0.0006455	60.6719999313
1160.0	0.0006455	60.7190001011
1160.0	0.0006453	60.75
1160.0	0.0006448	60.7969999313
1160.0	0.0006448	60.8440001011
1160.0	0.0006443	60.875
1160.0	0.000644	60.9219999313
1160.0	0.000644	60.9690001011
1160.0	0.0006438	61.0
1160.0	0.0006435	61.0469999313
1160.0	0.0006435	61.0780000687
1160.0	0.0006435	61.125
1160.0	0.000643	61.1719999313
1160.0	0.0006428	61.2030000687
1160.0	0.0006425	61.25
1160.0	0.0006423	61.2969999313
1160.0	0.0006418	61.3280000687
1160.0	0.0006415	61.375
1170.0	0.0006423	61.625
1170.0	0.0006425	61.6719999313
1170.0	0.0006428	61.7190001011
1170.0	0.0006428	61.75
1170.0	0.0006425	61.7969999313
1170.0	0.0006425	61.8440001011
1170.0	0.0006428	61.875
1170.0	0.000643	61.9219999313
1170.0	0.0006438	61.9530000687
1170.0	0.000644	62.0
1170.0	0.0006443	62.0469999313
1170.0	0.0006448	62.0780000687
1170.0	0.000645	62.125
1170.0	0.0006453	62.1719999313
1170.0	0.0006455	62.2030000687
1170.0	0.000646	62.25
1170.0	0.0006463	62.2969999313
1170.0	0.0006465	62.3280000687
1170.0	0.0006463	62.375
1170.0	0.0006463	62.4059998989
1170.0	0.0006463	62.4530000687
1170.0	0.0006463	62.5
1170.0	0.0006463	62.5309998989
1170.0	0.000646	62.5780000687
1170.0	0.000646	62.625
1170.0	0.000646	62.6559998989
1170.0	0.000646	62.7030000687
1170.0	0.0006463	62.7339999676
1170.0	0.0006463	62.7809998989
1170.0	0.0006463	62.8280000687
1170.0	0.0006465	62.8589999676
1170.0	0.0006465	62.9059998989
1170.0	0.0006465	62.9530000687
1170.0	0.0006463	62.9839999676
1170.0	0.000646	63.0309998989
1170.0	0.000646	63.0620000362
1170.0	0.0006455	63.1089999676
1180.0	0.0006465	63.375
1180.0	0.0006468	63.4059998989
1180.0	0.0006473	63.4530000687
1180.0	0.0006475	63.5
1180.0	0.0006478	63.5309998989
1180.0	0.0006478	63.5780000687
1180.0	0.0006478	63.6089999676
1180.0	0.0006478	63.6559998989
1180.0	0.0006478	63.7030000687
1180.0	0.0006478	63.7339999676
1180.0	0.0006478	63.7809998989
1180.0	0.0006478	63.8280000687
1180.0	0.0006475	63.8589999676
1180.0	0.0006473	63.9059998989
1180.0	0.0006468	63.9530000687
1180.0	0.0006473	63.9839999676
1180.0	0.0006473	64.0309998989
1180.0	0.0006465	64.0780000687
1180.0	0.0006465	64.1089999676
1180.0	0.0006468	64.1559998989
1180.0	0.0006473	64.2030000687
1180.0	0.0006468	64.2339999676
1180.0	0.0006468	64.2809998989
1180.0	0.0006465	64.3120000362
1180.0	0.0006465	64.3589999676
1180.0	0.0006468	64.4059998989
1180.0	0.0006473	64.4370000362
1180.0	0.0006473	64.4839999676
1180.0	0.0006473	64.5309998989
1180.0	0.0006473	64.5620000362
1180.0	0.0006473	64.6089999676
1180.0	0.0006475	64.6410000324
1180.0	0.0006475	64.6870000362
1180.0	0.0006475	64.7339999676
1180.0	0.0006475	64.7660000324
1180.0	0.0006475	64.8120000362
1180.0	0.0006475	64.8589999676
1190.0	0.0006493	65.1089999676
1190.0	0.00065	65.1559998989
1190.0	0.0006505	65.1870000362
1190.0	0.0006513	65.2339999676
1190.0	0.0006515	65.2809998989
1190.0	0.0006523	65.3120000362
1190.0	0.0006525	65.3589999676
1190.0	0.0006525	65.4059998989
1190.0	0.0006525	65.4370000362
1190.0	0.0006525	65.4839999676
1190.0	0.0006525	65.5309998989
1190.0	0.0006525	65.5620000362
1190.0	0.0006523	65.6089999676
1190.0	0.0006523	65.6559998989
1190.0	0.0006523	65.6870000362
1190.0	0.0006518	65.7339999676
1190.0	0.0006518	65.7660000324
1190.0	0.0006525	65.8120000362
1190.0	0.0006525	65.8589999676
1190.0	0.0006523	65.8910000324
1190.0	0.0006523	65.9370000362
1190.0	0.0006523	65.9839999676
1190.0	0.0006523	66.0160000324
1190.0	0.0006523	66.0620000362
1190.0	0.0006523	66.0940001011
1190.0	0.0006515	66.1410000324
1190.0	0.0006513	66.1870000362
1190.0	0.000651	66.2339999676
1190.0	0.0006505	66.2660000324
1190.0	0.0006505	66.3120000362
1190.0	0.0006505	66.3440001011
1190.0	0.0006505	66.3910000324
1190.0	0.0006505	66.4370000362
1190.0	0.0006505	66.4690001011
1190.0	0.0006503	66.5160000324
1190.0	0.0006503	66.5620000362
1200.0	0.0006523	66.8120000362
1200.0	0.0006528	66.8589999676
1200.0	0.0006535	66.9059998989
1200.0	0.000654	66.9370000362
1200.0	0.000654	66.9839999676
1200.0	0.0006548	67.0309998989
1200.0	0.0006553	67.0620000362
1200.0	0.000656	67.1089999676
1200.0	0.0006563	67.1410000324
1200.0	0.0006563	67.1870000362
1200.0	0.0006565	67.2339999676
1200.0	0.0006568	67.2660000324
1200.0	0.0006568	67.3120000362
1200.0	0.0006568	67.3589999676
1200.0	0.0006568	67.3910000324
1200.0	0.0006568	67.4370000362
1200.0	0.0006568	67.4839999676
1200.0	0.0006568	67.5160000324
1200.0	0.0006565	67.5620000362
1200.0	0.0006565	67.6089999676
1200.0	0.0006565	67.6410000324
1200.0	0.0006568	67.6870000362
1200.0	0.0006573	67.7339999676
1200.0	0.0006573	67.7660000324
1200.0	0.0006578	67.8120000362
1200.0	0.000658	67.8440001011
1200.0	0.000658	67.8910000324
1200.0	0.000658	67.9370000362
1200.0	0.0006578	67.9690001011
1200.0	0.0006578	68.0160000324
1200.0	0.000658	68.0620000362
1200.0	0.000658	68.0940001011
1200.0	0.0006585	68.1410000324
1200.0	0.0006585	68.1719999313
1200.0	0.0006585	68.2190001011
1200.0	0.0006585	68.2660000324
1200.0	0.0006585	68.2969999313
1210.0	0.0006603	68.5620000362
1210.0	0.0006615	68.6089999676
1210.0	0.0006625	68.6410000324
1210.0	0.000663	68.6870000362
1210.0	0.000664	68.7339999676
1210.0	0.0006643	68.7660000324
1210.0	0.0006648	68.8120000362
1210.0	0.000665	68.8589999676
1210.0	0.0006653	68.8910000324
1210.0	0.0006653	68.9370000362
1210.0	0.000665	68.9690001011
1210.0	0.0006648	69.0160000324
1210.0	0.0006643	69.0620000362
1210.0	0.0006643	69.0940001011
1210.0	0.0006648	69.1410000324
1210.0	0.000665	69.1870000362
1210.0	0.000665	69.2190001011
1210.0	0.000665	69.2660000324
1210.0	0.0006648	69.2969999313
1210.0	0.0006643	69.3440001011
1210.0	0.0006643	69.3910000324
1210.0	0.000664	69.4219999313
1210.0	0.000664	69.4690001011
1210.0	0.000664	69.5160000324
1210.0	0.000664	69.5469999313
1210.0	0.000664	69.5940001011
1210.0	0.000664	69.6410000324
1210.0	0.0006638	69.6719999313
1210.0	0.0006635	69.7190001011
1210.0	0.0006635	69.75
1210.0	0.000663	69.7969999313
1210.0	0.000663	69.8440001011
1210.0	0.000663	69.875
1210.0	0.0006635	69.9219999313
1210.0	0.0006635	69.9690001011
1210.0	0.0006635	70.0
1210.0	0.0006635	70.0469999313
1220.0	0.0006673	70.3120000362
1220.0	0.0006685	70.3589999676
1220.0	0.0006698	70.3910000324
1220.0	0.000671	70.4370000362
1220.0	0.0006723	70.4690001011
1220.0	0.0006735	70.5160000324
1220.0	0.0006735	70.5620000362
1220.0	0.000674	70.5940001011
1220.0	0.0006743	70.6410000324
1220.0	0.0006748	70.6870000362
1220.0	0.000675	70.7190001011
1220.0	0.0006753	70.7660000324
1220.0	0.0006753	70.7969999313
1220.0	0.0006755	70.8440001011
1220.0	0.0006755	70.8910000324
1220.0	0.0006753	70.9219999313
1220.0	0.0006755	70.9690001011
1220.0	0.000676	71.0160000324
1220.0	0.0006763	71.0469999313
1220.0	0.0006765	71.0940001011
1220.0	0.0006765	71.1410000324
1220.0	0.0006768	71.1719999313
1220.0	0.0006773	71.2190001011
1220.0	0.0006775	71.2660000324
1220.0	0.0006778	71.2969999313
1220.0	0.0006775	71.3440001011
1220.0	0.0006773	71.3910000324
1220.0	0.0006768	71.4219999313
1220.0	0.0006765	71.4690001011
1220.0	0.0006765	71.5160000324
1220.0	0.0006765	71.5469999313
1220.0	0.0006765	71.5940001011
1220.0	0.0006768	71.6410000324
1220.0	0.0006768	71.6719999313
1220.0	0.0006773	71.7190001011
1220.0	0.0006773	71.75
1220.0	0.0006773	71.7969999313
1230.0	0.0006798	72.0620000362
1230.0	0.000681	72.1089999676
1230.0	0.0006823	72.1559998989
1230.0	0.0006835	72.1870000362
1230.0	0.000684	72.2339999676
1230.0	0.0006843	72.2809998989
1230.0	0.0006843	72.3120000362
1230.0	0.0006848	72.3589999676
1230.0	0.0006848	72.3910000324
1230.0	0.0006848	72.4370000362
1230.0	0.0006848	72.4839999676
1230.0	0.000685	72.5160000324
1230.0	0.000685	72.5620000362
1230.0	0.000685	72.6089999676
1230.0	0.000685	72.6410000324
1230.0	0.0006853	72.6870000362
1230.0	0.0006855	72.7190001011
1230.0	0.0006855	72.7660000324
1230.0	0.0006855	72.8120000362
1230.0	0.000686	72.8440001011
1230.0	0.0006855	72.8910000324
1230.0	0.000686	72.9370000362
1230.0	0.000686	72.9690001011
1230.0	0.000686	73.0160000324
1230.0	0.000686	73.0469999313
1230.0	0.000686	73.0940001011
1230.0	0.0006855	73.1410000324
1230.0	0.0006855	73.1719999313
1230.0	0.0006855	73.2190001011
1230.0	0.0006855	73.2660000324
1230.0	0.0006855	73.2969999313
1230.0	0.0006853	73.3440001011
1230.0	0.000685	73.375
1230.0	0.0006853	73.4219999313
1230.0	0.0006853	73.4690001011
1230.0	0.0006853	73.5
1230.0	0.0006855	73.5469999313
1240.0	0.000691	73.8120000362
1240.0	0.000693	73.8589999676
1240.0	0.0006943	73.9059998989
1240.0	0.000695	73.9370000362
1240.0	0.000696	73.9839999676
1240.0	0.0006965	74.0309998989
1240.0	0.0006973	74.0620000362
1240.0	0.0006975	74.1089999676
1240.0	0.0006978	74.1410000324
1240.0	0.000698	74.1870000362
1240.0	0.0006985	74.2339999676
1240.0	0.0006988	74.2660000324
1240.0	0.0006988	74.3120000362
1240.0	0.000699	74.3589999676
1240.0	0.000699	74.3910000324
1240.0	0.000699	74.4370000362
1240.0	0.000699	74.4690001011
1240.0	0.0006988	74.5160000324
1240.0	0.000699	74.5620000362
1240.0	0.000699	74.5940001011
1240.0	0.0006998	74.6410000324
1240.0	0.0006998	74.6870000362
1240.0	0.0006998	74.7190001011
1240.0	0.0007	74.7660000324
1240.0	0.0007	74.7969999313
1240.0	0.0007	74.8440001011
1240.0	0.0007	74.8910000324
1240.0	0.0007	74.9219999313
1240.0	0.0007003	74.9690001011
1240.0	0.0007003	75.0160000324
1240.0	0.0007005	75.0469999313
1240.0	0.000701	75.0940001011
1240.0	0.0007005	75.125
1240.0	0.0007003	75.1719999313
1240.0	0.0007	75.2190001011
1240.0	0.0007	75.25
1240.0	0.0006998	75.2969999313
1250.0	0.0007043	75.5620000362
1250.0	0.000706	75.6089999676
1250.0	0.0007075	75.6559998989
1250.0	0.0007088	75.6870000362
1250.0	0.0007093	75.7339999676
1250.0	0.00071	75.7809998989
1250.0	0.000711	75.8120000362
1250.0	0.0007113	75.8589999676
1250.0	0.0007115	75.8910000324
1250.0	0.0007118	75.9370000362
1250.0	0.0007118	75.9839999676
1250.0	0.0007123	76.0160000324
1250.0	0.0007118	76.0620000362
1250.0	0.0007118	76.1089999676
1250.0	0.0007115	76.1410000324
1250.0	0.0007115	76.1870000362
1250.0	0.0007118	76.2190001011
1250.0	0.0007118	76.2660000324
1250.0	0.0007115	76.3120000362
1250.0	0.0007115	76.3440001011
1250.0	0.0007115	76.3910000324
1250.0	0.0007113	76.4370000362
1250.0	0.0007113	76.4690001011
1250.0	0.0007113	76.5160000324
1250.0	0.0007115	76.5469999313
1250.0	0.0007113	76.5940001011
1250.0	0.0007113	76.6410000324
1250.0	0.000711	76.6719999313
1250.0	0.0007105	76.7190001011
1250.0	0.0007103	76.7660000324
1250.0	0.0007103	76.7969999313
1250.0	0.0007103	76.8440001011
1250.0	0.0007103	76.875
1250.0	0.0007103	76.9219999313
1250.0	0.0007103	76.9690001011
1250.0	0.0007103	77.0160000324
1250.0	0.0007103	77.0469999313
1260.0	0.0007143	77.3280000687
1260.0	0.0007163	77.3589999676
1260.0	0.0007175	77.4059998989
1260.0	0.000719	77.4530000687
1260.0	0.00072	77.4839999676
1260.0	0.0007203	77.5309998989
1260.0	0.0007203	77.5620000362
1260.0	0.00072	77.6089999676
1260.0	0.00072	77.6559998989
1260.0	0.00072	77.6870000362
1260.0	0.0007203	77.7339999676
1260.0	0.000721	77.7809998989
1260.0	0.0007213	77.8120000362
1260.0	0.0007215	77.8589999676
1260.0	0.0007215	77.8910000324
1260.0	0.0007218	77.9370000362
1260.0	0.0007218	77.9839999676
1260.0	0.0007218	78.0160000324
1260.0	0.0007215	78.0620000362
1260.0	0.0007215	78.1089999676
1260.0	0.0007223	78.1410000324
1260.0	0.0007228	78.1870000362
1260.0	0.0007228	78.2190001011
1260.0	0.0007225	78.2660000324
1260.0	0.0007223	78.3120000362
1260.0	0.0007223	78.3440001011
1260.0	0.0007225	78.3910000324
1260.0	0.0007225	78.4370000362
1260.0	0.0007225	78.4690001011
1260.0	0.0007228	78.5160000324
1260.0	0.0007228	78.5469999313
1260.0	0.0007228	78.5940001011
1260.0	0.0007228	78.6410000324
1260.0	0.0007228	78.6719999313
1260.0	0.0007235	78.7190001011
1260.0	0.0007235	78.7660000324
1260.0	0.0007235	78.7969999313
1270.0	0.000726	79.0620000362
1270.0	0.0007268	79.1089999676
1270.0	0.0007285	79.1559998989
1270.0	0.0007293	79.1870000362
1270.0	0.00073	79.2339999676
1270.0	0.000731	79.2660000324
1270.0	0.0007315	79.3120000362
1270.0	0.0007318	79.3589999676
1270.0	0.0007323	79.3910000324
1270.0	0.0007318	79.4370000362
1270.0	0.0007318	79.4839999676
1270.0	0.0007318	79.5160000324
1270.0	0.0007315	79.5620000362
1270.0	0.0007315	79.6089999676
1270.0	0.0007313	79.6410000324
1270.0	0.0007313	79.6870000362
1270.0	0.0007315	79.7190001011
1270.0	0.0007315	79.7660000324
1270.0	0.0007318	79.8120000362
1270.0	0.0007318	79.8440001011
1270.0	0.0007323	79.8910000324
1270.0	0.0007328	79.9219999313
1270.0	0.000733	79.9690001011
1270.0	0.000733	80.0160000324
1270.0	0.0007328	80.0469999313
1270.0	0.000733	80.0940001011
1270.0	0.000733	80.1410000324
1270.0	0.000733	80.1719999313
1270.0	0.0007325	80.2190001011
1270.0	0.0007325	80.2660000324
1270.0	0.0007323	80.2969999313
1270.0	0.0007323	80.3440001011
1270.0	0.0007325	80.375
1270.0	0.0007325	80.4219999313
1270.0	0.0007328	80.4690001011
1270.0	0.000733	80.5
1270.0	0.0007335	80.5469999313
1280.0	0.0007348	80.8120000362
1280.0	0.0007355	80.8589999676
1280.0	0.000736	80.8910000324
1280.0	0.0007365	80.9370000362
1280.0	0.0007368	80.9839999676
1280.0	0.0007368	81.0160000324
1280.0	0.0007368	81.0620000362
1280.0	0.0007365	81.0940001011
1280.0	0.0007365	81.1410000324
1280.0	0.0007365	81.1870000362
1280.0	0.0007365	81.2190001011
1280.0	0.0007363	81.2660000324
1280.0	0.0007363	81.3120000362
1280.0	0.000736	81.3440001011
1280.0	0.000736	81.3910000324
1280.0	0.0007363	81.4219999313
1280.0	0.000736	81.4690001011
1280.0	0.000736	81.5160000324
1280.0	0.000736	81.5469999313
1280.0	0.000736	81.5940001011
1280.0	0.0007363	81.6410000324
1280.0	0.0007363	81.6719999313
1280.0	0.0007363	81.7190001011
1280.0	0.0007365	81.75
1280.0	0.0007363	81.7969999313
1280.0	0.0007363	81.8440001011
1280.0	0.0007363	81.875
1280.0	0.0007363	81.9219999313
1280.0	0.000736	81.9690001011
1280.0	0.0007355	82.0
1280.0	0.0007353	82.0469999313
1280.0	0.0007353	82.0780000687
1280.0	0.0007353	82.125
1280.0	0.000735	82.1719999313
1280.0	0.0007353	82.2030000687
1280.0	0.0007355	82.25
1280.0	0.000736	82.2969999313
1290.0	0.000736	82.5469999313
1290.0	0.0007355	82.5940001011
1290.0	0.000736	82.6410000324
1290.0	0.000736	82.6719999313
1290.0	0.0007355	82.7190001011
1290.0	0.0007355	82.7660000324
1290.0	0.000736	82.7969999313
1290.0	0.000736	82.8440001011
1290.0	0.000736	82.8910000324
1290.0	0.000736	82.9219999313
1290.0	0.0007355	82.9690001011
1290.0	0.0007353	83.0
1290.0	0.0007355	83.0469999313
1290.0	0.0007355	83.0940001011
1290.0	0.000736	83.125
1290.0	0.000736	83.1719999313
1290.0	0.000736	83.2190001011
1290.0	0.0007355	83.25
1290.0	0.0007355	83.2969999313
1290.0	0.0007353	83.3280000687
1290.0	0.0007353	83.375
1290.0	0.000735	83.4219999313
1290.0	0.0007348	83.4530000687
1290.0	0.0007348	83.5
1290.0	0.0007348	83.5469999313
1290.0	0.0007348	83.5780000687
1290.0	0.0007348	83.625
1290.0	0.0007348	83.6559998989
1290.0	0.0007348	83.7030000687
1290.0	0.0007348	83.75
1290.0	0.000735	83.7809998989
1290.0	0.000735	83.8280000687
1290.0	0.0007353	83.875
1290.0	0.000735	83.9059998989
1290.0	0.000735	83.9530000687
1290.0	0.0007348	83.9839999676
1290.0	0.0007348	84.0309998989
1300.0	0.0007335	84.2969999313
1300.0	0.000733	84.3440001011
1300.0	0.0007323	84.375
1300.0	0.0007318	84.4219999313
1300.0	0.0007315	84.4530000687
1300.0	0.0007315	84.5
1300.0	0.0007313	84.5469999313
1300.0	0.000731	84.5780000687
1300.0	0.0007305	84.625
1300.0	0.0007303	84.6719999313
1300.0	0.00073	84.7030000687
1300.0	0.00073	84.75
1300.0	0.0007298	84.7969999313
1300.0	0.0007293	84.8280000687
1300.0	0.0007293	84.875
1300.0	0.000729	84.9219999313
1300.0	0.0007288	84.9530000687
1300.0	0.0007288	85.0
1300.0	0.000729	85.0469999313
1300.0	0.000729	85.0780000687
1300.0	0.000729	85.125
1300.0	0.0007288	85.1559998989
1300.0	0.0007288	85.2030000687
1300.0	0.000729	85.25
1300.0	0.000729	85.2809998989
1300.0	0.0007293	85.3280000687
1300.0	0.0007298	85.375
1300.0	0.0007293	85.4059998989
1300.0	0.0007293	85.4530000687
1300.0	0.000729	85.4839999676
1300.0	0.0007288	85.5309998989
1300.0	0.0007288	85.5780000687
1300.0	0.0007288	85.6089999676
1300.0	0.0007285	85.6559998989
1300.0	0.0007288	85.7030000687
1300.0	0.0007288	85.7339999676
1300.0	0.000729	85.7809998989
1310.0	0.000725	86.0469999313
1310.0	0.0007235	86.0780000687
1310.0	0.0007223	86.125
1310.0	0.000721	86.1719999313
1310.0	0.00072	86.2030000687
1310.0	0.0007193	86.25
1310.0	0.000719	86.2809998989
1310.0	0.0007188	86.3280000687
1310.0	0.0007188	86.375
1310.0	0.0007185	86.4059998989
1310.0	0.0007185	86.4530000687
1310.0	0.000718	86.5
1310.0	0.0007175	86.5309998989
1310.0	0.0007175	86.5780000687
1310.0	0.0007173	86.6089999676
1310.0	0.0007173	86.6559998989
1310.0	0.0007175	86.7030000687
1310.0	0.0007175	86.7339999676
1310.0	0.000718	86.7809998989
1310.0	0.0007185	86.8280000687
1310.0	0.0007185	86.8589999676
1310.0	0.0007185	86.9059998989
1310.0	0.0007185	86.9370000362
1310.0	0.000718	86.9839999676
1310.0	0.0007185	87.0309998989
1310.0	0.0007178	87.0620000362
1310.0	0.0007175	87.1089999676
1310.0	0.0007178	87.1559998989
1310.0	0.0007173	87.1870000362
1310.0	0.0007168	87.2339999676
1310.0	0.0007168	87.2809998989
1310.0	0.0007168	87.3120000362
1310.0	0.0007173	87.3589999676
1310.0	0.0007173	87.3910000324
1310.0	0.0007173	87.4370000362
1310.0	0.0007175	87.4839999676
1310.0	0.0007178	87.5160000324
1320.0	0.0007123	87.7809998989
1320.0	0.0007098	87.8280000687
1320.0	0.0007075	87.8589999676
1320.0	0.000706	87.9059998989
1320.0	0.0007043	87.9530000687
1320.0	0.000703	87.9839999676
1320.0	0.0007023	88.0309998989
1320.0	0.0007015	88.0780000687
1320.0	0.000701	88.1089999676
1320.0	0.000701	88.1559998989
1320.0	0.0007005	88.1870000362
1320.0	0.000701	88.2339999676
1320.0	0.000701	88.2809998989
1320.0	0.000701	88.3120000362
1320.0	0.000701	88.3589999676
1320.0	0.000701	88.4059998989
1320.0	0.0007013	88.4370000362
1320.0	0.000701	88.4839999676
1320.0	0.0007005	88.5160000324
1320.0	0.0007005	88.5620000362
1320.0	0.0007005	88.6089999676
1320.0	0.0007003	88.6410000324
1320.0	0.0007	88.6870000362
1320.0	0.0007003	88.7339999676
1320.0	0.0007003	88.7660000324
1320.0	0.0007005	88.8120000362
1320.0	0.0007005	88.8440001011
1320.0	0.000701	88.8910000324
1320.0	0.0007013	88.9370000362
1320.0	0.0007013	88.9690001011
1320.0	0.0007015	89.0160000324
1320.0	0.0007015	89.0620000362
1320.0	0.0007013	89.0940001011
1320.0	0.0007013	89.1410000324
1320.0	0.000701	89.1719999313
1320.0	0.000701	89.2190001011
1320.0	0.000701	89.2660000324
1330.0	0.0006923	89.5309998989
1330.0	0.0006888	89.5620000362
1330.0	0.0006863	89.6089999676
1330.0	0.000684	89.6410000324
1330.0	0.0006825	89.6870000362
1330.0	0.0006815	89.7339999676
1330.0	0.0006803	89.7660000324
1330.0	0.00068	89.8120000362
1330.0	0.0006798	89.8589999676
1330.0	0.0006788	89.8910000324
1330.0	0.0006785	89.9370000362
1330.0	0.000678	89.9839999676
1330.0	0.000678	90.0160000324
1330.0	0.000678	90.0620000362
1330.0	0.0006785	90.0940001011
1330.0	0.000678	90.1410000324
1330.0	0.000678	90.1870000362
1330.0	0.000678	90.2190001011
1330.0	0.000678	90.2660000324
1330.0	0.0006785	90.3120000362
1330.0	0.000678	90.3440001011
1330.0	0.0006785	90.3910000324
1330.0	0.0006785	90.4219999313
1330.0	0.0006785	90.4690001011
1330.0	0.0006785	90.5160000324
1330.0	0.0006788	90.5469999313
1330.0	0.0006788	90.5940001011
1330.0	0.000679	90.6410000324
1330.0	0.000679	90.6719999313
1330.0	0.0006793	90.7190001011
1330.0	0.0006798	90.7660000324
1330.0	0.0006798	90.7969999313
1330.0	0.0006798	90.8440001011
1330.0	0.0006793	90.8910000324
1330.0	0.000679	90.9219999313
1330.0	0.0006788	90.9690001011
1330.0	0.0006785	91.0
1340.0	0.0006688	91.2660000324
1340.0	0.0006653	91.3120000362
1340.0	0.0006623	91.3589999676
1340.0	0.0006598	91.3910000324
1340.0	0.0006575	91.4370000362
1340.0	0.000656	91.4690001011
1340.0	0.0006548	91.5160000324
1340.0	0.000654	91.5620000362
1340.0	0.0006538	91.5940001011
1340.0	0.0006535	91.6410000324
1340.0	0.0006528	91.6870000362
1340.0	0.0006525	91.7190001011
1340.0	0.0006523	91.7660000324
1340.0	0.0006518	91.8120000362
1340.0	0.0006518	91.8440001011
1340.0	0.0006523	91.8910000324
1340.0	0.0006518	91.9370000362
1340.0	0.0006518	91.9690001011
1340.0	0.0006515	92.0160000324
1340.0	0.0006515	92.0469999313
1340.0	0.0006515	92.0940001011
1340.0	0.0006515	92.1410000324
1340.0	0.0006518	92.1719999313
1340.0	0.0006518	92.2190001011
1340.0	0.0006518	92.2660000324
1340.0	0.0006515	92.2969999313
1340.0	0.0006518	92.3440001011
1340.0	0.0006518	92.3910000324
1340.0	0.0006518	92.4219999313
1340.0	0.0006518	92.4690001011
1340.0	0.0006518	92.5
1340.0	0.0006523	92.5469999313
1340.0	0.0006525	92.5940001011
1340.0	0.0006528	92.625
1340.0	0.0006528	92.6719999313
1340.0	0.0006528	92.7190001011
1340.0	0.0006528	92.75
1350.0	0.0006425	93.0160000324
1350.0	0.0006383	93.0620000362
1350.0	0.000635	93.0940001011
1350.0	0.0006318	93.1410000324
1350.0	0.0006295	93.1870000362
1350.0	0.0006278	93.2190001011
1350.0	0.0006268	93.2660000324
1350.0	0.0006263	93.2969999313
1350.0	0.0006258	93.3440001011
1350.0	0.0006255	93.3910000324
1350.0	0.0006253	93.4219999313
1350.0	0.000625	93.4690001011
1350.0	0.0006245	93.5160000324
1350.0	0.000625	93.5469999313
1350.0	0.000625	93.5940001011
1350.0	0.0006245	93.625
1350.0	0.0006245	93.6719999313
1350.0	0.0006243	93.7190001011
1350.0	0.0006245	93.75
1350.0	0.0006245	93.7969999313
1350.0	0.0006243	93.8440001011
1350.0	0.0006245	93.875
1350.0	0.000625	93.9219999313
1350.0	0.000625	93.9530000687
1350.0	0.000625	94.0
1350.0	0.0006245	94.0469999313
1350.0	0.0006245	94.0780000687
1350.0	0.0006245	94.125
1350.0	0.0006245	94.1719999313
1350.0	0.0006245	94.2030000687
1350.0	0.0006245	94.25
1350.0	0.0006245	94.2809998989
1350.0	0.0006245	94.3280000687
1350.0	0.0006245	94.375
1350.0	0.0006243	94.4059998989
1350.0	0.0006243	94.4530000687
1350.0	0.0006243	94.5
1360.0	0.000613	94.75
1360.0	0.000609	94.7969999313
1360.0	0.0006055	94.8440001011
1360.0	0.0006028	94.875
1360.0	0.0006005	94.9219999313
1360.0	0.0005988	94.9690001011
1360.0	0.0005975	95.0
1360.0	0.0005963	95.0469999313
1360.0	0.0005955	95.0780000687
1360.0	0.0005953	95.125
1360.0	0.0005953	95.1719999313
1360.0	0.0005955	95.2030000687
1360.0	0.0005955	95.25
1360.0	0.0005953	95.2969999313
1360.0	0.000595	95.3280000687
1360.0	0.0005945	95.375
1360.0	0.0005945	95.4059998989
1360.0	0.0005943	95.4530000687
1360.0	0.0005943	95.5
1360.0	0.0005943	95.5309998989
1360.0	0.0005943	95.5780000687
1360.0	0.0005943	95.625
1360.0	0.0005938	95.6559998989
1360.0	0.0005938	95.7030000687
1360.0	0.0005938	95.75
1360.0	0.0005938	95.7809998989
1360.0	0.000594	95.8280000687
1360.0	0.0005938	95.8589999676
1360.0	0.0005933	95.9059998989
1360.0	0.0005933	95.9530000687
1360.0	0.0005933	95.9839999676
1360.0	0.0005938	96.0309998989
1360.0	0.0005933	96.0780000687
1360.0	0.0005933	96.1089999676
1360.0	0.0005933	96.1559998989
1360.0	0.0005933	96.1870000362
1360.0	0.000593	96.2339999676
1370.0	0.000583	96.5
1370.0	0.000579	96.5469999313
1370.0	0.0005758	96.5780000687
1370.0	0.000573	96.625
1370.0	0.0005713	96.6559998989
1370.0	0.0005695	96.7030000687
1370.0	0.000568	96.75
1370.0	0.000567	96.7809998989
1370.0	0.0005665	96.8280000687
1370.0	0.0005663	96.875
1370.0	0.0005663	96.9059998989
1370.0	0.0005658	96.9530000687
1370.0	0.0005658	96.9839999676
1370.0	0.0005658	97.0309998989
1370.0	0.0005658	97.0780000687
1370.0	0.0005658	97.1089999676
1370.0	0.0005655	97.1559998989
1370.0	0.0005653	97.2030000687
1370.0	0.0005653	97.2339999676
1370.0	0.0005655	97.2809998989
1370.0	0.0005653	97.3120000362
1370.0	0.0005655	97.3589999676
1370.0	0.0005653	97.4059998989
1370.0	0.0005653	97.4370000362
1370.0	0.000565	97.4839999676
1370.0	0.000565	97.5309998989
1370.0	0.0005653	97.5620000362
1370.0	0.0005653	97.6089999676
1370.0	0.000565	97.6559998989
1370.0	0.000565	97.6870000362
1370.0	0.0005645	97.7339999676
1370.0	0.0005645	97.7660000324
1370.0	0.0005643	97.8120000362
1370.0	0.0005643	97.8589999676
1370.0	0.0005643	97.8910000324
1370.0	0.0005643	97.9370000362
1370.0	0.0005643	97.9839999676
1380.0	0.0005553	98.2339999676
1380.0	0.0005515	98.2809998989
1380.0	0.0005483	98.3280000687
1380.0	0.0005455	98.3589999676
1380.0	0.0005438	98.4059998989
1380.0	0.000542	98.4370000362
1380.0	0.0005413	98.4839999676
1380.0	0.0005403	98.5309998989
1380.0	0.0005403	98.5620000362
1380.0	0.00054	98.6089999676
1380.0	0.0005395	98.6559998989
1380.0	0.0005393	98.6870000362
1380.0	0.0005393	98.7339999676
1380.0	0.000539	98.7809998989
1380.0	0.000539	98.8120000362
1380.0	0.000539	98.8589999676
1380.0	0.000539	98.8910000324
1380.0	0.0005393	98.9370000362
1380.0	0.0005393	98.9839999676
1380.0	0.000539	99.0160000324
1380.0	0.0005388	99.0620000362
1380.0	0.0005388	99.1089999676
1380.0	0.000539	99.1410000324
1380.0	0.0005393	99.1870000362
1380.0	0.000539	99.2190001011
1380.0	0.000539	99.2660000324
1380.0	0.0005393	99.3120000362
1380.0	0.000539	99.3440001011
1380.0	0.0005393	99.3910000324
1380.0	0.0005393	99.4370000362
1380.0	0.0005393	99.4690001011
1380.0	0.000539	99.5160000324
1380.0	0.000539	99.5469999313
1380.0	0.000539	99.5940001011
1380.0	0.0005393	99.6410000324
1380.0	0.0005393	99.6719999313
1380.0	0.0005395	99.7190001011
1390.0	0.0005313	99.9839999676
1390.0	0.000528	100.016000032
1390.0	0.0005258	100.062000036
1390.0	0.0005238	100.108999968
1390.0	0.000522	100.141000032
1390.0	0.0005208	100.187000036
1390.0	0.0005203	100.233999968
1390.0	0.0005195	100.266000032
1390.0	0.0005193	100.312000036
1390.0	0.0005183	100.358999968
1390.0	0.000518	100.391000032
1390.0	0.000518	100.437000036
1390.0	0.0005175	100.469000101
1390.0	0.000517	100.516000032
1390.0	0.0005175	100.562000036
1390.0	0.0005175	100.594000101
1390.0	0.0005175	100.641000032
1390.0	0.000517	100.671999931
1390.0	0.000517	100.719000101
1390.0	0.000517	100.766000032
1390.0	0.0005168	100.796999931
1390.0	0.000517	100.844000101
1390.0	0.000517	100.891000032
1390.0	0.000517	100.921999931
1390.0	0.000517	100.969000101
1390.0	0.000517	101.0
1390.0	0.000517	101.046999931
1390.0	0.000517	101.094000101
1390.0	0.0005168	101.125
1390.0	0.000517	101.171999931
1390.0	0.0005175	101.219000101
1390.0	0.0005178	101.25
1390.0	0.0005178	101.296999931
1390.0	0.0005178	101.344000101
1390.0	0.0005178	101.375
1390.0	0.000518	101.421999931
1390.0	0.0005178	101.453000069
1400.0	0.0005105	101.733999968
1400.0	0.0005088	101.766000032
1400.0	0.000507	101.812000036
1400.0	0.0005058	101.844000101
1400.0	0.0005045	101.891000032
1400.0	0.0005038	101.937000036
1400.0	0.0005033	101.969000101
1400.0	0.000503	102.016000032
1400.0	0.0005028	102.062000036
1400.0	0.0005025	102.094000101
1400.0	0.0005025	102.141000032
1400.0	0.000502	102.171999931
1400.0	0.0005018	102.219000101
1400.0	0.0005018	102.266000032
1400.0	0.0005018	102.296999931
1400.0	0.0005018	102.344000101
1400.0	0.0005015	102.391000032
1400.0	0.0005015	102.421999931
1400.0	0.0005015	102.469000101
1400.0	0.0005013	102.5
1400.0	0.0005015	102.546999931
1400.0	0.0005015	102.594000101
1400.0	0.0005013	102.625
1400.0	0.0005013	102.671999931
1400.0	0.0005008	102.719000101
1400.0	0.0005013	102.75
1400.0	0.0005013	102.796999931
1400.0	0.0005008	102.828000069
1400.0	0.0005008	102.875
1400.0	0.0005005	102.921999931
1400.0	0.0005005	102.969000101
1400.0	0.0005008	103.0
1400.0	0.0005013	103.046999931
1400.0	0.0005013	103.094000101
1400.0	0.0005015	103.125
1400.0	0.0005015	103.171999931
1400.0	0.0005015	103.203000069
1410.0	0.0004963	103.483999968
1410.0	0.0004943	103.516000032
1410.0	0.000493	103.562000036
1410.0	0.0004925	103.594000101
1410.0	0.0004913	103.641000032
1410.0	0.0004905	103.687000036
1410.0	0.0004903	103.719000101
1410.0	0.00049	103.766000032
1410.0	0.00049	103.812000036
1410.0	0.00049	103.844000101
1410.0	0.00049	103.891000032
1410.0	0.00049	103.921999931
1410.0	0.0004903	103.969000101
1410.0	0.00049	104.016000032
1410.0	0.0004895	104.046999931
1410.0	0.0004895	104.094000101
1410.0	0.0004895	104.141000032
1410.0	0.0004895	104.171999931
1410.0	0.00049	104.219000101
1410.0	0.00049	104.266000032
1410.0	0.00049	104.312000036
1410.0	0.00049	104.344000101
1410.0	0.00049	104.391000032
1410.0	0.0004903	104.421999931
1410.0	0.0004903	104.469000101
1410.0	0.0004903	104.516000032
1410.0	0.00049	104.546999931
1410.0	0.00049	104.594000101
1410.0	0.0004895	104.641000032
1410.0	0.0004895	104.671999931
1410.0	0.0004893	104.719000101
1410.0	0.0004895	104.766000032
1410.0	0.00049	104.796999931
1410.0	0.00049	104.844000101
1410.0	0.0004895	104.875
1410.0	0.0004895	104.921999931
1410.0	0.0004895	104.969000101
1420.0	0.0004863	105.233999968
1420.0	0.0004853	105.266000032
1420.0	0.0004845	105.312000036
1420.0	0.000484	105.358999968
1420.0	0.000484	105.391000032
1420.0	0.0004833	105.437000036
1420.0	0.000483	105.483999968
1420.0	0.0004828	105.516000032
1420.0	0.0004828	105.562000036
1420.0	0.0004828	105.608999968
1420.0	0.0004825	105.641000032
1420.0	0.000482	105.687000036
1420.0	0.000482	105.733999968
1420.0	0.000482	105.766000032
1420.0	0.000482	105.812000036
1420.0	0.000482	105.844000101
1420.0	0.000482	105.891000032
1420.0	0.000482	105.937000036
1420.0	0.000482	105.969000101
1420.0	0.000482	106.016000032
1420.0	0.0004828	106.062000036
1420.0	0.0004828	106.094000101
1420.0	0.000483	106.141000032
1420.0	0.0004828	106.171999931
1420.0	0.0004828	106.219000101
1420.0	0.0004828	106.266000032
1420.0	0.0004825	106.296999931
1420.0	0.0004825	106.344000101
1420.0	0.0004828	106.391000032
1420.0	0.000483	106.421999931
1420.0	0.0004833	106.469000101
1420.0	0.0004833	106.516000032
1420.0	0.0004833	106.546999931
1420.0	0.0004833	106.594000101
1420.0	0.000483	106.625
1420.0	0.0004828	106.671999931
1420.0	0.0004825	106.719000101
1430.0	0.0004815	106.983999968
1430.0	0.0004813	107.016000032
1430.0	0.0004805	107.062000036
1430.0	0.0004803	107.108999968
1430.0	0.0004803	107.141000032
1430.0	0.0004803	107.187000036
1430.0	0.0004803	107.233999968
1430.0	0.0004803	107.266000032
1430.0	0.0004803	107.312000036
1430.0	0.0004805	107.344000101
1430.0	0.0004805	107.391000032
1430.0	0.0004803	107.437000036
1430.0	0.0004803	107.469000101
1430.0	0.0004803	107.516000032
1430.0	0.00048	107.546999931
1430.0	0.0004795	107.594000101
1430.0	0.0004793	107.641000032
1430.0	0.0004795	107.671999931
1430.0	0.0004795	107.719000101
1430.0	0.0004795	107.766000032
1430.0	0.0004795	107.812000036
1430.0	0.0004793	107.844000101
1430.0	0.0004793	107.891000032
1430.0	0.0004793	107.921999931
1430.0	0.0004793	107.969000101
1430.0	0.00048	108.016000032
1430.0	0.0004803	108.046999931
1430.0	0.00048	108.094000101
1430.0	0.0004795	108.141000032
1430.0	0.0004795	108.171999931
1430.0	0.0004793	108.219000101
1430.0	0.0004795	108.25
1430.0	0.00048	108.296999931
1430.0	0.00048	108.344000101
1430.0	0.00048	108.375
1430.0	0.00048	108.421999931
1430.0	0.0004803	108.469000101
1440.0	0.0004805	108.733999968
1440.0	0.0004813	108.780999899
1440.0	0.0004815	108.812000036
1440.0	0.0004818	108.858999968
1440.0	0.000482	108.905999899
1440.0	0.000482	108.937000036
1440.0	0.000482	108.983999968
1440.0	0.0004818	109.030999899
1440.0	0.0004818	109.062000036
1440.0	0.0004815	109.108999968
1440.0	0.0004815	109.155999899
1440.0	0.0004815	109.187000036
1440.0	0.0004815	109.233999968
1440.0	0.0004818	109.266000032
1440.0	0.0004818	109.312000036
1440.0	0.0004815	109.358999968
1440.0	0.0004813	109.391000032
1440.0	0.0004813	109.437000036
1440.0	0.0004813	109.483999968
1440.0	0.0004815	109.516000032
1440.0	0.0004815	109.562000036
1440.0	0.0004813	109.594000101
1440.0	0.0004815	109.641000032
1440.0	0.0004818	109.687000036
1440.0	0.000482	109.719000101
1440.0	0.0004825	109.766000032
1440.0	0.0004825	109.812000036
1440.0	0.000482	109.844000101
1440.0	0.0004825	109.891000032
1440.0	0.000482	109.921999931
1440.0	0.000482	109.969000101
1440.0	0.0004818	110.016000032
1440.0	0.0004818	110.046999931
1440.0	0.0004818	110.094000101
1440.0	0.0004815	110.141000032
1440.0	0.0004815	110.171999931
1440.0	0.0004815	110.219000101
1450.0	0.0004843	110.483999968
1450.0	0.0004853	110.516000032
1450.0	0.0004858	110.562000036
1450.0	0.0004868	110.608999968
1450.0	0.000487	110.641000032
1450.0	0.0004875	110.687000036
1450.0	0.000488	110.719000101
1450.0	0.000488	110.766000032
1450.0	0.0004888	110.812000036
1450.0	0.000489	110.844000101
1450.0	0.000489	110.891000032
1450.0	0.0004893	110.937000036
1450.0	0.0004893	110.969000101
1450.0	0.000489	111.016000032
1450.0	0.0004888	111.046999931
1450.0	0.0004888	111.094000101
1450.0	0.0004883	111.141000032
1450.0	0.0004888	111.171999931
1450.0	0.0004888	111.219000101
1450.0	0.0004888	111.266000032
1450.0	0.0004888	111.296999931
1450.0	0.0004888	111.344000101
1450.0	0.000489	111.375
1450.0	0.000489	111.421999931
1450.0	0.0004893	111.469000101
1450.0	0.000489	111.5
1450.0	0.000489	111.546999931
1450.0	0.0004888	111.594000101
1450.0	0.0004888	111.625
1450.0	0.000488	111.671999931
1450.0	0.000488	111.719000101
1450.0	0.0004883	111.75
1450.0	0.000488	111.796999931
1450.0	0.0004883	111.828000069
1450.0	0.0004883	111.875
1450.0	0.000488	111.921999931
1450.0	0.0004878	111.953000069
1460.0	0.0004925	112.219000101
1460.0	0.0004938	112.266000032
1460.0	0.000495	112.312000036
1460.0	0.0004958	112.344000101
1460.0	0.0004968	112.391000032
1460.0	0.000497	112.437000036
1460.0	0.0004975	112.469000101
1460.0	0.0004978	112.516000032
1460.0	0.000498	112.546999931
1460.0	0.000498	112.594000101
1460.0	0.000498	112.641000032
1460.0	0.0004978	112.671999931
1460.0	0.0004975	112.719000101
1460.0	0.0004975	112.766000032
1460.0	0.0004978	112.796999931
1460.0	0.000498	112.844000101
1460.0	0.0004983	112.875
1460.0	0.0004988	112.921999931
1460.0	0.000499	112.969000101
1460.0	0.000499	113.0
1460.0	0.0004993	113.046999931
1460.0	0.0005	113.094000101
1460.0	0.0005003	113.125
1460.0	0.0005003	113.171999931
1460.0	0.0005	113.219000101
1460.0	0.0004995	113.25
1460.0	0.0004993	113.296999931
1460.0	0.000499	113.328000069
1460.0	0.0004988	113.375
1460.0	0.0004988	113.421999931
1460.0	0.0004988	113.453000069
1460.0	0.0004988	113.5
1460.0	0.0004988	113.546999931
1460.0	0.0004988	113.578000069
1460.0	0.0004988	113.625
1460.0	0.000499	113.655999899
1460.0	0.0004993	113.703000069
1470.0	0.0005028	113.969000101
1470.0	0.0005043	114.016000032
1470.0	0.0005055	114.046999931
1470.0	0.0005065	114.094000101
1470.0	0.000507	114.141000032
1470.0	0.0005075	114.171999931
1470.0	0.000508	114.219000101
1470.0	0.0005088	114.266000032
1470.0	0.000509	114.296999931
1470.0	0.0005093	114.344000101
1470.0	0.0005095	114.391000032
1470.0	0.0005095	114.421999931
1470.0	0.00051	114.469000101
1470.0	0.00051	114.516000032
1470.0	0.00051	114.546999931
1470.0	0.0005103	114.594000101
1470.0	0.00051	114.625
1470.0	0.0005103	114.671999931
1470.0	0.00051	114.719000101
1470.0	0.0005095	114.75
1470.0	0.0005095	114.796999931
1470.0	0.0005095	114.844000101
1470.0	0.00051	114.875
1470.0	0.0005103	114.921999931
1470.0	0.0005103	114.953000069
1470.0	0.0005105	115.0
1470.0	0.0005105	115.046999931
1470.0	0.0005105	115.078000069
1470.0	0.0005105	115.125
1470.0	0.0005103	115.171999931
1470.0	0.0005103	115.203000069
1470.0	0.0005103	115.25
1470.0	0.0005103	115.280999899
1470.0	0.0005105	115.328000069
1470.0	0.0005105	115.375
1470.0	0.0005108	115.405999899
1470.0	0.0005113	115.453000069
1480.0	0.000515	115.719000101
1480.0	0.0005163	115.766000032
1480.0	0.000517	115.796999931
1480.0	0.0005178	115.844000101
1480.0	0.0005183	115.891000032
1480.0	0.0005188	115.921999931
1480.0	0.0005188	115.969000101
1480.0	0.0005193	116.0
1480.0	0.00052	116.046999931
1480.0	0.0005203	116.094000101
1480.0	0.0005208	116.125
1480.0	0.0005213	116.171999931
1480.0	0.0005215	116.219000101
1480.0	0.0005218	116.266000032
1480.0	0.000522	116.296999931
1480.0	0.000522	116.344000101
1480.0	0.0005218	116.375
1480.0	0.0005215	116.421999931
1480.0	0.0005213	116.469000101
1480.0	0.0005213	116.5
1480.0	0.0005208	116.546999931
1480.0	0.0005208	116.594000101
1480.0	0.0005205	116.625
1480.0	0.0005203	116.671999931
1480.0	0.0005205	116.703000069
1480.0	0.0005203	116.75
1480.0	0.00052	116.796999931
1480.0	0.00052	116.828000069
1480.0	0.00052	116.875
1480.0	0.0005195	116.921999931
1480.0	0.00052	116.953000069
1480.0	0.00052	117.0
1480.0	0.00052	117.030999899
1480.0	0.00052	117.078000069
1480.0	0.00052	117.125
1480.0	0.0005203	117.155999899
1480.0	0.0005208	117.203000069
1490.0	0.000524	117.469000101
1490.0	0.0005253	117.516000032
1490.0	0.0005263	117.562000036
1490.0	0.000527	117.594000101
1490.0	0.0005275	117.641000032
1490.0	0.0005278	117.671999931
1490.0	0.0005278	117.719000101
1490.0	0.000528	117.766000032
1490.0	0.000528	117.796999931
1490.0	0.0005283	117.844000101
1490.0	0.0005283	117.891000032
1490.0	0.0005288	117.921999931
1490.0	0.0005288	117.969000101
1490.0	0.000529	118.016000032
1490.0	0.0005293	118.046999931
1490.0	0.0005293	118.094000101
1490.0	0.0005293	118.125
1490.0	0.0005293	118.171999931
1490.0	0.0005293	118.219000101
1490.0	0.0005295	118.25
1490.0	0.00053	118.296999931
1490.0	0.00053	118.344000101
1490.0	0.0005295	118.375
1490.0	0.0005293	118.421999931
1490.0	0.0005293	118.453000069
1490.0	0.0005293	118.5
1490.0	0.0005293	118.546999931
1490.0	0.0005293	118.578000069
1490.0	0.0005293	118.625
1490.0	0.0005288	118.671999931
1490.0	0.0005283	118.703000069
1490.0	0.0005288	118.75
1490.0	0.0005283	118.780999899
1490.0	0.000528	118.828000069
1490.0	0.000528	118.875
1490.0	0.0005278	118.905999899
1490.0	0.0005278	118.953000069
1500.0	0.0005305	119.219000101
1500.0	0.0005315	119.266000032
1500.0	0.0005328	119.312000036
1500.0	0.0005333	119.358999968
1500.0	0.0005338	119.391000032
1500.0	0.000534	119.437000036
1500.0	0.0005343	119.469000101
1500.0	0.0005343	119.516000032
1500.0	0.0005345	119.562000036
1500.0	0.0005345	119.594000101
1500.0	0.000535	119.641000032
1500.0	0.000535	119.671999931
1500.0	0.0005353	119.719000101
1500.0	0.000535	119.766000032
1500.0	0.0005345	119.796999931
1500.0	0.0005345	119.844000101
1500.0	0.0005345	119.891000032
1500.0	0.0005343	119.921999931
1500.0	0.0005343	119.969000101
1500.0	0.0005343	120.016000032
1500.0	0.0005345	120.046999931
1500.0	0.0005345	120.094000101
1500.0	0.0005345	120.125
1500.0	0.0005345	120.171999931
1500.0	0.000535	120.219000101
1500.0	0.000535	120.25
1500.0	0.0005353	120.296999931
1500.0	0.0005353	120.344000101
1500.0	0.000535	120.375
1500.0	0.0005345	120.421999931
1500.0	0.0005343	120.453000069
1500.0	0.000534	120.5
1500.0	0.000534	120.546999931
1500.0	0.000534	120.578000069
1500.0	0.0005343	120.625
1500.0	0.0005345	120.671999931
1500.0	0.0005345	120.703000069
1510.0	0.0005363	120.983999968
1510.0	0.0005368	121.016000032
1510.0	0.000537	121.062000036
1510.0	0.0005375	121.108999968
1510.0	0.0005375	121.141000032
1510.0	0.0005375	121.187000036
1510.0	0.0005375	121.219000101
1510.0	0.0005375	121.266000032
1510.0	0.000537	121.312000036
1510.0	0.000537	121.344000101
1510.0	0.000537	121.391000032
1510.0	0.0005375	121.437000036
1510.0	0.0005375	121.469000101
1510.0	0.0005375	121.516000032
1510.0	0.0005375	121.562000036
1510.0	0.0005375	121.594000101
1510.0	0.0005378	121.641000032
1510.0	0.0005378	121.687000036
1510.0	0.0005378	121.719000101
1510.0	0.0005375	121.766000032
1510.0	0.0005375	121.796999931
1510.0	0.0005375	121.844000101
1510.0	0.0005375	121.891000032
1510.0	0.0005378	121.921999931
1510.0	0.0005375	121.969000101
1510.0	0.000537	122.016000032
1510.0	0.000537	122.046999931
1510.0	0.000537	122.094000101
1510.0	0.000537	122.125
1510.0	0.000537	122.171999931
1510.0	0.0005375	122.219000101
1510.0	0.0005375	122.266000032
1510.0	0.000537	122.296999931
1510.0	0.0005375	122.344000101
1510.0	0.0005378	122.375
1510.0	0.000538	122.421999931
1510.0	0.0005383	122.469000101
1520.0	0.0005393	122.733999968
1520.0	0.0005393	122.780999899
1520.0	0.000539	122.828000069
1520.0	0.0005388	122.858999968
1520.0	0.0005388	122.905999899
1520.0	0.0005388	122.937000036
1520.0	0.0005388	122.983999968
1520.0	0.0005388	123.030999899
1520.0	0.000539	123.062000036
1520.0	0.0005393	123.108999968
1520.0	0.0005393	123.155999899
1520.0	0.000539	123.187000036
1520.0	0.000539	123.233999968
1520.0	0.000539	123.280999899
1520.0	0.000539	123.312000036
1520.0	0.000539	123.358999968
1520.0	0.0005388	123.391000032
1520.0	0.0005388	123.437000036
1520.0	0.0005388	123.483999968
1520.0	0.000539	123.516000032
1520.0	0.0005393	123.562000036
1520.0	0.0005393	123.608999968
1520.0	0.0005395	123.641000032
1520.0	0.00054	123.687000036
1520.0	0.00054	123.719000101
1520.0	0.00054	123.766000032
1520.0	0.0005395	123.812000036
1520.0	0.0005393	123.844000101
1520.0	0.0005393	123.891000032
1520.0	0.000539	123.937000036
1520.0	0.000539	123.969000101
1520.0	0.000539	124.016000032
1520.0	0.0005393	124.046999931
1520.0	0.0005393	124.094000101
1520.0	0.0005393	124.141000032
1520.0	0.0005393	124.171999931
1520.0	0.0005393	124.219000101
1530.0	0.000539	124.483999968
1530.0	0.000539	124.530999899
1530.0	0.0005388	124.578000069
1530.0	0.0005388	124.608999968
1530.0	0.0005388	124.655999899
1530.0	0.0005388	124.687000036
1530.0	0.0005383	124.733999968
1530.0	0.0005388	124.780999899
1530.0	0.000539	124.812000036
1530.0	0.000539	124.858999968
1530.0	0.000539	124.905999899
1530.0	0.0005393	124.937000036
1530.0	0.000539	124.983999968
1530.0	0.000539	125.016000032
1530.0	0.000539	125.062000036
1530.0	0.0005393	125.108999968
1530.0	0.000539	125.141000032
1530.0	0.000539	125.187000036
1530.0	0.0005393	125.233999968
1530.0	0.0005393	125.266000032
1530.0	0.0005393	125.312000036
1530.0	0.0005393	125.358999968
1530.0	0.000539	125.391000032
1530.0	0.000539	125.437000036
1530.0	0.000539	125.469000101
1530.0	0.000539	125.516000032
1530.0	0.0005388	125.562000036
1530.0	0.0005388	125.594000101
1530.0	0.000538	125.641000032
1530.0	0.0005378	125.687000036
1530.0	0.000537	125.719000101
1530.0	0.0005368	125.766000032
1530.0	0.000537	125.796999931
1530.0	0.0005375	125.844000101
1530.0	0.0005375	125.891000032
1530.0	0.0005378	125.921999931
1530.0	0.0005378	125.969000101
1540.0	0.0005365	126.25
1540.0	0.0005358	126.280999899
1540.0	0.0005353	126.328000069
1540.0	0.000535	126.358999968
1540.0	0.000535	126.405999899
1540.0	0.0005345	126.453000069
1540.0	0.0005345	126.483999968
1540.0	0.0005345	126.530999899
1540.0	0.0005345	126.578000069
1540.0	0.0005345	126.608999968
1540.0	0.0005343	126.655999899
1540.0	0.0005345	126.687000036
1540.0	0.0005345	126.733999968
1540.0	0.0005343	126.780999899
1540.0	0.000534	126.812000036
1540.0	0.0005338	126.858999968
1540.0	0.000534	126.905999899
1540.0	0.000534	126.937000036
1540.0	0.000534	126.983999968
1540.0	0.000534	127.030999899
1540.0	0.000534	127.062000036
1540.0	0.0005338	127.108999968
1540.0	0.0005333	127.141000032
1540.0	0.0005333	127.187000036
1540.0	0.0005338	127.233999968
1540.0	0.0005338	127.266000032
1540.0	0.0005338	127.312000036
1540.0	0.0005338	127.358999968
1540.0	0.000534	127.391000032
1540.0	0.000534	127.437000036
1540.0	0.0005343	127.483999968
1540.0	0.0005343	127.516000032
1540.0	0.000534	127.562000036
1540.0	0.000534	127.608999968
1540.0	0.000534	127.641000032
1540.0	0.000534	127.687000036
1540.0	0.000534	127.719000101
1550.0	0.0005315	128.0
1550.0	0.00053	128.046999931
1550.0	0.0005288	128.078000069
1550.0	0.0005278	128.125
1550.0	0.0005268	128.171999931
1550.0	0.0005263	128.203000069
1550.0	0.0005255	128.25
1550.0	0.0005253	128.280999899
1550.0	0.0005253	128.328000069
1550.0	0.0005253	128.375
1550.0	0.0005253	128.405999899
1550.0	0.0005253	128.453000069
1550.0	0.0005253	128.5
1550.0	0.0005253	128.530999899
1550.0	0.000525	128.578000069
1550.0	0.0005245	128.625
1550.0	0.0005245	128.655999899
1550.0	0.0005245	128.703000069
1550.0	0.000525	128.733999968
1550.0	0.0005253	128.780999899
1550.0	0.000525	128.828000069
1550.0	0.000525	128.858999968
1550.0	0.000525	128.905999899
1550.0	0.0005253	128.953000069
1550.0	0.0005253	128.983999968
1550.0	0.0005253	129.030999899
1550.0	0.0005255	129.078000069
1550.0	0.0005258	129.108999968
1550.0	0.0005258	129.155999899
1550.0	0.0005258	129.203000069
1550.0	0.0005255	129.233999968
1550.0	0.0005255	129.280999899
1550.0	0.0005253	129.312000036
1550.0	0.000525	129.358999968
1550.0	0.0005253	129.405999899
1550.0	0.0005255	129.437000036
1550.0	0.0005255	129.483999968
1560.0	0.0005213	129.75
1560.0	0.0005193	129.796999931
1560.0	0.0005178	129.844000101
1560.0	0.0005165	129.875
1560.0	0.0005155	129.921999931
1560.0	0.0005145	129.953000069
1560.0	0.0005138	130.0
1560.0	0.000513	130.046999931
1560.0	0.000513	130.078000069
1560.0	0.000513	130.125
1560.0	0.0005128	130.171999931
1560.0	0.0005125	130.203000069
1560.0	0.0005125	130.25
1560.0	0.0005125	130.280999899
1560.0	0.0005125	130.328000069
1560.0	0.0005125	130.375
1560.0	0.0005128	130.405999899
1560.0	0.0005125	130.453000069
1560.0	0.000512	130.5
1560.0	0.000512	130.530999899
1560.0	0.000512	130.578000069
1560.0	0.0005118	130.625
1560.0	0.0005118	130.655999899
1560.0	0.0005118	130.703000069
1560.0	0.000512	130.733999968
1560.0	0.000512	130.780999899
1560.0	0.000512	130.828000069
1560.0	0.000512	130.858999968
1560.0	0.0005125	130.905999899
1560.0	0.0005125	130.953000069
1560.0	0.0005125	130.983999968
1560.0	0.0005125	131.030999899
1560.0	0.0005125	131.062000036
1560.0	0.0005125	131.108999968
1560.0	0.0005125	131.155999899
1560.0	0.000513	131.187000036
1560.0	0.0005133	131.233999968
1570.0	0.0005065	131.5
1570.0	0.0005043	131.546999931
1570.0	0.0005025	131.594000101
1570.0	0.0005005	131.625
1570.0	0.0004993	131.671999931
1570.0	0.000498	131.719000101
1570.0	0.0004975	131.75
1570.0	0.000497	131.796999931
1570.0	0.0004968	131.844000101
1570.0	0.0004968	131.875
1570.0	0.0004965	131.921999931
1570.0	0.0004963	131.953000069
1570.0	0.0004963	132.0
1570.0	0.0004958	132.046999931
1570.0	0.0004958	132.078000069
1570.0	0.0004955	132.125
1570.0	0.0004955	132.171999931
1570.0	0.0004958	132.203000069
1570.0	0.0004958	132.25
1570.0	0.0004958	132.296999931
1570.0	0.0004958	132.328000069
1570.0	0.0004958	132.375
1570.0	0.0004955	132.421999931
1570.0	0.0004953	132.453000069
1570.0	0.000495	132.5
1570.0	0.000495	132.546999931
1570.0	0.000495	132.578000069
1570.0	0.000495	132.625
1570.0	0.000495	132.655999899
1570.0	0.000495	132.703000069
1570.0	0.0004953	132.75
1570.0	0.0004953	132.780999899
1570.0	0.0004953	132.828000069
1570.0	0.0004955	132.875
1570.0	0.0004958	132.905999899
1570.0	0.0004958	132.953000069
1570.0	0.0004958	133.0
1580.0	0.000488	133.266000032
1580.0	0.0004855	133.312000036
1580.0	0.0004833	133.358999968
1580.0	0.0004815	133.391000032
1580.0	0.0004803	133.437000036
1580.0	0.000479	133.469000101
1580.0	0.0004778	133.516000032
1580.0	0.0004768	133.562000036
1580.0	0.0004758	133.594000101
1580.0	0.0004755	133.641000032
1580.0	0.000475	133.687000036
1580.0	0.000475	133.719000101
1580.0	0.000475	133.766000032
1580.0	0.0004753	133.796999931
1580.0	0.000475	133.844000101
1580.0	0.000475	133.891000032
1580.0	0.000475	133.921999931
1580.0	0.000475	133.969000101
1580.0	0.000475	134.016000032
1580.0	0.000475	134.046999931
1580.0	0.0004745	134.094000101
1580.0	0.0004745	134.141000032
1580.0	0.000475	134.171999931
1580.0	0.000475	134.219000101
1580.0	0.0004753	134.25
1580.0	0.0004753	134.296999931
1580.0	0.0004753	134.344000101
1580.0	0.000475	134.375
1580.0	0.0004745	134.421999931
1580.0	0.0004743	134.469000101
1580.0	0.0004743	134.5
1580.0	0.0004745	134.546999931
1580.0	0.0004745	134.578000069
1580.0	0.0004745	134.625
1580.0	0.0004745	134.671999931
1580.0	0.0004745	134.703000069
1580.0	0.0004745	134.75
1590.0	0.0004658	135.030999899
1590.0	0.0004625	135.062000036
1590.0	0.0004595	135.108999968
1590.0	0.0004578	135.141000032
1590.0	0.0004558	135.187000036
1590.0	0.0004543	135.233999968
1590.0	0.0004533	135.266000032
1590.0	0.0004525	135.312000036
1590.0	0.0004518	135.358999968
1590.0	0.0004515	135.391000032
1590.0	0.0004513	135.437000036
1590.0	0.0004508	135.469000101
1590.0	0.0004508	135.516000032
1590.0	0.0004505	135.562000036
1590.0	0.0004505	135.594000101
1590.0	0.0004503	135.641000032
1590.0	0.0004503	135.687000036
1590.0	0.0004503	135.719000101
1590.0	0.0004503	135.766000032
1590.0	0.0004513	135.796999931
1590.0	0.0004513	135.844000101
1590.0	0.0004515	135.891000032
1590.0	0.0004515	135.921999931
1590.0	0.0004515	135.969000101
1590.0	0.0004515	136.016000032
1590.0	0.0004513	136.046999931
1590.0	0.0004513	136.094000101
1590.0	0.0004508	136.141000032
1590.0	0.0004505	136.171999931
1590.0	0.0004505	136.219000101
1590.0	0.0004503	136.25
1590.0	0.00045	136.296999931
1590.0	0.00045	136.344000101
1590.0	0.0004503	136.375
1590.0	0.0004503	136.421999931
1590.0	0.0004503	136.469000101
1590.0	0.0004505	136.5
1600.0	0.0004395	136.780999899
1600.0	0.0004358	136.812000036
1600.0	0.0004325	136.858999968
1600.0	0.0004295	136.905999899
1600.0	0.0004278	136.937000036
1600.0	0.0004263	136.983999968
1600.0	0.000425	137.030999899
1600.0	0.0004245	137.062000036
1600.0	0.000424	137.108999968
1600.0	0.0004238	137.141000032
1600.0	0.0004238	137.187000036
1600.0	0.000423	137.233999968
1600.0	0.000423	137.266000032
1600.0	0.0004228	137.312000036
1600.0	0.0004228	137.358999968
1600.0	0.000423	137.391000032
1600.0	0.000423	137.437000036
1600.0	0.0004233	137.469000101
1600.0	0.0004233	137.516000032
1600.0	0.0004238	137.562000036
1600.0	0.0004238	137.594000101
1600.0	0.0004238	137.641000032
1600.0	0.0004238	137.687000036
1600.0	0.0004233	137.719000101
1600.0	0.000423	137.766000032
1600.0	0.0004228	137.796999931
1600.0	0.000423	137.844000101
1600.0	0.0004228	137.891000032
1600.0	0.0004228	137.921999931
1600.0	0.0004228	137.969000101
1600.0	0.0004233	138.016000032
1600.0	0.0004233	138.046999931
1600.0	0.0004233	138.094000101
1600.0	0.0004233	138.141000032
1600.0	0.0004238	138.171999931
1600.0	0.0004233	138.219000101
1600.0	0.000423	138.25
1610.0	0.0004108	138.530999899
1610.0	0.0004065	138.578000069
1610.0	0.0004033	138.625
1610.0	0.0004005	138.655999899
1610.0	0.0003983	138.703000069
1610.0	0.0003965	138.733999968
1610.0	0.000395	138.780999899
1610.0	0.000394	138.828000069
1610.0	0.000393	138.858999968
1610.0	0.0003928	138.905999899
1610.0	0.0003928	138.953000069
1610.0	0.0003925	138.983999968
1610.0	0.0003925	139.030999899
1610.0	0.0003925	139.062000036
1610.0	0.0003925	139.108999968
1610.0	0.0003925	139.155999899
1610.0	0.0003925	139.203000069
1610.0	0.0003925	139.233999968
1610.0	0.000392	139.280999899
1610.0	0.0003918	139.328000069
1610.0	0.0003918	139.358999968
1610.0	0.0003918	139.405999899
1610.0	0.0003918	139.437000036
1610.0	0.000392	139.483999968
1610.0	0.000392	139.530999899
1610.0	0.000392	139.562000036
1610.0	0.000392	139.608999968
1610.0	0.000392	139.655999899
1610.0	0.0003918	139.687000036
1610.0	0.000392	139.733999968
1610.0	0.0003918	139.766000032
1610.0	0.0003918	139.812000036
1610.0	0.000392	139.858999968
1610.0	0.000392	139.891000032
1610.0	0.000392	139.937000036
1610.0	0.000392	139.983999968
1610.0	0.000392	140.016000032
1620.0	0.000379	140.296999931
1620.0	0.0003745	140.344000101
1620.0	0.0003708	140.375
1620.0	0.0003678	140.421999931
1620.0	0.0003653	140.469000101
1620.0	0.0003633	140.5
1620.0	0.0003625	140.546999931
1620.0	0.0003615	140.594000101
1620.0	0.0003605	140.625
1620.0	0.0003605	140.671999931
1620.0	0.0003603	140.719000101
1620.0	0.0003605	140.75
1620.0	0.0003605	140.796999931
1620.0	0.0003603	140.828000069
1620.0	0.0003603	140.875
1620.0	0.00036	140.921999931
1620.0	0.0003595	140.953000069
1620.0	0.0003593	141.0
1620.0	0.0003593	141.046999931
1620.0	0.0003593	141.094000101
1620.0	0.0003595	141.125
1620.0	0.0003595	141.171999931
1620.0	0.00036	141.203000069
1620.0	0.0003603	141.25
1620.0	0.0003605	141.296999931
1620.0	0.0003603	141.328000069
1620.0	0.0003603	141.375
1620.0	0.0003603	141.421999931
1620.0	0.00036	141.453000069
1620.0	0.0003595	141.5
1620.0	0.0003593	141.530999899
1620.0	0.0003593	141.578000069
1620.0	0.000359	141.625
1620.0	0.000359	141.655999899
1620.0	0.000359	141.703000069
1620.0	0.000359	141.75
1630.0	0.0003463	142.030999899
1630.0	0.0003415	142.062000036
1630.0	0.000338	142.108999968
1630.0	0.000335	142.141000032
1630.0	0.0003325	142.187000036
1630.0	0.0003305	142.233999968
1630.0	0.000329	142.266000032
1630.0	0.000328	142.312000036
1630.0	0.0003275	142.344000101
1630.0	0.000327	142.391000032
1630.0	0.000327	142.437000036
1630.0	0.0003268	142.469000101
1630.0	0.0003265	142.516000032
1630.0	0.0003265	142.562000036
1630.0	0.0003265	142.594000101
1630.0	0.0003263	142.641000032
1630.0	0.0003263	142.687000036
1630.0	0.0003263	142.719000101
1630.0	0.0003258	142.766000032
1630.0	0.0003258	142.812000036
1630.0	0.0003258	142.844000101
1630.0	0.0003258	142.891000032
1630.0	0.0003258	142.937000036
1630.0	0.0003258	142.969000101
1630.0	0.0003258	143.016000032
1630.0	0.0003255	143.046999931
1630.0	0.0003253	143.094000101
1630.0	0.0003255	143.141000032
1630.0	0.0003258	143.171999931
1630.0	0.0003263	143.219000101
1630.0	0.0003268	143.266000032
1630.0	0.0003263	143.296999931
1630.0	0.0003263	143.344000101
1630.0	0.0003263	143.375
1630.0	0.0003258	143.421999931
1630.0	0.0003258	143.469000101
1630.0	0.0003255	143.5
1640.0	0.0003128	143.796999931
1640.0	0.0003083	143.828000069
1640.0	0.0003043	143.875
1640.0	0.0003013	143.905999899
1640.0	0.0002988	143.953000069
1640.0	0.0002968	144.0
1640.0	0.0002953	144.046999931
1640.0	0.000294	144.078000069
1640.0	0.000293	144.125
1640.0	0.000293	144.155999899
1640.0	0.000293	144.203000069
1640.0	0.0002928	144.25
1640.0	0.0002928	144.280999899
1640.0	0.0002928	144.328000069
1640.0	0.0002928	144.375
1640.0	0.000293	144.405999899
1640.0	0.000293	144.453000069
1640.0	0.000293	144.483999968
1640.0	0.000293	144.530999899
1640.0	0.000293	144.578000069
1640.0	0.0002928	144.608999968
1640.0	0.0002925	144.655999899
1640.0	0.0002925	144.703000069
1640.0	0.0002925	144.733999968
1640.0	0.0002925	144.780999899
1640.0	0.0002925	144.812000036
1640.0	0.0002925	144.858999968
1640.0	0.000292	144.905999899
1640.0	0.0002925	144.937000036
1640.0	0.0002925	144.983999968
1640.0	0.0002925	145.030999899
1640.0	0.000292	145.062000036
1640.0	0.000292	145.108999968
1640.0	0.000292	145.155999899
1640.0	0.0002925	145.187000036
1640.0	0.0002925	145.233999968
1640.0	0.0002925	145.266000032
1650.0	0.0002803	145.562000036
1650.0	0.0002763	145.594000101
1650.0	0.0002725	145.641000032
1650.0	0.0002693	145.671999931
1650.0	0.000267	145.719000101
1650.0	0.0002653	145.766000032
1650.0	0.000264	145.796999931
1650.0	0.000263	145.844000101
1650.0	0.000262	145.891000032
1650.0	0.0002618	145.921999931
1650.0	0.0002615	145.969000101
1650.0	0.0002613	146.0
1650.0	0.0002608	146.046999931
1650.0	0.0002608	146.094000101
1650.0	0.0002608	146.125
1650.0	0.0002608	146.171999931
1650.0	0.0002603	146.219000101
1650.0	0.00026	146.25
1650.0	0.00026	146.296999931
1650.0	0.00026	146.328000069
1650.0	0.0002603	146.375
1650.0	0.0002603	146.421999931
1650.0	0.0002605	146.453000069
1650.0	0.0002615	146.5
1650.0	0.0002615	146.546999931
1650.0	0.0002615	146.578000069
1650.0	0.0002615	146.625
1650.0	0.0002613	146.671999931
1650.0	0.0002613	146.703000069
1650.0	0.0002608	146.75
1650.0	0.0002605	146.780999899
1650.0	0.0002605	146.828000069
1650.0	0.0002605	146.875
1650.0	0.0002603	146.905999899
1650.0	0.0002603	146.953000069
1650.0	0.0002603	147.0
1650.0	0.00026	147.030999899
1660.0	0.0002493	147.312000036
1660.0	0.0002453	147.358999968
1660.0	0.000242	147.405999899
1660.0	0.0002393	147.437000036
1660.0	0.000237	147.483999968
1660.0	0.0002358	147.516000032
1660.0	0.0002343	147.562000036
1660.0	0.0002333	147.608999968
1660.0	0.0002325	147.641000032
1660.0	0.000232	147.687000036
1660.0	0.0002318	147.733999968
1660.0	0.0002315	147.766000032
1660.0	0.0002313	147.812000036
1660.0	0.0002313	147.844000101
1660.0	0.0002313	147.891000032
1660.0	0.0002313	147.937000036
1660.0	0.0002308	147.969000101
1660.0	0.0002305	148.016000032
1660.0	0.0002305	148.062000036
1660.0	0.0002305	148.094000101
1660.0	0.0002305	148.141000032
1660.0	0.0002305	148.187000036
1660.0	0.0002303	148.219000101
1660.0	0.0002305	148.266000032
1660.0	0.0002308	148.296999931
1660.0	0.0002308	148.344000101
1660.0	0.0002313	148.391000032
1660.0	0.0002313	148.421999931
1660.0	0.0002313	148.469000101
1660.0	0.0002315	148.516000032
1660.0	0.0002318	148.546999931
1660.0	0.0002315	148.594000101
1660.0	0.0002315	148.625
1660.0	0.0002315	148.671999931
1660.0	0.0002313	148.719000101
1660.0	0.0002313	148.75
1660.0	0.0002308	148.796999931
1670.0	0.00022	149.078000069
1670.0	0.0002163	149.125
1670.0	0.000213	149.155999899
1670.0	0.0002105	149.203000069
1670.0	0.000209	149.25
1670.0	0.0002078	149.280999899
1670.0	0.0002068	149.328000069
1670.0	0.0002063	149.358999968
1670.0	0.0002055	149.405999899
1670.0	0.0002055	149.453000069
1670.0	0.0002055	149.483999968
1670.0	0.0002055	149.530999899
1670.0	0.0002055	149.578000069
1670.0	0.0002055	149.608999968
1670.0	0.0002055	149.655999899
1670.0	0.0002055	149.703000069
1670.0	0.0002055	149.733999968
1670.0	0.0002053	149.780999899
1670.0	0.000205	149.812000036
1670.0	0.000205	149.858999968
1670.0	0.000205	149.905999899
1670.0	0.000205	149.937000036
1670.0	0.000205	149.983999968
1670.0	0.0002045	150.030999899
1670.0	0.000204	150.062000036
1670.0	0.000204	150.108999968
1670.0	0.000204	150.141000032
1670.0	0.000204	150.187000036
1670.0	0.000204	150.233999968
1670.0	0.0002038	150.266000032
1670.0	0.000204	150.312000036
1670.0	0.0002033	150.358999968
1670.0	0.0002033	150.391000032
1670.0	0.0002033	150.437000036
1670.0	0.000203	150.469000101
1670.0	0.000203	150.516000032
1670.0	0.0002033	150.562000036
1680.0	0.0001945	150.844000101
1680.0	0.0001915	150.891000032
1680.0	0.000189	150.921999931
1680.0	0.0001868	150.969000101
1680.0	0.0001845	151.016000032
1680.0	0.000183	151.046999931
1680.0	0.0001818	151.094000101
1680.0	0.0001813	151.125
1680.0	0.0001813	151.171999931
1680.0	0.0001813	151.219000101
1680.0	0.0001813	151.25
1680.0	0.0001813	151.296999931
1680.0	0.0001813	151.344000101
1680.0	0.0001808	151.375
1680.0	0.0001805	151.421999931
1680.0	0.0001803	151.469000101
1680.0	0.0001803	151.5
1680.0	0.0001803	151.546999931
1680.0	0.00018	151.578000069
1680.0	0.00018	151.625
1680.0	0.00018	151.671999931
1680.0	0.00018	151.703000069
1680.0	0.00018	151.75
1680.0	0.00018	151.796999931
1680.0	0.00018	151.828000069
1680.0	0.00018	151.875
1680.0	0.0001803	151.905999899
1680.0	0.0001803	151.953000069
1680.0	0.0001805	152.0
1680.0	0.0001805	152.030999899
1680.0	0.0001808	152.078000069
1680.0	0.0001808	152.125
1680.0	0.0001808	152.155999899
1680.0	0.0001805	152.203000069
1680.0	0.0001805	152.233999968
1680.0	0.0001803	152.280999899
1680.0	0.0001803	152.328000069
1690.0	0.0001708	152.608999968
1690.0	0.000168	152.655999899
1690.0	0.0001658	152.703000069
1690.0	0.000164	152.733999968
1690.0	0.0001628	152.780999899
1690.0	0.000162	152.828000069
1690.0	0.0001613	152.858999968
1690.0	0.0001603	152.905999899
1690.0	0.00016	152.937000036
1690.0	0.0001595	152.983999968
1690.0	0.0001595	153.030999899
1690.0	0.0001593	153.062000036
1690.0	0.000159	153.108999968
1690.0	0.0001588	153.155999899
1690.0	0.0001583	153.187000036
1690.0	0.000158	153.233999968
1690.0	0.000158	153.266000032
1690.0	0.000158	153.312000036
1690.0	0.0001583	153.358999968
1690.0	0.0001583	153.391000032
1690.0	0.0001583	153.437000036
1690.0	0.0001588	153.483999968
1690.0	0.0001588	153.516000032
1690.0	0.0001588	153.562000036
1690.0	0.000159	153.594000101
1690.0	0.0001588	153.641000032
1690.0	0.0001588	153.687000036
1690.0	0.0001588	153.719000101
1690.0	0.0001583	153.766000032
1690.0	0.0001588	153.812000036
1690.0	0.0001583	153.844000101
1690.0	0.0001588	153.891000032
1690.0	0.0001588	153.921999931
1690.0	0.0001583	153.969000101
1690.0	0.0001583	154.016000032
1690.0	0.0001583	154.046999931
1690.0	0.0001583	154.094000101
1700.0	0.0001503	154.375
1700.0	0.000148	154.421999931
1700.0	0.0001463	154.469000101
1700.0	0.0001445	154.5
1700.0	0.0001438	154.546999931
1700.0	0.000143	154.594000101
1700.0	0.000142	154.625
1700.0	0.0001418	154.671999931
1700.0	0.0001413	154.703000069
1700.0	0.0001408	154.75
1700.0	0.0001405	154.796999931
1700.0	0.0001403	154.828000069
1700.0	0.0001403	154.875
1700.0	0.00014	154.921999931
1700.0	0.00014	154.953000069
1700.0	0.00014	155.0
1700.0	0.0001405	155.030999899
1700.0	0.0001405	155.078000069
1700.0	0.0001408	155.125
1700.0	0.0001408	155.155999899
1700.0	0.0001408	155.203000069
1700.0	0.0001413	155.25
1700.0	0.0001413	155.280999899
1700.0	0.0001413	155.328000069
1700.0	0.0001413	155.375
1700.0	0.0001413	155.405999899
1700.0	0.0001408	155.453000069
1700.0	0.0001408	155.483999968
1700.0	0.0001408	155.530999899
1700.0	0.0001408	155.578000069
1700.0	0.0001408	155.625
1700.0	0.0001408	155.655999899
1700.0	0.0001408	155.703000069
1700.0	0.0001413	155.733999968
1700.0	0.0001408	155.780999899
1700.0	0.0001408	155.828000069
1700.0	0.0001413	155.858999968
1710.0	0.0001343	156.155999899
1710.0	0.0001325	156.187000036
1710.0	0.0001313	156.233999968
1710.0	0.00013	156.280999899
1710.0	0.000129	156.312000036
1710.0	0.000128	156.358999968
1710.0	0.000127	156.405999899
1710.0	0.0001263	156.437000036
1710.0	0.0001255	156.483999968
1710.0	0.0001253	156.516000032
1710.0	0.000125	156.562000036
1710.0	0.0001253	156.608999968
1710.0	0.000125	156.641000032
1710.0	0.0001253	156.687000036
1710.0	0.000125	156.733999968
1710.0	0.0001253	156.766000032
1710.0	0.0001253	156.812000036
1710.0	0.0001255	156.844000101
1710.0	0.0001255	156.891000032
1710.0	0.0001253	156.937000036
1710.0	0.0001253	156.969000101
1710.0	0.0001253	157.016000032
1710.0	0.0001253	157.062000036
1710.0	0.0001253	157.094000101
1710.0	0.0001253	157.141000032
1710.0	0.0001255	157.187000036
1710.0	0.0001255	157.219000101
1710.0	0.0001253	157.266000032
1710.0	0.0001255	157.312000036
1710.0	0.0001255	157.344000101
1710.0	0.0001255	157.391000032
1710.0	0.0001255	157.421999931
1710.0	0.0001253	157.469000101
1710.0	0.0001253	157.516000032
1710.0	0.0001255	157.546999931
1710.0	0.0001258	157.594000101
1710.0	0.0001263	157.641000032
1720.0	0.0001205	157.921999931
1720.0	0.000119	157.969000101
1720.0	0.0001175	158.016000032
1720.0	0.0001163	158.046999931
1720.0	0.0001153	158.094000101
1720.0	0.0001145	158.125
1720.0	0.0001143	158.171999931
1720.0	0.000114	158.219000101
1720.0	0.0001138	158.25
1720.0	0.0001133	158.296999931
1720.0	0.0001133	158.344000101
1720.0	0.000113	158.375
1720.0	0.000113	158.421999931
1720.0	0.0001128	158.469000101
1720.0	0.000113	158.5
1720.0	0.000113	158.546999931
1720.0	0.000113	158.594000101
1720.0	0.000113	158.625
1720.0	0.000113	158.671999931
1720.0	0.0001128	158.703000069
1720.0	0.0001128	158.75
1720.0	0.0001128	158.796999931
1720.0	0.000113	158.844000101
1720.0	0.0001128	158.875
1720.0	0.0001128	158.921999931
1720.0	0.0001128	158.969000101
1720.0	0.0001128	159.0
1720.0	0.0001125	159.046999931
1720.0	0.0001125	159.078000069
1720.0	0.0001125	159.125
1720.0	0.0001125	159.171999931
1720.0	0.0001125	159.203000069
1720.0	0.0001125	159.25
1720.0	0.0001125	159.296999931
1720.0	0.0001125	159.328000069
1720.0	0.0001125	159.375
1730.0	0.000107	159.655999899
1730.0	0.0001055	159.703000069
1730.0	0.0001043	159.75
1730.0	0.0001033	159.780999899
1730.0	0.0001025	159.828000069
1730.0	0.0001018	159.875
1730.0	0.0001013	159.905999899
1730.0	0.0001008	159.953000069
1730.0	0.0001008	160.0
1730.0	0.0001008	160.030999899
1730.0	0.0001008	160.078000069
1730.0	0.0001013	160.108999968
1730.0	0.0001008	160.155999899
1730.0	0.0001005	160.203000069
1730.0	0.0001008	160.233999968
1730.0	0.0001005	160.280999899
1730.0	0.0001008	160.328000069
1730.0	0.0001008	160.358999968
1730.0	0.0001005	160.405999899
1730.0	0.0001008	160.437000036
1730.0	0.0001005	160.483999968
1730.0	0.0001003	160.530999899
1730.0	0.0001003	160.562000036
1730.0	0.0001	160.608999968
1730.0	0.0001	160.655999899
1730.0	0.0001	160.687000036
1730.0	0.0001	160.733999968
1730.0	0.0001	160.766000032
1730.0	9.95e-05	160.812000036
1730.0	9.95e-05	160.858999968
1730.0	9.95e-05	160.905999899
1730.0	9.93e-05	160.937000036
1730.0	9.95e-05	160.983999968
1730.0	9.95e-05	161.016000032
1730.0	0.0001003	161.062000036
1730.0	0.0001005	161.108999968
1730.0	0.0001008	161.141000032
1740.0	9.65e-05	161.437000036
1740.0	9.53e-05	161.483999968
1740.0	9.4e-05	161.516000032
1740.0	9.28e-05	161.562000036
1740.0	9.2e-05	161.594000101
1740.0	9.18e-05	161.641000032
1740.0	9.13e-05	161.687000036
1740.0	9.08e-05	161.719000101
1740.0	9.05e-05	161.766000032
1740.0	9.05e-05	161.812000036
1740.0	9.05e-05	161.844000101
1740.0	9.03e-05	161.891000032
1740.0	9.05e-05	161.937000036
1740.0	9.03e-05	161.969000101
1740.0	9.03e-05	162.016000032
1740.0	9e-05	162.046999931
1740.0	9e-05	162.094000101
1740.0	9e-05	162.141000032
1740.0	8.95e-05	162.171999931
1740.0	8.93e-05	162.219000101
1740.0	8.93e-05	162.266000032
1740.0	8.93e-05	162.296999931
1740.0	8.95e-05	162.344000101
1740.0	8.95e-05	162.375
1740.0	8.93e-05	162.421999931
1740.0	8.95e-05	162.469000101
1740.0	8.95e-05	162.5
1740.0	8.93e-05	162.546999931
1740.0	8.95e-05	162.594000101
1740.0	8.95e-05	162.625
1740.0	8.95e-05	162.671999931
1740.0	8.95e-05	162.719000101
1740.0	8.95e-05	162.75
1740.0	8.95e-05	162.796999931
1740.0	9e-05	162.844000101
1740.0	9e-05	162.875
1740.0	8.95e-05	162.921999931
1750.0	8.63e-05	163.219000101
1750.0	8.53e-05	163.25
1750.0	8.43e-05	163.296999931
1750.0	8.33e-05	163.344000101
1750.0	8.25e-05	163.375
1750.0	8.18e-05	163.421999931
1750.0	8.15e-05	163.469000101
1750.0	8.15e-05	163.5
1750.0	8.08e-05	163.546999931
1750.0	8.13e-05	163.594000101
1750.0	8.13e-05	163.625
1750.0	8.08e-05	163.671999931
1750.0	8.13e-05	163.703000069
1750.0	8.08e-05	163.75
1750.0	8.08e-05	163.796999931
1750.0	8.05e-05	163.844000101
1750.0	8.03e-05	163.875
1750.0	8.03e-05	163.921999931
1750.0	8e-05	163.953000069
1750.0	8e-05	164.0
1750.0	8.03e-05	164.046999931
1750.0	8.05e-05	164.078000069
1750.0	8.05e-05	164.125
1750.0	8.08e-05	164.171999931
1750.0	8.05e-05	164.203000069
1750.0	8.05e-05	164.25
1750.0	8.08e-05	164.280999899
1750.0	8.13e-05	164.328000069
1750.0	8.13e-05	164.375
1750.0	8.08e-05	164.405999899
1750.0	8.08e-05	164.453000069
1750.0	8.08e-05	164.5
1750.0	8.08e-05	164.530999899
1750.0	8.08e-05	164.578000069
1750.0	8.08e-05	164.608999968
1750.0	8.08e-05	164.655999899
1750.0	8.13e-05	164.703000069
1760.0	7.83e-05	165.0
1760.0	7.75e-05	165.046999931
1760.0	7.63e-05	165.078000069
1760.0	7.55e-05	165.125
1760.0	7.5e-05	165.155999899
1760.0	7.45e-05	165.203000069
1760.0	7.4e-05	165.25
1760.0	7.4e-05	165.280999899
1760.0	7.38e-05	165.328000069
1760.0	7.38e-05	165.375
1760.0	7.38e-05	165.421999931
1760.0	7.33e-05	165.453000069
1760.0	7.3e-05	165.5
1760.0	7.3e-05	165.530999899
1760.0	7.3e-05	165.578000069
1760.0	7.33e-05	165.625
1760.0	7.33e-05	165.655999899
1760.0	7.3e-05	165.703000069
1760.0	7.3e-05	165.75
1760.0	7.3e-05	165.780999899
1760.0	7.3e-05	165.828000069
1760.0	7.28e-05	165.858999968
1760.0	7.28e-05	165.905999899
1760.0	7.28e-05	165.953000069
1760.0	7.28e-05	165.983999968
1760.0	7.25e-05	166.030999899
1760.0	7.25e-05	166.078000069
1760.0	7.25e-05	166.108999968
1760.0	7.25e-05	166.155999899
1760.0	7.25e-05	166.187000036
1760.0	7.25e-05	166.233999968
1760.0	7.28e-05	166.280999899
1760.0	7.33e-05	166.312000036
1760.0	7.33e-05	166.358999968
1760.0	7.38e-05	166.405999899
1760.0	7.33e-05	166.437000036
1760.0	7.3e-05	166.483999968
1770.0	6.95e-05	166.780999899
1770.0	6.88e-05	166.828000069
1770.0	6.78e-05	166.875
1770.0	6.7e-05	166.905999899
1770.0	6.65e-05	166.953000069
1770.0	6.63e-05	166.983999968
1770.0	6.58e-05	167.030999899
1770.0	6.55e-05	167.078000069
1770.0	6.53e-05	167.108999968
1770.0	6.53e-05	167.155999899
1770.0	6.55e-05	167.203000069
1770.0	6.55e-05	167.233999968
1770.0	6.58e-05	167.280999899
1770.0	6.63e-05	167.312000036
1770.0	6.63e-05	167.358999968
1770.0	6.63e-05	167.405999899
1770.0	6.58e-05	167.437000036
1770.0	6.58e-05	167.483999968
1770.0	6.58e-05	167.530999899
1770.0	6.55e-05	167.562000036
1770.0	6.55e-05	167.608999968
1770.0	6.55e-05	167.655999899
1770.0	6.55e-05	167.687000036
1770.0	6.53e-05	167.733999968
1770.0	6.53e-05	167.766000032
1770.0	6.5e-05	167.812000036
1770.0	6.5e-05	167.858999968
1770.0	6.5e-05	167.891000032
1770.0	6.5e-05	167.937000036
1770.0	6.45e-05	167.969000101
1770.0	6.5e-05	168.016000032
1770.0	6.5e-05	168.062000036
1770.0	6.45e-05	168.094000101
1770.0	6.45e-05	168.141000032
1770.0	6.45e-05	168.187000036
1770.0	6.45e-05	168.219000101
1770.0	6.45e-05	168.266000032
1780.0	6.15e-05	168.562000036
1780.0	6.05e-05	168.608999968
1780.0	6e-05	168.655999899
1780.0	5.95e-05	168.703000069
1780.0	5.93e-05	168.733999968
1780.0	5.93e-05	168.780999899
1780.0	5.9e-05	168.812000036
1780.0	5.88e-05	168.858999968
1780.0	5.88e-05	168.905999899
1780.0	5.88e-05	168.937000036
1780.0	5.83e-05	168.983999968
1780.0	5.8e-05	169.030999899
1780.0	5.8e-05	169.062000036
1780.0	5.78e-05	169.108999968
1780.0	5.78e-05	169.141000032
1780.0	5.78e-05	169.187000036
1780.0	5.8e-05	169.233999968
1780.0	5.8e-05	169.280999899
1780.0	5.83e-05	169.312000036
1780.0	5.8e-05	169.358999968
1780.0	5.8e-05	169.391000032
1780.0	5.78e-05	169.437000036
1780.0	5.78e-05	169.483999968
1780.0	5.78e-05	169.516000032
1780.0	5.75e-05	169.562000036
1780.0	5.7e-05	169.608999968
1780.0	5.7e-05	169.641000032
1780.0	5.7e-05	169.687000036
1780.0	5.7e-05	169.719000101
1780.0	5.75e-05	169.766000032
1780.0	5.75e-05	169.812000036
1780.0	5.78e-05	169.844000101
1780.0	5.78e-05	169.891000032
1780.0	5.75e-05	169.937000036
1780.0	5.78e-05	169.969000101
1780.0	5.78e-05	170.016000032
1780.0	5.7e-05	170.046999931
1790.0	5.38e-05	170.358999968
1790.0	5.25e-05	170.405999899
1790.0	5.18e-05	170.437000036
1790.0	5.18e-05	170.483999968
1790.0	5.15e-05	170.516000032
1790.0	5.15e-05	170.562000036
1790.0	5.13e-05	170.608999968
1790.0	5.08e-05	170.641000032
1790.0	5.13e-05	170.687000036
1790.0	5.08e-05	170.733999968
1790.0	5.08e-05	170.766000032
1790.0	5.05e-05	170.812000036
1790.0	5.05e-05	170.844000101
1790.0	5.05e-05	170.891000032
1790.0	5.05e-05	170.937000036
1790.0	5.05e-05	170.969000101
1790.0	5.05e-05	171.016000032
1790.0	5.03e-05	171.062000036
1790.0	5.05e-05	171.094000101
1790.0	5.05e-05	171.141000032
1790.0	5.03e-05	171.171999931
1790.0	5.03e-05	171.219000101
1790.0	5e-05	171.266000032
1790.0	4.95e-05	171.296999931
1790.0	4.95e-05	171.344000101
1790.0	4.95e-05	171.391000032
1790.0	4.95e-05	171.421999931
1790.0	4.95e-05	171.469000101
1790.0	5e-05	171.516000032
1790.0	5e-05	171.546999931
1790.0	5.03e-05	171.594000101
1790.0	5.03e-05	171.625
1790.0	5.05e-05	171.671999931
1790.0	5.05e-05	171.719000101
1790.0	5.03e-05	171.75
1790.0	5.03e-05	171.796999931
1790.0	5e-05	171.844000101
1800.0	4.78e-05	172.125
1800.0	4.68e-05	172.171999931
1800.0	4.63e-05	172.219000101
1800.0	4.55e-05	172.266000032
1800.0	4.5e-05	172.296999931
1800.0	4.45e-05	172.344000101
1800.0	4.45e-05	172.391000032
1800.0	4.4e-05	172.421999931
1800.0	4.38e-05	172.469000101
1800.0	4.33e-05	172.5
1800.0	4.33e-05	172.546999931
1800.0	4.38e-05	172.594000101
1800.0	4.33e-05	172.625
1800.0	4.33e-05	172.671999931
1800.0	4.33e-05	172.719000101
1800.0	4.33e-05	172.75
1800.0	4.33e-05	172.796999931
1800.0	4.38e-05	172.828000069
1800.0	4.38e-05	172.875
1800.0	4.4e-05	172.921999931
1800.0	4.4e-05	172.953000069
1800.0	4.38e-05	173.0
1800.0	4.4e-05	173.046999931
1800.0	4.4e-05	173.078000069
1800.0	4.4e-05	173.125
1800.0	4.38e-05	173.171999931
1800.0	4.38e-05	173.203000069
1800.0	4.38e-05	173.25
1800.0	4.38e-05	173.280999899
1800.0	4.38e-05	173.328000069
1800.0	4.4e-05	173.375
1800.0	4.43e-05	173.405999899
1800.0	4.43e-05	173.453000069
1800.0	4.43e-05	173.5
1800.0	4.43e-05	173.530999899
1800.0	4.43e-05	173.578000069
1800.0	4.43e-05	173.608999968
