Your edit line - do NOT delete this line
Wavelength [nm], Voltage [V], Elapsed time [s]
900.0	0.0001503	6.34400010109
900.0	0.0001468	6.375
900.0	0.0001443	6.42199993134
900.0	0.0001425	6.46900010109
900.0	0.0001405	6.5
900.0	0.0001395	6.54699993134
900.0	0.000139	6.57899999619
900.0	0.0001383	6.625
900.0	0.0001378	6.67199993134
900.0	0.000137	6.70399999619
900.0	0.0001368	6.75
900.0	0.0001368	6.79699993134
900.0	0.0001368	6.82899999619
900.0	0.0001368	6.875
900.0	0.0001368	6.92199993134
900.0	0.000137	6.95399999619
900.0	0.000137	7.0
900.0	0.000137	7.03200006485
900.0	0.000137	7.07899999619
900.0	0.0001375	7.125
900.0	0.000137	7.15700006485
900.0	0.0001375	7.20399999619
900.0	0.000137	7.25
900.0	0.0001368	7.28200006485
900.0	0.000137	7.32899999619
900.0	0.000137	7.3599998951
900.0	0.0001368	7.40700006485
900.0	0.000137	7.45399999619
900.0	0.000137	7.4849998951
900.0	0.0001368	7.53200006485
900.0	0.0001368	7.57899999619
900.0	0.0001368	7.6099998951
900.0	0.0001368	7.65700006485
900.0	0.0001368	7.68799996376
900.0	0.0001368	7.7349998951
900.0	0.000137	7.78200006485
900.0	0.000137	7.81299996376
910.0	0.000144	8.125
910.0	0.0001455	8.15700006485
910.0	0.000147	8.20399999619
910.0	0.0001483	8.25
910.0	0.000149	8.28200006485
910.0	0.0001495	8.32899999619
910.0	0.0001495	8.375
910.0	0.0001503	8.40700006485
910.0	0.0001508	8.45399999619
910.0	0.0001515	8.4849998951
910.0	0.0001515	8.53200006485
910.0	0.0001518	8.57899999619
910.0	0.0001515	8.6099998951
910.0	0.0001518	8.65700006485
910.0	0.000152	8.70399999619
910.0	0.0001518	8.7349998951
910.0	0.000152	8.78200006485
910.0	0.000152	8.82899999619
910.0	0.000152	8.8599998951
910.0	0.0001518	8.90700006485
910.0	0.0001518	8.93799996376
910.0	0.0001518	8.9849998951
910.0	0.000152	9.03200006485
910.0	0.000152	9.06299996376
910.0	0.000152	9.1099998951
910.0	0.0001525	9.15700006485
910.0	0.000152	9.18799996376
910.0	0.0001518	9.2349998951
910.0	0.0001518	9.26600003242
910.0	0.0001518	9.31299996376
910.0	0.0001518	9.3599998951
910.0	0.0001515	9.39100003242
910.0	0.0001515	9.43799996376
910.0	0.0001515	9.4849998951
910.0	0.0001515	9.51600003242
910.0	0.000152	9.56299996376
910.0	0.0001525	9.59400010109
920.0	0.0001595	9.90700006485
920.0	0.0001618	9.95399999619
920.0	0.0001633	9.9849998951
920.0	0.0001645	10.0320000648
920.0	0.0001658	10.0629999638
920.0	0.0001668	10.1099998951
920.0	0.000168	10.1570000648
920.0	0.0001688	10.1879999638
920.0	0.000169	10.2349998951
920.0	0.0001693	10.2820000648
920.0	0.0001695	10.3129999638
920.0	0.0001693	10.3599998951
920.0	0.000169	10.3910000324
920.0	0.0001693	10.4379999638
920.0	0.0001693	10.4849998951
920.0	0.0001695	10.5160000324
920.0	0.0001695	10.5629999638
920.0	0.00017	10.6099998951
920.0	0.0001695	10.6410000324
920.0	0.0001695	10.6879999638
920.0	0.00017	10.7349998951
920.0	0.00017	10.7660000324
920.0	0.00017	10.8129999638
920.0	0.00017	10.8440001011
920.0	0.0001695	10.8910000324
920.0	0.0001695	10.9379999638
920.0	0.0001693	10.9690001011
920.0	0.000169	11.0160000324
920.0	0.0001693	11.0629999638
920.0	0.0001693	11.0940001011
920.0	0.0001693	11.1410000324
920.0	0.0001695	11.1719999313
920.0	0.00017	11.2190001011
920.0	0.00017	11.2660000324
920.0	0.0001703	11.2969999313
920.0	0.00017	11.3440001011
920.0	0.0001695	11.3910000324
930.0	0.0001783	11.6879999638
930.0	0.0001813	11.7349998951
930.0	0.000183	11.7820000648
930.0	0.000185	11.8129999638
930.0	0.0001863	11.8599998951
930.0	0.0001868	11.8910000324
930.0	0.0001875	11.9379999638
930.0	0.000188	11.9849998951
930.0	0.0001883	12.0160000324
930.0	0.000189	12.0629999638
930.0	0.0001893	12.1099998951
930.0	0.0001893	12.1410000324
930.0	0.0001895	12.1879999638
930.0	0.0001895	12.2190001011
930.0	0.00019	12.2660000324
930.0	0.00019	12.3129999638
930.0	0.00019	12.3440001011
930.0	0.0001895	12.3910000324
930.0	0.00019	12.4379999638
930.0	0.00019	12.4690001011
930.0	0.0001903	12.5160000324
930.0	0.00019	12.5629999638
930.0	0.00019	12.5940001011
930.0	0.00019	12.6410000324
930.0	0.0001895	12.6879999638
930.0	0.0001895	12.7190001011
930.0	0.0001893	12.7660000324
930.0	0.0001893	12.8129999638
930.0	0.0001893	12.8440001011
930.0	0.0001893	12.8910000324
930.0	0.000189	12.9219999313
930.0	0.0001893	12.9690001011
930.0	0.0001893	13.0160000324
930.0	0.0001893	13.0469999313
930.0	0.0001893	13.0940001011
930.0	0.000189	13.1410000324
940.0	0.0001988	13.4379999638
940.0	0.0002015	13.4849998951
940.0	0.000204	13.5160000324
940.0	0.0002058	13.5629999638
940.0	0.000207	13.5940001011
940.0	0.000208	13.6410000324
940.0	0.0002088	13.6879999638
940.0	0.0002093	13.7190001011
940.0	0.0002095	13.7660000324
940.0	0.00021	13.8129999638
940.0	0.0002103	13.8440001011
940.0	0.0002105	13.8910000324
940.0	0.0002105	13.9379999638
940.0	0.0002105	13.9690001011
940.0	0.0002108	14.0160000324
940.0	0.0002108	14.0629999638
940.0	0.0002113	14.0940001011
940.0	0.0002113	14.1410000324
940.0	0.0002115	14.1879999638
940.0	0.0002115	14.2190001011
940.0	0.0002113	14.2660000324
940.0	0.0002113	14.2969999313
940.0	0.0002113	14.3440001011
940.0	0.0002113	14.3910000324
940.0	0.0002113	14.4219999313
940.0	0.0002113	14.4690001011
940.0	0.0002113	14.5160000324
940.0	0.0002118	14.5469999313
940.0	0.0002118	14.5940001011
940.0	0.0002115	14.625
940.0	0.0002108	14.6719999313
940.0	0.0002105	14.7190001011
940.0	0.0002108	14.75
940.0	0.0002108	14.7969999313
940.0	0.0002108	14.8440001011
940.0	0.0002113	14.875
940.0	0.0002115	14.9219999313
950.0	0.0002205	15.2190001011
950.0	0.000223	15.25
950.0	0.0002255	15.2969999313
950.0	0.0002275	15.3289999962
950.0	0.000229	15.375
950.0	0.0002303	15.4219999313
950.0	0.0002313	15.4539999962
950.0	0.0002318	15.5
950.0	0.0002318	15.5469999313
950.0	0.0002318	15.5789999962
950.0	0.0002318	15.625
950.0	0.000232	15.6570000648
950.0	0.000232	15.7039999962
950.0	0.0002325	15.75
950.0	0.0002325	15.7969999313
950.0	0.0002325	15.8289999962
950.0	0.0002325	15.875
950.0	0.0002325	15.9070000648
950.0	0.0002325	15.9539999962
950.0	0.0002328	16.0
950.0	0.0002328	16.0320000648
950.0	0.0002328	16.0789999962
950.0	0.0002328	16.125
950.0	0.0002328	16.1570000648
950.0	0.0002325	16.2039999962
950.0	0.0002325	16.25
950.0	0.0002325	16.2820000648
950.0	0.000233	16.3289999962
950.0	0.0002333	16.3599998951
950.0	0.0002338	16.4070000648
950.0	0.000234	16.4539999962
950.0	0.0002338	16.4849998951
950.0	0.0002338	16.5320000648
950.0	0.0002338	16.5789999962
950.0	0.0002333	16.6099998951
950.0	0.000233	16.6570000648
950.0	0.0002333	16.6879999638
960.0	0.0002425	16.9849998951
960.0	0.0002455	17.0160000324
960.0	0.000248	17.0629999638
960.0	0.0002503	17.0940001011
960.0	0.000252	17.1410000324
960.0	0.0002533	17.1879999638
960.0	0.0002543	17.2190001011
960.0	0.000255	17.2660000324
960.0	0.0002555	17.3129999638
960.0	0.0002555	17.3440001011
960.0	0.0002553	17.3910000324
960.0	0.0002555	17.4379999638
960.0	0.0002558	17.4690001011
960.0	0.0002563	17.5160000324
960.0	0.0002563	17.5629999638
960.0	0.0002565	17.5940001011
960.0	0.0002563	17.6410000324
960.0	0.0002565	17.6879999638
960.0	0.0002565	17.7190001011
960.0	0.0002565	17.7660000324
960.0	0.0002568	17.7969999313
960.0	0.0002568	17.8440001011
960.0	0.0002568	17.8910000324
960.0	0.000257	17.9219999313
960.0	0.0002575	17.9690001011
960.0	0.000257	18.0
960.0	0.0002575	18.0469999313
960.0	0.0002578	18.0940001011
960.0	0.0002575	18.125
960.0	0.0002575	18.1719999313
960.0	0.0002575	18.2190001011
960.0	0.0002575	18.25
960.0	0.0002575	18.2969999313
960.0	0.0002575	18.3440001011
960.0	0.0002575	18.375
960.0	0.0002575	18.4219999313
960.0	0.0002575	18.4539999962
970.0	0.0002663	18.75
970.0	0.0002693	18.7820000648
970.0	0.000272	18.8289999962
970.0	0.000274	18.8599998951
970.0	0.0002755	18.9070000648
970.0	0.0002768	18.9539999962
970.0	0.0002775	18.9849998951
970.0	0.000278	19.0320000648
970.0	0.000279	19.0789999962
970.0	0.0002793	19.1099998951
970.0	0.0002795	19.1570000648
970.0	0.00028	19.1879999638
970.0	0.00028	19.2349998951
970.0	0.00028	19.2820000648
970.0	0.00028	19.3129999638
970.0	0.00028	19.3599998951
970.0	0.0002805	19.4070000648
970.0	0.0002803	19.4379999638
970.0	0.0002805	19.4849998951
970.0	0.0002808	19.5320000648
970.0	0.0002813	19.5629999638
970.0	0.0002815	19.6099998951
970.0	0.0002815	19.6410000324
970.0	0.0002818	19.6879999638
970.0	0.0002818	19.7349998951
970.0	0.0002815	19.7660000324
970.0	0.0002813	19.8129999638
970.0	0.0002813	19.8599998951
970.0	0.0002808	19.8910000324
970.0	0.0002808	19.9379999638
970.0	0.0002805	19.9690001011
970.0	0.0002803	20.0160000324
970.0	0.0002803	20.0629999638
970.0	0.0002803	20.0940001011
970.0	0.0002803	20.1410000324
970.0	0.00028	20.1879999638
970.0	0.00028	20.2190001011
980.0	0.0002888	20.5
980.0	0.0002925	20.5469999313
980.0	0.0002955	20.5789999962
980.0	0.000298	20.625
980.0	0.0003003	20.6719999313
980.0	0.0003015	20.7039999962
980.0	0.0003028	20.75
980.0	0.0003033	20.7820000648
980.0	0.0003043	20.8289999962
980.0	0.000305	20.875
980.0	0.0003053	20.9070000648
980.0	0.0003053	20.9539999962
980.0	0.0003053	21.0
980.0	0.0003053	21.0320000648
980.0	0.0003055	21.0789999962
980.0	0.0003055	21.125
980.0	0.0003055	21.1570000648
980.0	0.0003055	21.2039999962
980.0	0.0003055	21.2349998951
980.0	0.0003058	21.2820000648
980.0	0.0003058	21.3289999962
980.0	0.0003058	21.3599998951
980.0	0.0003058	21.4070000648
980.0	0.0003063	21.4539999962
980.0	0.0003063	21.4849998951
980.0	0.0003063	21.5320000648
980.0	0.0003063	21.5629999638
980.0	0.0003063	21.6099998951
980.0	0.0003063	21.6570000648
980.0	0.0003063	21.6879999638
980.0	0.0003063	21.7349998951
980.0	0.0003058	21.7820000648
980.0	0.0003058	21.8129999638
980.0	0.0003058	21.8599998951
980.0	0.0003058	21.8910000324
980.0	0.0003055	21.9379999638
980.0	0.0003058	21.9849998951
990.0	0.0003158	22.2660000324
990.0	0.0003193	22.2969999313
990.0	0.000322	22.3440001011
990.0	0.0003245	22.375
990.0	0.0003265	22.4219999313
990.0	0.000328	22.4690001011
990.0	0.0003288	22.5
990.0	0.0003293	22.5469999313
990.0	0.00033	22.5940001011
990.0	0.0003303	22.625
990.0	0.0003305	22.6719999313
990.0	0.0003305	22.7039999962
990.0	0.0003308	22.75
990.0	0.0003313	22.7969999313
990.0	0.0003313	22.8289999962
990.0	0.0003313	22.875
990.0	0.0003308	22.9219999313
990.0	0.0003313	22.9539999962
990.0	0.0003315	23.0
990.0	0.0003315	23.0469999313
990.0	0.000332	23.0789999962
990.0	0.0003318	23.125
990.0	0.0003318	23.1570000648
990.0	0.000332	23.2039999962
990.0	0.000332	23.25
990.0	0.0003318	23.2820000648
990.0	0.0003318	23.3289999962
990.0	0.0003315	23.375
990.0	0.0003315	23.4070000648
990.0	0.0003318	23.4539999962
990.0	0.0003318	23.5
990.0	0.0003315	23.5320000648
990.0	0.0003315	23.5789999962
990.0	0.0003315	23.625
990.0	0.0003318	23.6570000648
990.0	0.000332	23.7039999962
990.0	0.000332	23.7349998951
1000.0	0.0003428	24.0160000324
1000.0	0.0003465	24.0629999638
1000.0	0.0003493	24.1099998951
1000.0	0.000352	24.1410000324
1000.0	0.000354	24.1879999638
1000.0	0.0003555	24.2190001011
1000.0	0.0003565	24.2660000324
1000.0	0.0003575	24.3129999638
1000.0	0.000358	24.3440001011
1000.0	0.0003588	24.3910000324
1000.0	0.000359	24.4379999638
1000.0	0.000359	24.4690001011
1000.0	0.0003588	24.5160000324
1000.0	0.0003588	24.5629999638
1000.0	0.0003588	24.5940001011
1000.0	0.0003588	24.6410000324
1000.0	0.000359	24.6719999313
1000.0	0.0003593	24.7190001011
1000.0	0.0003593	24.7660000324
1000.0	0.0003593	24.7969999313
1000.0	0.0003595	24.8440001011
1000.0	0.0003595	24.8910000324
1000.0	0.0003595	24.9219999313
1000.0	0.0003593	24.9690001011
1000.0	0.000359	25.0
1000.0	0.000359	25.0469999313
1000.0	0.0003588	25.0940001011
1000.0	0.000359	25.125
1000.0	0.0003593	25.1719999313
1000.0	0.000359	25.2190001011
1000.0	0.0003593	25.25
1000.0	0.0003593	25.2969999313
1000.0	0.0003593	25.3289999962
1000.0	0.0003593	25.375
1000.0	0.000359	25.4219999313
1000.0	0.000359	25.4539999962
1000.0	0.0003588	25.5
1010.0	0.0003703	25.7820000648
1010.0	0.0003743	25.8289999962
1010.0	0.0003775	25.8599998951
1010.0	0.00038	25.9070000648
1010.0	0.000382	25.9379999638
1010.0	0.0003838	25.9849998951
1010.0	0.000385	26.0320000648
1010.0	0.0003858	26.0629999638
1010.0	0.0003868	26.1099998951
1010.0	0.0003875	26.1570000648
1010.0	0.000388	26.1879999638
1010.0	0.000388	26.2349998951
1010.0	0.0003883	26.2660000324
1010.0	0.0003883	26.3129999638
1010.0	0.0003888	26.3599998951
1010.0	0.0003888	26.3910000324
1010.0	0.0003893	26.4379999638
1010.0	0.0003895	26.4849998951
1010.0	0.00039	26.5160000324
1010.0	0.0003903	26.5629999638
1010.0	0.0003903	26.5940001011
1010.0	0.0003903	26.6410000324
1010.0	0.0003895	26.6879999638
1010.0	0.0003893	26.7190001011
1010.0	0.000389	26.7660000324
1010.0	0.0003888	26.8129999638
1010.0	0.000389	26.8440001011
1010.0	0.0003888	26.8910000324
1010.0	0.0003883	26.9219999313
1010.0	0.0003883	26.9690001011
1010.0	0.000388	27.0160000324
1010.0	0.000388	27.0629999638
1010.0	0.0003878	27.0940001011
1010.0	0.0003878	27.1410000324
1010.0	0.0003878	27.1879999638
1010.0	0.0003878	27.2190001011
1010.0	0.000388	27.2660000324
1020.0	0.0004	27.5469999313
1020.0	0.0004043	27.5789999962
1020.0	0.0004078	27.625
1020.0	0.0004105	27.6719999313
1020.0	0.000413	27.7039999962
1020.0	0.0004143	27.75
1020.0	0.0004155	27.7969999313
1020.0	0.0004163	27.8289999962
1020.0	0.0004168	27.875
1020.0	0.0004175	27.9219999313
1020.0	0.0004178	27.9539999962
1020.0	0.000418	28.0
1020.0	0.0004188	28.0320000648
1020.0	0.0004188	28.0789999962
1020.0	0.0004188	28.125
1020.0	0.0004188	28.1570000648
1020.0	0.0004188	28.2039999962
1020.0	0.0004183	28.25
1020.0	0.0004183	28.2820000648
1020.0	0.0004188	28.3289999962
1020.0	0.000419	28.375
1020.0	0.000419	28.4070000648
1020.0	0.0004193	28.4539999962
1020.0	0.0004195	28.5
1020.0	0.00042	28.5320000648
1020.0	0.0004195	28.5789999962
1020.0	0.00042	28.6099998951
1020.0	0.0004195	28.6570000648
1020.0	0.0004193	28.7039999962
1020.0	0.0004195	28.7349998951
1020.0	0.0004195	28.7820000648
1020.0	0.0004193	28.8289999962
1020.0	0.0004193	28.8599998951
1020.0	0.0004193	28.9070000648
1020.0	0.0004193	28.9539999962
1020.0	0.0004195	28.9849998951
1020.0	0.0004195	29.0320000648
1030.0	0.0004313	29.3129999638
1030.0	0.0004353	29.3599998951
1030.0	0.0004388	29.3910000324
1030.0	0.0004418	29.4379999638
1030.0	0.0004438	29.4690001011
1030.0	0.0004455	29.5160000324
1030.0	0.0004475	29.5629999638
1030.0	0.0004483	29.5940001011
1030.0	0.0004493	29.6410000324
1030.0	0.00045	29.6879999638
1030.0	0.0004505	29.7190001011
1030.0	0.0004513	29.7660000324
1030.0	0.0004515	29.7969999313
1030.0	0.0004513	29.8440001011
1030.0	0.0004513	29.8910000324
1030.0	0.0004508	29.9219999313
1030.0	0.0004508	29.9690001011
1030.0	0.0004508	30.0160000324
1030.0	0.0004508	30.0469999313
1030.0	0.0004513	30.0940001011
1030.0	0.0004515	30.125
1030.0	0.0004513	30.1719999313
1030.0	0.0004515	30.2190001011
1030.0	0.0004515	30.25
1030.0	0.0004518	30.2969999313
1030.0	0.0004518	30.3440001011
1030.0	0.0004515	30.375
1030.0	0.0004513	30.4219999313
1030.0	0.0004513	30.4539999962
1030.0	0.0004513	30.5
1030.0	0.0004513	30.5469999313
1030.0	0.0004508	30.5789999962
1030.0	0.0004508	30.625
1030.0	0.0004508	30.6719999313
1030.0	0.0004505	30.7190001011
1030.0	0.0004505	30.75
1030.0	0.0004503	30.7969999313
1040.0	0.0004638	31.0789999962
1040.0	0.0004683	31.125
1040.0	0.0004715	31.1570000648
1040.0	0.0004743	31.2039999962
1040.0	0.0004768	31.2349998951
1040.0	0.0004783	31.2820000648
1040.0	0.00048	31.3289999962
1040.0	0.0004813	31.3599998951
1040.0	0.0004815	31.4070000648
1040.0	0.000482	31.4539999962
1040.0	0.0004828	31.4849998951
1040.0	0.000483	31.5320000648
1040.0	0.000483	31.5789999962
1040.0	0.000483	31.6099998951
1040.0	0.000483	31.6570000648
1040.0	0.0004833	31.6879999638
1040.0	0.000483	31.7349998951
1040.0	0.0004833	31.7820000648
1040.0	0.0004833	31.8129999638
1040.0	0.000483	31.8599998951
1040.0	0.000483	31.9070000648
1040.0	0.000483	31.9379999638
1040.0	0.0004833	31.9849998951
1040.0	0.0004833	32.0160000324
1040.0	0.0004833	32.0629999638
1040.0	0.0004838	32.1099998951
1040.0	0.0004838	32.1410000324
1040.0	0.0004833	32.1879999638
1040.0	0.0004833	32.2349998951
1040.0	0.0004838	32.2660000324
1040.0	0.000484	32.3129999638
1040.0	0.000484	32.3440001011
1040.0	0.000484	32.3910000324
1040.0	0.000484	32.4379999638
1040.0	0.000484	32.4690001011
1040.0	0.0004843	32.5160000324
1040.0	0.0004843	32.5629999638
1050.0	0.0004958	32.8440001011
1050.0	0.0005005	32.875
1050.0	0.0005043	32.9219999313
1050.0	0.000507	32.9690001011
1050.0	0.0005095	33.0
1050.0	0.0005115	33.0469999313
1050.0	0.0005128	33.0940001011
1050.0	0.0005138	33.125
1050.0	0.0005143	33.1719999313
1050.0	0.0005153	33.2039999962
1050.0	0.0005155	33.25
1050.0	0.0005155	33.2969999313
1050.0	0.0005158	33.3289999962
1050.0	0.0005163	33.375
1050.0	0.0005163	33.4219999313
1050.0	0.0005163	33.4539999962
1050.0	0.0005165	33.5
1050.0	0.0005163	33.5320000648
1050.0	0.0005168	33.5789999962
1050.0	0.0005168	33.625
1050.0	0.0005165	33.6570000648
1050.0	0.0005168	33.7039999962
1050.0	0.0005168	33.75
1050.0	0.000517	33.7820000648
1050.0	0.000517	33.8289999962
1050.0	0.000517	33.8599998951
1050.0	0.0005168	33.9070000648
1050.0	0.0005168	33.9539999962
1050.0	0.0005168	33.9849998951
1050.0	0.000517	34.0320000648
1050.0	0.000517	34.0789999962
1050.0	0.0005168	34.1099998951
1050.0	0.000517	34.1570000648
1050.0	0.0005168	34.2039999962
1050.0	0.000517	34.2349998951
1050.0	0.0005168	34.2820000648
1050.0	0.0005168	34.3289999962
1060.0	0.0005295	34.6099998951
1060.0	0.000534	34.6410000324
1060.0	0.0005378	34.6879999638
1060.0	0.0005413	34.7190001011
1060.0	0.0005438	34.7660000324
1060.0	0.0005455	34.8129999638
1060.0	0.0005468	34.8440001011
1060.0	0.0005478	34.8910000324
1060.0	0.0005483	34.9219999313
1060.0	0.0005488	34.9690001011
1060.0	0.0005488	35.0160000324
1060.0	0.0005493	35.0469999313
1060.0	0.0005495	35.0940001011
1060.0	0.00055	35.1410000324
1060.0	0.00055	35.1719999313
1060.0	0.00055	35.2190001011
1060.0	0.00055	35.2660000324
1060.0	0.0005503	35.2969999313
1060.0	0.0005503	35.3440001011
1060.0	0.0005503	35.375
1060.0	0.00055	35.4219999313
1060.0	0.00055	35.4690001011
1060.0	0.00055	35.5
1060.0	0.00055	35.5469999313
1060.0	0.00055	35.5940001011
1060.0	0.00055	35.625
1060.0	0.0005503	35.6719999313
1060.0	0.0005503	35.7039999962
1060.0	0.0005505	35.75
1060.0	0.0005505	35.7969999313
1060.0	0.0005513	35.8289999962
1060.0	0.0005513	35.875
1060.0	0.0005513	35.9219999313
1060.0	0.0005515	35.9539999962
1060.0	0.0005518	36.0
1060.0	0.0005518	36.0320000648
1060.0	0.0005518	36.0789999962
1070.0	0.0005645	36.3599998951
1070.0	0.0005693	36.4070000648
1070.0	0.0005728	36.4539999962
1070.0	0.0005753	36.4849998951
1070.0	0.0005775	36.5320000648
1070.0	0.000579	36.5789999962
1070.0	0.0005803	36.6099998951
1070.0	0.0005813	36.6570000648
1070.0	0.0005818	36.7039999962
1070.0	0.0005825	36.7349998951
1070.0	0.0005828	36.7820000648
1070.0	0.0005833	36.8129999638
1070.0	0.0005833	36.8599998951
1070.0	0.0005833	36.9070000648
1070.0	0.0005833	36.9379999638
1070.0	0.0005838	36.9849998951
1070.0	0.000584	37.0320000648
1070.0	0.000584	37.0629999638
1070.0	0.0005843	37.1099998951
1070.0	0.000584	37.1410000324
1070.0	0.0005843	37.1879999638
1070.0	0.0005843	37.2349998951
1070.0	0.0005843	37.2660000324
1070.0	0.0005843	37.3129999638
1070.0	0.0005843	37.3599998951
1070.0	0.0005843	37.3910000324
1070.0	0.0005845	37.4379999638
1070.0	0.0005843	37.4849998951
1070.0	0.0005843	37.5160000324
1070.0	0.000584	37.5629999638
1070.0	0.0005833	37.5940001011
1070.0	0.0005833	37.6410000324
1070.0	0.0005833	37.6879999638
1070.0	0.0005833	37.7190001011
1070.0	0.0005838	37.7660000324
1070.0	0.0005838	37.7969999313
1070.0	0.0005843	37.8440001011
1080.0	0.0005953	38.125
1080.0	0.000599	38.1719999313
1080.0	0.0006025	38.2190001011
1080.0	0.000605	38.25
1080.0	0.0006068	38.2969999313
1080.0	0.000609	38.3289999962
1080.0	0.0006103	38.375
1080.0	0.0006113	38.4219999313
1080.0	0.0006115	38.4539999962
1080.0	0.000612	38.5
1080.0	0.0006125	38.5469999313
1080.0	0.000613	38.5789999962
1080.0	0.000613	38.625
1080.0	0.000613	38.6719999313
1080.0	0.000613	38.7039999962
1080.0	0.000613	38.75
1080.0	0.0006133	38.7969999313
1080.0	0.0006133	38.8289999962
1080.0	0.0006133	38.875
1080.0	0.0006133	38.9070000648
1080.0	0.000613	38.9539999962
1080.0	0.000613	39.0
1080.0	0.000613	39.0320000648
1080.0	0.0006128	39.0789999962
1080.0	0.000613	39.125
1080.0	0.0006128	39.1570000648
1080.0	0.0006128	39.2039999962
1080.0	0.000613	39.25
1080.0	0.000613	39.2820000648
1080.0	0.0006128	39.3289999962
1080.0	0.0006125	39.3599998951
1080.0	0.0006125	39.4070000648
1080.0	0.0006125	39.4539999962
1080.0	0.0006128	39.4849998951
1080.0	0.0006125	39.5320000648
1080.0	0.0006125	39.5789999962
1080.0	0.000612	39.6099998951
1090.0	0.000624	39.8910000324
1090.0	0.0006278	39.9379999638
1090.0	0.0006305	39.9849998951
1090.0	0.000633	40.0160000324
1090.0	0.0006353	40.0629999638
1090.0	0.0006368	40.1099998951
1090.0	0.000638	40.1410000324
1090.0	0.000639	40.1879999638
1090.0	0.0006393	40.2190001011
1090.0	0.0006395	40.2660000324
1090.0	0.0006398	40.3129999638
1090.0	0.0006398	40.3440001011
1090.0	0.0006398	40.3910000324
1090.0	0.00064	40.4219999313
1090.0	0.0006403	40.4690001011
1090.0	0.00064	40.5160000324
1090.0	0.0006403	40.5469999313
1090.0	0.0006403	40.5940001011
1090.0	0.0006405	40.6410000324
1090.0	0.000641	40.6719999313
1090.0	0.000641	40.7190001011
1090.0	0.0006405	40.75
1090.0	0.0006405	40.7969999313
1090.0	0.0006403	40.8440001011
1090.0	0.0006403	40.875
1090.0	0.00064	40.9219999313
1090.0	0.00064	40.9690001011
1090.0	0.0006403	41.0
1090.0	0.0006405	41.0469999313
1090.0	0.0006405	41.0940001011
1090.0	0.0006403	41.125
1090.0	0.0006405	41.1719999313
1090.0	0.0006405	41.2039999962
1090.0	0.0006413	41.25
1090.0	0.0006413	41.2969999313
1090.0	0.0006415	41.3289999962
1090.0	0.0006415	41.375
1100.0	0.0006515	41.6570000648
1100.0	0.000655	41.7039999962
1100.0	0.0006578	41.7349998951
1100.0	0.00066	41.7820000648
1100.0	0.0006618	41.8289999962
1100.0	0.000663	41.8599998951
1100.0	0.0006643	41.9070000648
1100.0	0.0006653	41.9379999638
1100.0	0.0006655	41.9849998951
1100.0	0.000666	42.0320000648
1100.0	0.0006663	42.0629999638
1100.0	0.0006665	42.1099998951
1100.0	0.0006668	42.1570000648
1100.0	0.0006673	42.1879999638
1100.0	0.0006675	42.2349998951
1100.0	0.0006678	42.2820000648
1100.0	0.0006678	42.3129999638
1100.0	0.0006678	42.3599998951
1100.0	0.000668	42.3910000324
1100.0	0.0006685	42.4379999638
1100.0	0.0006685	42.4849998951
1100.0	0.0006685	42.5160000324
1100.0	0.0006685	42.5629999638
1100.0	0.0006685	42.6099998951
1100.0	0.0006685	42.6410000324
1100.0	0.0006688	42.6879999638
1100.0	0.0006693	42.7190001011
1100.0	0.000669	42.7660000324
1100.0	0.000669	42.8129999638
1100.0	0.000669	42.8440001011
1100.0	0.000669	42.8910000324
1100.0	0.000669	42.9379999638
1100.0	0.0006693	42.9849998951
1100.0	0.0006693	43.0160000324
1100.0	0.0006693	43.0629999638
1100.0	0.000669	43.0940001011
1100.0	0.000669	43.1410000324
1110.0	0.0006785	43.4219999313
1110.0	0.0006815	43.4539999962
1110.0	0.000684	43.5
1110.0	0.000686	43.5469999313
1110.0	0.0006873	43.5789999962
1110.0	0.0006885	43.625
1110.0	0.000689	43.6719999313
1110.0	0.0006898	43.7039999962
1110.0	0.0006903	43.75
1110.0	0.0006905	43.7969999313
1110.0	0.000691	43.8289999962
1110.0	0.0006913	43.875
1110.0	0.0006915	43.9070000648
1110.0	0.0006923	43.9539999962
1110.0	0.0006923	44.0
1110.0	0.0006925	44.0320000648
1110.0	0.0006925	44.0789999962
1110.0	0.0006928	44.125
1110.0	0.0006928	44.1570000648
1110.0	0.0006928	44.2039999962
1110.0	0.0006928	44.2349998951
1110.0	0.0006928	44.2820000648
1110.0	0.0006928	44.3289999962
1110.0	0.0006928	44.3599998951
1110.0	0.0006928	44.4070000648
1110.0	0.0006928	44.4539999962
1110.0	0.0006928	44.4849998951
1110.0	0.0006928	44.5320000648
1110.0	0.0006923	44.5629999638
1110.0	0.0006923	44.6099998951
1110.0	0.0006923	44.6570000648
1110.0	0.0006918	44.6879999638
1110.0	0.0006918	44.7349998951
1110.0	0.0006918	44.7820000648
1110.0	0.0006915	44.8129999638
1110.0	0.0006915	44.8599998951
1110.0	0.0006913	44.9070000648
1120.0	0.0006993	45.1719999313
1120.0	0.0007018	45.2190001011
1120.0	0.000704	45.2660000324
1120.0	0.0007053	45.2969999313
1120.0	0.0007068	45.3440001011
1120.0	0.0007078	45.3910000324
1120.0	0.0007088	45.4219999313
1120.0	0.000709	45.4690001011
1120.0	0.0007098	45.5160000324
1120.0	0.00071	45.5469999313
1120.0	0.00071	45.5940001011
1120.0	0.0007103	45.6410000324
1120.0	0.0007105	45.6719999313
1120.0	0.0007105	45.7190001011
1120.0	0.000711	45.75
1120.0	0.0007105	45.7969999313
1120.0	0.0007103	45.8440001011
1120.0	0.000711	45.875
1120.0	0.0007105	45.9219999313
1120.0	0.0007105	45.9690001011
1120.0	0.0007105	46.0
1120.0	0.0007105	46.0469999313
1120.0	0.000711	46.0789999962
1120.0	0.000711	46.125
1120.0	0.0007105	46.1719999313
1120.0	0.000711	46.2039999962
1120.0	0.000711	46.25
1120.0	0.000711	46.2969999313
1120.0	0.000711	46.3289999962
1120.0	0.0007103	46.375
1120.0	0.0007105	46.4070000648
1120.0	0.0007103	46.4539999962
1120.0	0.00071	46.5
1120.0	0.00071	46.5320000648
1120.0	0.00071	46.5789999962
1120.0	0.00071	46.625
1120.0	0.0007103	46.6570000648
1130.0	0.0007173	46.9379999638
1130.0	0.000719	46.9849998951
1130.0	0.000721	47.0160000324
1130.0	0.0007225	47.0629999638
1130.0	0.000724	47.0940001011
1130.0	0.0007253	47.1410000324
1130.0	0.0007255	47.1879999638
1130.0	0.0007263	47.2190001011
1130.0	0.0007265	47.2660000324
1130.0	0.0007273	47.3129999638
1130.0	0.0007278	47.3440001011
1130.0	0.0007278	47.3910000324
1130.0	0.000728	47.4219999313
1130.0	0.0007285	47.4690001011
1130.0	0.0007285	47.5160000324
1130.0	0.0007285	47.5469999313
1130.0	0.000729	47.5940001011
1130.0	0.0007293	47.6410000324
1130.0	0.0007298	47.6719999313
1130.0	0.0007298	47.7190001011
1130.0	0.0007298	47.75
1130.0	0.0007298	47.7969999313
1130.0	0.0007298	47.8440001011
1130.0	0.0007293	47.875
1130.0	0.000729	47.9219999313
1130.0	0.000729	47.9690001011
1130.0	0.0007298	48.0
1130.0	0.0007298	48.0469999313
1130.0	0.0007298	48.0940001011
1130.0	0.0007298	48.125
1130.0	0.0007298	48.1719999313
1130.0	0.0007298	48.2190001011
1130.0	0.0007298	48.25
1130.0	0.000729	48.2969999313
1130.0	0.000729	48.3289999962
1130.0	0.0007293	48.375
1130.0	0.0007293	48.4219999313
1140.0	0.000735	48.6879999638
1140.0	0.0007365	48.7349998951
1140.0	0.0007378	48.7660000324
1140.0	0.000739	48.8129999638
1140.0	0.0007403	48.8599998951
1140.0	0.0007413	48.8910000324
1140.0	0.0007423	48.9379999638
1140.0	0.0007425	48.9849998951
1140.0	0.0007428	49.0160000324
1140.0	0.000743	49.0629999638
1140.0	0.0007435	49.0940001011
1140.0	0.0007435	49.1410000324
1140.0	0.0007428	49.1879999638
1140.0	0.0007428	49.2190001011
1140.0	0.000743	49.2660000324
1140.0	0.000743	49.3129999638
1140.0	0.000743	49.3440001011
1140.0	0.0007428	49.3910000324
1140.0	0.0007425	49.4219999313
1140.0	0.0007423	49.4690001011
1140.0	0.0007423	49.5160000324
1140.0	0.0007418	49.5469999313
1140.0	0.0007423	49.5940001011
1140.0	0.0007425	49.6410000324
1140.0	0.0007425	49.6719999313
1140.0	0.0007425	49.7190001011
1140.0	0.0007423	49.75
1140.0	0.0007428	49.7969999313
1140.0	0.000743	49.8440001011
1140.0	0.0007435	49.875
1140.0	0.0007438	49.9219999313
1140.0	0.0007438	49.9690001011
1140.0	0.000744	50.0
1140.0	0.000744	50.0469999313
1140.0	0.000744	50.0940001011
1140.0	0.000744	50.125
1140.0	0.000744	50.1719999313
1150.0	0.0007475	50.4379999638
1150.0	0.0007488	50.4849998951
1150.0	0.00075	50.5160000324
1150.0	0.0007505	50.5629999638
1150.0	0.0007515	50.6099998951
1150.0	0.0007523	50.6410000324
1150.0	0.0007528	50.6879999638
1150.0	0.000753	50.7190001011
1150.0	0.0007535	50.7660000324
1150.0	0.0007535	50.8129999638
1150.0	0.0007538	50.8440001011
1150.0	0.000754	50.8910000324
1150.0	0.000754	50.9379999638
1150.0	0.000754	50.9690001011
1150.0	0.0007543	51.0160000324
1150.0	0.0007543	51.0469999313
1150.0	0.0007543	51.0940001011
1150.0	0.0007543	51.1410000324
1150.0	0.0007548	51.1719999313
1150.0	0.0007548	51.2190001011
1150.0	0.0007548	51.2660000324
1150.0	0.000754	51.2969999313
1150.0	0.0007538	51.3440001011
1150.0	0.0007535	51.3910000324
1150.0	0.0007535	51.4219999313
1150.0	0.0007535	51.4690001011
1150.0	0.0007538	51.5
1150.0	0.000754	51.5469999313
1150.0	0.000754	51.5940001011
1150.0	0.0007543	51.6410000324
1150.0	0.0007543	51.6719999313
1150.0	0.0007543	51.7190001011
1150.0	0.000754	51.75
1150.0	0.000754	51.7969999313
1150.0	0.0007548	51.8440001011
1150.0	0.000755	51.875
1150.0	0.000755	51.9219999313
1160.0	0.0007598	52.1879999638
1160.0	0.0007613	52.2190001011
1160.0	0.0007625	52.2660000324
1160.0	0.0007635	52.3129999638
1160.0	0.000764	52.3440001011
1160.0	0.000765	52.3910000324
1160.0	0.0007655	52.4379999638
1160.0	0.000766	52.4690001011
1160.0	0.0007663	52.5160000324
1160.0	0.0007668	52.5469999313
1160.0	0.0007673	52.5940001011
1160.0	0.0007675	52.6410000324
1160.0	0.0007678	52.6719999313
1160.0	0.0007678	52.7190001011
1160.0	0.000768	52.7660000324
1160.0	0.000768	52.7969999313
1160.0	0.0007685	52.8440001011
1160.0	0.0007685	52.875
1160.0	0.0007685	52.9219999313
1160.0	0.0007685	52.9690001011
1160.0	0.0007685	53.0
1160.0	0.000768	53.0469999313
1160.0	0.000768	53.0940001011
1160.0	0.000768	53.125
1160.0	0.0007685	53.1719999313
1160.0	0.0007688	53.2190001011
1160.0	0.000769	53.25
1160.0	0.000769	53.2969999313
1160.0	0.000769	53.3289999962
1160.0	0.0007688	53.375
1160.0	0.0007685	53.4219999313
1160.0	0.0007685	53.4539999962
1160.0	0.0007685	53.5
1160.0	0.0007688	53.5469999313
1160.0	0.0007688	53.5789999962
1160.0	0.000769	53.625
1160.0	0.0007693	53.6570000648
1170.0	0.0007723	53.9219999313
1170.0	0.0007735	53.9690001011
1170.0	0.0007743	54.0
1170.0	0.000775	54.0469999313
1170.0	0.0007753	54.0789999962
1170.0	0.0007755	54.125
1170.0	0.0007763	54.1719999313
1170.0	0.0007765	54.2039999962
1170.0	0.0007773	54.25
1170.0	0.0007773	54.2969999313
1170.0	0.0007773	54.3289999962
1170.0	0.0007768	54.375
1170.0	0.0007768	54.4219999313
1170.0	0.0007773	54.4539999962
1170.0	0.0007773	54.5
1170.0	0.0007768	54.5320000648
1170.0	0.0007765	54.5789999962
1170.0	0.0007763	54.625
1170.0	0.0007763	54.6570000648
1170.0	0.000776	54.7039999962
1170.0	0.000776	54.75
1170.0	0.0007763	54.7820000648
1170.0	0.0007763	54.8289999962
1170.0	0.0007763	54.8599998951
1170.0	0.0007765	54.9070000648
1170.0	0.0007765	54.9539999962
1170.0	0.0007765	54.9849998951
1170.0	0.0007765	55.0320000648
1170.0	0.0007763	55.0789999962
1170.0	0.0007763	55.1099998951
1170.0	0.0007763	55.1570000648
1170.0	0.000776	55.2039999962
1170.0	0.000776	55.2349998951
1170.0	0.0007753	55.2820000648
1170.0	0.0007753	55.3129999638
1170.0	0.0007755	55.3599998951
1170.0	0.0007755	55.4070000648
1180.0	0.0007788	55.6570000648
1180.0	0.0007803	55.7039999962
1180.0	0.0007813	55.75
1180.0	0.0007823	55.7820000648
1180.0	0.0007828	55.8289999962
1180.0	0.000783	55.875
1180.0	0.0007838	55.9070000648
1180.0	0.000784	55.9539999962
1180.0	0.000784	55.9849998951
1180.0	0.0007838	56.0320000648
1180.0	0.000784	56.0789999962
1180.0	0.0007843	56.1099998951
1180.0	0.0007848	56.1570000648
1180.0	0.0007848	56.2039999962
1180.0	0.000785	56.2349998951
1180.0	0.000785	56.2820000648
1180.0	0.0007853	56.3289999962
1180.0	0.0007853	56.3599998951
1180.0	0.0007853	56.4070000648
1180.0	0.000786	56.4379999638
1180.0	0.000786	56.4849998951
1180.0	0.000786	56.5320000648
1180.0	0.000786	56.5629999638
1180.0	0.000786	56.6099998951
1180.0	0.0007855	56.6570000648
1180.0	0.000786	56.6879999638
1180.0	0.0007855	56.7349998951
1180.0	0.0007853	56.7660000324
1180.0	0.0007855	56.8129999638
1180.0	0.0007855	56.8599998951
1180.0	0.000786	56.8910000324
1180.0	0.000786	56.9379999638
1180.0	0.0007855	56.9849998951
1180.0	0.0007855	57.0160000324
1180.0	0.0007855	57.0629999638
1180.0	0.0007855	57.0940001011
1180.0	0.000786	57.1410000324
1190.0	0.000789	57.3910000324
1190.0	0.0007903	57.4379999638
1190.0	0.0007915	57.4849998951
1190.0	0.0007923	57.5160000324
1190.0	0.000793	57.5629999638
1190.0	0.0007938	57.6099998951
1190.0	0.000794	57.6410000324
1190.0	0.0007948	57.6879999638
1190.0	0.0007953	57.7349998951
1190.0	0.000796	57.7660000324
1190.0	0.0007963	57.8129999638
1190.0	0.0007965	57.8599998951
1190.0	0.0007965	57.8910000324
1190.0	0.0007968	57.9379999638
1190.0	0.0007968	57.9690001011
1190.0	0.0007968	58.0160000324
1190.0	0.0007968	58.0629999638
1190.0	0.0007968	58.0940001011
1190.0	0.0007973	58.1410000324
1190.0	0.0007973	58.1879999638
1190.0	0.0007968	58.2190001011
1190.0	0.0007965	58.2660000324
1190.0	0.0007965	58.3129999638
1190.0	0.0007965	58.3440001011
1190.0	0.0007968	58.3910000324
1190.0	0.0007968	58.4219999313
1190.0	0.0007968	58.4690001011
1190.0	0.0007968	58.5160000324
1190.0	0.0007968	58.5469999313
1190.0	0.0007968	58.5940001011
1190.0	0.0007968	58.625
1190.0	0.0007965	58.6719999313
1190.0	0.0007965	58.7190001011
1190.0	0.0007965	58.75
1190.0	0.0007965	58.7969999313
1190.0	0.0007965	58.8440001011
1190.0	0.0007963	58.875
1200.0	0.0008003	59.1410000324
1200.0	0.0008015	59.1879999638
1200.0	0.0008025	59.2190001011
1200.0	0.000803	59.2660000324
1200.0	0.0008035	59.3129999638
1200.0	0.0008038	59.3599998951
1200.0	0.0008043	59.3910000324
1200.0	0.000805	59.4379999638
1200.0	0.0008053	59.4690001011
1200.0	0.0008055	59.5160000324
1200.0	0.0008055	59.5629999638
1200.0	0.0008053	59.5940001011
1200.0	0.0008053	59.6410000324
1200.0	0.0008053	59.6879999638
1200.0	0.0008053	59.7190001011
1200.0	0.0008053	59.7660000324
1200.0	0.000805	59.7969999313
1200.0	0.0008048	59.8440001011
1200.0	0.000805	59.8910000324
1200.0	0.0008048	59.9219999313
1200.0	0.0008048	59.9690001011
1200.0	0.0008048	60.0160000324
1200.0	0.0008048	60.0469999313
1200.0	0.000805	60.0940001011
1200.0	0.000805	60.1410000324
1200.0	0.000805	60.1719999313
1200.0	0.0008048	60.2190001011
1200.0	0.0008043	60.2660000324
1200.0	0.0008048	60.2969999313
1200.0	0.000805	60.3440001011
1200.0	0.000805	60.375
1200.0	0.000805	60.4219999313
1200.0	0.000805	60.4690001011
1200.0	0.0008053	60.5
1200.0	0.0008053	60.5469999313
1200.0	0.0008053	60.5940001011
1210.0	0.0008078	60.8440001011
1210.0	0.000809	60.8910000324
1210.0	0.00081	60.9379999638
1210.0	0.000811	60.9849998951
1210.0	0.000811	61.0160000324
1210.0	0.0008115	61.0629999638
1210.0	0.0008118	61.1099998951
1210.0	0.0008118	61.1410000324
1210.0	0.0008123	61.1879999638
1210.0	0.0008125	61.2349998951
1210.0	0.0008128	61.2660000324
1210.0	0.0008128	61.3129999638
1210.0	0.0008128	61.3599998951
1210.0	0.0008125	61.3910000324
1210.0	0.0008125	61.4379999638
1210.0	0.0008123	61.4690001011
1210.0	0.0008125	61.5160000324
1210.0	0.0008128	61.5629999638
1210.0	0.0008128	61.5940001011
1210.0	0.0008128	61.6410000324
1210.0	0.000813	61.6879999638
1210.0	0.0008135	61.7190001011
1210.0	0.0008138	61.7660000324
1210.0	0.0008138	61.7969999313
1210.0	0.0008135	61.8440001011
1210.0	0.0008135	61.8910000324
1210.0	0.000813	61.9219999313
1210.0	0.000813	61.9690001011
1210.0	0.000813	62.0160000324
1210.0	0.0008128	62.0469999313
1210.0	0.0008128	62.0940001011
1210.0	0.000813	62.125
1210.0	0.0008135	62.1719999313
1210.0	0.000814	62.2190001011
1210.0	0.0008138	62.25
1210.0	0.000814	62.2969999313
1210.0	0.000814	62.3440001011
1220.0	0.0008165	62.6099998951
1220.0	0.0008178	62.6410000324
1220.0	0.000819	62.6879999638
1220.0	0.00082	62.7349998951
1220.0	0.000821	62.7660000324
1220.0	0.0008215	62.8129999638
1220.0	0.0008218	62.8599998951
1220.0	0.0008223	62.8910000324
1220.0	0.0008223	62.9379999638
1220.0	0.0008228	62.9690001011
1220.0	0.0008228	63.0160000324
1220.0	0.000823	63.0629999638
1220.0	0.0008235	63.0940001011
1220.0	0.0008238	63.1410000324
1220.0	0.0008238	63.1719999313
1220.0	0.000824	63.2190001011
1220.0	0.000824	63.2660000324
1220.0	0.000824	63.2969999313
1220.0	0.0008248	63.3440001011
1220.0	0.0008243	63.3910000324
1220.0	0.0008248	63.4219999313
1220.0	0.0008248	63.4690001011
1220.0	0.0008248	63.5
1220.0	0.000825	63.5469999313
1220.0	0.0008248	63.5940001011
1220.0	0.0008243	63.625
1220.0	0.0008248	63.6719999313
1220.0	0.000825	63.7190001011
1220.0	0.0008253	63.75
1220.0	0.000826	63.7969999313
1220.0	0.0008255	63.8440001011
1220.0	0.0008255	63.875
1220.0	0.000826	63.9219999313
1220.0	0.0008253	63.9539999962
1220.0	0.0008255	64.0
1220.0	0.0008253	64.0469999313
1220.0	0.0008253	64.0789999962
1230.0	0.0008288	64.3599998951
1230.0	0.00083	64.3910000324
1230.0	0.0008305	64.4379999638
1230.0	0.0008315	64.4849998951
1230.0	0.0008323	64.5160000324
1230.0	0.000833	64.5629999638
1230.0	0.0008335	64.5940001011
1230.0	0.0008338	64.6410000324
1230.0	0.000834	64.6879999638
1230.0	0.0008348	64.7190001011
1230.0	0.0008353	64.7660000324
1230.0	0.0008355	64.8129999638
1230.0	0.0008355	64.8440001011
1230.0	0.0008355	64.8910000324
1230.0	0.0008355	64.9219999313
1230.0	0.0008353	64.9690001011
1230.0	0.0008353	65.0160000324
1230.0	0.000835	65.0469999313
1230.0	0.0008348	65.0940001011
1230.0	0.0008348	65.1410000324
1230.0	0.0008348	65.1719999313
1230.0	0.0008348	65.2190001011
1230.0	0.0008343	65.25
1230.0	0.0008343	65.2969999313
1230.0	0.0008343	65.3440001011
1230.0	0.0008348	65.375
1230.0	0.0008348	65.4219999313
1230.0	0.0008348	65.4690001011
1230.0	0.0008348	65.5
1230.0	0.0008348	65.5469999313
1230.0	0.0008348	65.5940001011
1230.0	0.0008348	65.625
1230.0	0.0008343	65.6719999313
1230.0	0.0008348	65.7039999962
1230.0	0.000835	65.75
1230.0	0.000835	65.7969999313
1230.0	0.000835	65.8289999962
1240.0	0.0008373	66.1099998951
1240.0	0.000838	66.1410000324
1240.0	0.000839	66.1879999638
1240.0	0.0008403	66.2349998951
1240.0	0.000841	66.2660000324
1240.0	0.0008415	66.3129999638
1240.0	0.0008425	66.3440001011
1240.0	0.0008428	66.3910000324
1240.0	0.000843	66.4379999638
1240.0	0.000843	66.4690001011
1240.0	0.0008435	66.5160000324
1240.0	0.0008435	66.5629999638
1240.0	0.000843	66.5940001011
1240.0	0.000843	66.6410000324
1240.0	0.000843	66.6719999313
1240.0	0.000843	66.7190001011
1240.0	0.0008425	66.7660000324
1240.0	0.0008425	66.7969999313
1240.0	0.0008425	66.8440001011
1240.0	0.0008425	66.8910000324
1240.0	0.0008425	66.9219999313
1240.0	0.0008425	66.9690001011
1240.0	0.0008425	67.0160000324
1240.0	0.0008423	67.0469999313
1240.0	0.0008423	67.0940001011
1240.0	0.0008423	67.1410000324
1240.0	0.0008425	67.1719999313
1240.0	0.0008425	67.2190001011
1240.0	0.0008428	67.25
1240.0	0.000843	67.2969999313
1240.0	0.000843	67.3440001011
1240.0	0.0008428	67.375
1240.0	0.0008428	67.4219999313
1240.0	0.0008425	67.4690001011
1240.0	0.0008425	67.5
1240.0	0.0008425	67.5469999313
1240.0	0.0008428	67.5940001011
1250.0	0.000846	67.8599998951
1250.0	0.0008473	67.9070000648
1250.0	0.0008478	67.9379999638
1250.0	0.0008485	67.9849998951
1250.0	0.000849	68.0160000324
1250.0	0.0008498	68.0629999638
1250.0	0.00085	68.1099998951
1250.0	0.0008505	68.1410000324
1250.0	0.000851	68.1879999638
1250.0	0.0008513	68.2349998951
1250.0	0.0008515	68.2660000324
1250.0	0.0008515	68.3129999638
1250.0	0.0008515	68.3440001011
1250.0	0.0008513	68.3910000324
1250.0	0.000851	68.4379999638
1250.0	0.000851	68.4690001011
1250.0	0.0008513	68.5160000324
1250.0	0.0008515	68.5629999638
1250.0	0.0008518	68.5940001011
1250.0	0.0008518	68.6410000324
1250.0	0.0008518	68.6719999313
1250.0	0.0008518	68.7190001011
1250.0	0.0008523	68.7660000324
1250.0	0.0008523	68.7969999313
1250.0	0.0008528	68.8440001011
1250.0	0.0008535	68.8910000324
1250.0	0.0008535	68.9219999313
1250.0	0.0008535	68.9690001011
1250.0	0.0008535	69.0
1250.0	0.0008535	69.0469999313
1250.0	0.0008535	69.0940001011
1250.0	0.0008538	69.125
1250.0	0.0008538	69.1719999313
1250.0	0.000854	69.2190001011
1250.0	0.000854	69.25
1250.0	0.000854	69.2969999313
1250.0	0.000854	69.3440001011
1260.0	0.0008565	69.6099998951
1260.0	0.0008575	69.6570000648
1260.0	0.000858	69.6879999638
1260.0	0.000859	69.7349998951
1260.0	0.0008603	69.7660000324
1260.0	0.0008605	69.8129999638
1260.0	0.000861	69.8599998951
1260.0	0.0008613	69.8910000324
1260.0	0.0008615	69.9379999638
1260.0	0.0008618	69.9849998951
1260.0	0.0008623	70.0160000324
1260.0	0.0008628	70.0629999638
1260.0	0.000863	70.0940001011
1260.0	0.0008628	70.1410000324
1260.0	0.0008628	70.1879999638
1260.0	0.0008625	70.2190001011
1260.0	0.0008623	70.2660000324
1260.0	0.0008623	70.3129999638
1260.0	0.0008618	70.3440001011
1260.0	0.0008615	70.3910000324
1260.0	0.0008615	70.4219999313
1260.0	0.0008615	70.4690001011
1260.0	0.0008615	70.5160000324
1260.0	0.0008618	70.5629999638
1260.0	0.0008623	70.5940001011
1260.0	0.0008628	70.6410000324
1260.0	0.000863	70.6719999313
1260.0	0.000863	70.7190001011
1260.0	0.000863	70.7660000324
1260.0	0.0008628	70.7969999313
1260.0	0.0008628	70.8440001011
1260.0	0.0008628	70.8910000324
1260.0	0.0008628	70.9219999313
1260.0	0.0008625	70.9690001011
1260.0	0.0008628	71.0160000324
1260.0	0.0008628	71.0469999313
1260.0	0.0008628	71.0940001011
1270.0	0.000865	71.3599998951
1270.0	0.0008655	71.4070000648
1270.0	0.000866	71.4379999638
1270.0	0.0008663	71.4849998951
1270.0	0.0008668	71.5320000648
1270.0	0.0008673	71.5629999638
1270.0	0.0008675	71.6099998951
1270.0	0.0008678	71.6570000648
1270.0	0.000868	71.6879999638
1270.0	0.000868	71.7349998951
1270.0	0.000868	71.7660000324
1270.0	0.0008678	71.8129999638
1270.0	0.0008678	71.8599998951
1270.0	0.000868	71.8910000324
1270.0	0.000868	71.9379999638
1270.0	0.0008685	71.9849998951
1270.0	0.0008685	72.0160000324
1270.0	0.000868	72.0629999638
1270.0	0.0008678	72.0940001011
1270.0	0.0008678	72.1410000324
1270.0	0.0008675	72.1879999638
1270.0	0.0008675	72.2349998951
1270.0	0.0008673	72.2660000324
1270.0	0.0008668	72.3129999638
1270.0	0.0008668	72.3440001011
1270.0	0.0008665	72.3910000324
1270.0	0.0008665	72.4379999638
1270.0	0.0008665	72.4690001011
1270.0	0.0008665	72.5160000324
1270.0	0.0008668	72.5629999638
1270.0	0.0008668	72.5940001011
1270.0	0.0008668	72.6410000324
1270.0	0.0008665	72.6719999313
1270.0	0.0008665	72.7190001011
1270.0	0.0008668	72.7660000324
1270.0	0.0008673	72.7969999313
1270.0	0.0008673	72.8440001011
1280.0	0.0008685	73.1099998951
1280.0	0.0008685	73.1570000648
1280.0	0.0008688	73.2039999962
1280.0	0.000869	73.25
1280.0	0.0008693	73.2820000648
1280.0	0.0008698	73.3289999962
1280.0	0.00087	73.3599998951
1280.0	0.00087	73.4070000648
1280.0	0.0008698	73.4539999962
1280.0	0.0008698	73.4849998951
1280.0	0.00087	73.5320000648
1280.0	0.0008703	73.5789999962
1280.0	0.0008703	73.6099998951
1280.0	0.0008698	73.6570000648
1280.0	0.0008698	73.6879999638
1280.0	0.0008698	73.7349998951
1280.0	0.0008698	73.7820000648
1280.0	0.00087	73.8129999638
1280.0	0.00087	73.8599998951
1280.0	0.00087	73.9070000648
1280.0	0.0008703	73.9379999638
1280.0	0.0008703	73.9849998951
1280.0	0.0008703	74.0320000648
1280.0	0.00087	74.0629999638
1280.0	0.00087	74.1099998951
1280.0	0.0008703	74.1570000648
1280.0	0.0008703	74.2039999962
1280.0	0.0008705	74.2349998951
1280.0	0.0008705	74.2820000648
1280.0	0.0008703	74.3129999638
1280.0	0.0008703	74.3599998951
1280.0	0.0008705	74.4070000648
1280.0	0.0008705	74.4379999638
1280.0	0.000871	74.4849998951
1280.0	0.0008713	74.5320000648
1280.0	0.0008713	74.5629999638
1290.0	0.000873	74.8289999962
1290.0	0.0008725	74.875
1290.0	0.0008725	74.9070000648
1290.0	0.0008723	74.9539999962
1290.0	0.0008718	75.0
1290.0	0.0008723	75.0320000648
1290.0	0.0008725	75.0789999962
1290.0	0.0008725	75.1099998951
1290.0	0.0008728	75.1570000648
1290.0	0.0008728	75.2039999962
1290.0	0.0008728	75.2349998951
1290.0	0.000873	75.2820000648
1290.0	0.0008728	75.3289999962
1290.0	0.0008728	75.3599998951
1290.0	0.0008728	75.4070000648
1290.0	0.0008728	75.4379999638
1290.0	0.000873	75.4849998951
1290.0	0.0008735	75.5320000648
1290.0	0.000873	75.5629999638
1290.0	0.0008728	75.6099998951
1290.0	0.0008728	75.6570000648
1290.0	0.0008728	75.6879999638
1290.0	0.0008728	75.7349998951
1290.0	0.000873	75.7660000324
1290.0	0.000873	75.8129999638
1290.0	0.0008735	75.8599998951
1290.0	0.0008728	75.8910000324
1290.0	0.0008723	75.9379999638
1290.0	0.0008723	75.9849998951
1290.0	0.0008718	76.0160000324
1290.0	0.0008718	76.0629999638
1290.0	0.0008718	76.1099998951
1290.0	0.0008718	76.1410000324
1290.0	0.0008723	76.1879999638
1290.0	0.0008723	76.2349998951
1290.0	0.0008725	76.2660000324
1290.0	0.0008725	76.3129999638
1300.0	0.0008705	76.5789999962
1300.0	0.0008703	76.6099998951
1300.0	0.00087	76.6570000648
1300.0	0.0008698	76.7039999962
1300.0	0.0008693	76.7349998951
1300.0	0.000869	76.7820000648
1300.0	0.000869	76.8129999638
1300.0	0.000869	76.8599998951
1300.0	0.0008688	76.9070000648
1300.0	0.0008685	76.9379999638
1300.0	0.0008688	76.9849998951
1300.0	0.0008688	77.0320000648
1300.0	0.000869	77.0629999638
1300.0	0.0008693	77.1099998951
1300.0	0.0008693	77.1570000648
1300.0	0.000869	77.1879999638
1300.0	0.0008688	77.2349998951
1300.0	0.0008685	77.2660000324
1300.0	0.0008688	77.3129999638
1300.0	0.0008688	77.3599998951
1300.0	0.0008688	77.3910000324
1300.0	0.0008688	77.4379999638
1300.0	0.0008685	77.4849998951
1300.0	0.000868	77.5160000324
1300.0	0.0008678	77.5629999638
1300.0	0.0008675	77.5940001011
1300.0	0.0008675	77.6410000324
1300.0	0.0008678	77.6879999638
1300.0	0.0008678	77.7190001011
1300.0	0.000868	77.7660000324
1300.0	0.0008685	77.8129999638
1300.0	0.0008688	77.8440001011
1300.0	0.0008688	77.8910000324
1300.0	0.0008685	77.9219999313
1300.0	0.0008685	77.9690001011
1300.0	0.000868	78.0160000324
1300.0	0.000868	78.0469999313
1310.0	0.0008668	78.3129999638
1310.0	0.000866	78.3599998951
1310.0	0.000865	78.3910000324
1310.0	0.0008643	78.4379999638
1310.0	0.0008638	78.4849998951
1310.0	0.0008635	78.5160000324
1310.0	0.0008638	78.5629999638
1310.0	0.0008638	78.6099998951
1310.0	0.000864	78.6410000324
1310.0	0.0008643	78.6879999638
1310.0	0.000864	78.7190001011
1310.0	0.0008643	78.7660000324
1310.0	0.0008643	78.8129999638
1310.0	0.0008643	78.8440001011
1310.0	0.0008643	78.8910000324
1310.0	0.0008638	78.9379999638
1310.0	0.0008643	78.9690001011
1310.0	0.0008643	79.0160000324
1310.0	0.000864	79.0629999638
1310.0	0.000864	79.0940001011
1310.0	0.000864	79.1410000324
1310.0	0.000864	79.1879999638
1310.0	0.000864	79.2190001011
1310.0	0.000864	79.2660000324
1310.0	0.000864	79.2969999313
1310.0	0.000864	79.3440001011
1310.0	0.0008643	79.3910000324
1310.0	0.0008643	79.4219999313
1310.0	0.0008648	79.4690001011
1310.0	0.0008648	79.5160000324
1310.0	0.000865	79.5469999313
1310.0	0.000865	79.5940001011
1310.0	0.000865	79.625
1310.0	0.000865	79.6719999313
1310.0	0.0008653	79.7190001011
1310.0	0.000865	79.75
1310.0	0.0008655	79.7969999313
1320.0	0.000861	80.0629999638
1320.0	0.0008593	80.0940001011
1320.0	0.000858	80.1410000324
1320.0	0.0008568	80.1879999638
1320.0	0.000856	80.2190001011
1320.0	0.000855	80.2660000324
1320.0	0.0008543	80.3129999638
1320.0	0.0008538	80.3440001011
1320.0	0.000853	80.3910000324
1320.0	0.000853	80.4219999313
1320.0	0.000853	80.4690001011
1320.0	0.0008528	80.5160000324
1320.0	0.0008528	80.5469999313
1320.0	0.000853	80.5940001011
1320.0	0.0008528	80.6410000324
1320.0	0.0008525	80.6719999313
1320.0	0.0008525	80.7190001011
1320.0	0.0008523	80.7660000324
1320.0	0.0008523	80.7969999313
1320.0	0.0008515	80.8440001011
1320.0	0.0008515	80.875
1320.0	0.0008515	80.9219999313
1320.0	0.0008518	80.9690001011
1320.0	0.0008518	81.0
1320.0	0.0008523	81.0469999313
1320.0	0.0008518	81.0940001011
1320.0	0.0008523	81.125
1320.0	0.0008518	81.1719999313
1320.0	0.0008518	81.2039999962
1320.0	0.0008523	81.25
1320.0	0.0008523	81.2969999313
1320.0	0.0008518	81.3289999962
1320.0	0.0008518	81.375
1320.0	0.0008515	81.4219999313
1320.0	0.000851	81.4539999962
1320.0	0.000851	81.5
1320.0	0.0008503	81.5320000648
1330.0	0.000844	81.7969999313
1330.0	0.0008418	81.8440001011
1330.0	0.00084	81.8910000324
1330.0	0.0008388	81.9219999313
1330.0	0.0008378	81.9690001011
1330.0	0.0008368	82.0
1330.0	0.0008365	82.0469999313
1330.0	0.0008355	82.0940001011
1330.0	0.000835	82.125
1330.0	0.0008348	82.1719999313
1330.0	0.0008343	82.2190001011
1330.0	0.000834	82.25
1330.0	0.000834	82.2969999313
1330.0	0.000834	82.3440001011
1330.0	0.0008343	82.375
1330.0	0.0008343	82.4219999313
1330.0	0.0008343	82.4690001011
1330.0	0.0008343	82.5160000324
1330.0	0.000834	82.5469999313
1330.0	0.000834	82.5940001011
1330.0	0.000834	82.625
1330.0	0.0008343	82.6719999313
1330.0	0.0008348	82.7190001011
1330.0	0.0008348	82.75
1330.0	0.0008353	82.7969999313
1330.0	0.0008353	82.8440001011
1330.0	0.0008353	82.875
1330.0	0.0008355	82.9219999313
1330.0	0.0008363	82.9539999962
1330.0	0.0008363	83.0
1330.0	0.0008363	83.0469999313
1330.0	0.0008363	83.0789999962
1330.0	0.0008363	83.125
1330.0	0.0008363	83.1719999313
1330.0	0.0008363	83.2039999962
1330.0	0.000836	83.25
1330.0	0.000836	83.2820000648
1340.0	0.0008275	83.5469999313
1340.0	0.0008243	83.5940001011
1340.0	0.0008218	83.6410000324
1340.0	0.00082	83.6719999313
1340.0	0.0008185	83.7190001011
1340.0	0.0008175	83.75
1340.0	0.0008168	83.7969999313
1340.0	0.0008165	83.8440001011
1340.0	0.0008165	83.875
1340.0	0.000816	83.9219999313
1340.0	0.0008153	83.9690001011
1340.0	0.0008148	84.0
1340.0	0.0008148	84.0469999313
1340.0	0.0008148	84.0789999962
1340.0	0.0008148	84.125
1340.0	0.0008148	84.1719999313
1340.0	0.0008143	84.2039999962
1340.0	0.0008143	84.25
1340.0	0.000814	84.2969999313
1340.0	0.0008135	84.3289999962
1340.0	0.0008135	84.375
1340.0	0.0008135	84.4070000648
1340.0	0.000813	84.4539999962
1340.0	0.0008128	84.5
1340.0	0.0008125	84.5320000648
1340.0	0.0008123	84.5789999962
1340.0	0.0008128	84.625
1340.0	0.0008128	84.6570000648
1340.0	0.0008128	84.7039999962
1340.0	0.0008128	84.75
1340.0	0.0008125	84.7820000648
1340.0	0.0008123	84.8289999962
1340.0	0.0008128	84.8599998951
1340.0	0.0008128	84.9070000648
1340.0	0.0008128	84.9539999962
1340.0	0.0008128	84.9849998951
1340.0	0.0008125	85.0320000648
1350.0	0.0008038	85.2969999313
1350.0	0.0008	85.3289999962
1350.0	0.0007968	85.375
1350.0	0.000794	85.4219999313
1350.0	0.0007918	85.4690001011
1350.0	0.0007903	85.5
1350.0	0.0007898	85.5469999313
1350.0	0.0007888	85.5789999962
1350.0	0.000788	85.625
1350.0	0.0007875	85.6719999313
1350.0	0.0007865	85.7039999962
1350.0	0.0007865	85.75
1350.0	0.0007863	85.7969999313
1350.0	0.0007863	85.8289999962
1350.0	0.0007863	85.875
1350.0	0.0007863	85.9070000648
1350.0	0.0007863	85.9539999962
1350.0	0.0007865	86.0
1350.0	0.000786	86.0320000648
1350.0	0.0007863	86.0789999962
1350.0	0.0007865	86.125
1350.0	0.0007865	86.1570000648
1350.0	0.0007863	86.2039999962
1350.0	0.000786	86.2349998951
1350.0	0.000786	86.2820000648
1350.0	0.0007863	86.3289999962
1350.0	0.0007865	86.3599998951
1350.0	0.0007865	86.4070000648
1350.0	0.0007863	86.4539999962
1350.0	0.000786	86.4849998951
1350.0	0.0007863	86.5320000648
1350.0	0.0007863	86.5629999638
1350.0	0.0007863	86.6099998951
1350.0	0.0007865	86.6570000648
1350.0	0.0007865	86.6879999638
1350.0	0.0007865	86.7349998951
1350.0	0.0007865	86.7820000648
1360.0	0.0007775	87.0320000648
1360.0	0.0007735	87.0789999962
1360.0	0.0007703	87.125
1360.0	0.000768	87.1570000648
1360.0	0.0007663	87.2039999962
1360.0	0.0007648	87.25
1360.0	0.0007635	87.2820000648
1360.0	0.0007623	87.3289999962
1360.0	0.0007613	87.375
1360.0	0.0007605	87.4070000648
1360.0	0.0007605	87.4539999962
1360.0	0.00076	87.4849998951
1360.0	0.0007598	87.5320000648
1360.0	0.00076	87.5789999962
1360.0	0.0007598	87.6099998951
1360.0	0.00076	87.6570000648
1360.0	0.0007603	87.7039999962
1360.0	0.0007605	87.7349998951
1360.0	0.000761	87.7820000648
1360.0	0.0007605	87.8129999638
1360.0	0.000761	87.8599998951
1360.0	0.000761	87.9070000648
1360.0	0.000761	87.9379999638
1360.0	0.000761	87.9849998951
1360.0	0.0007613	88.0320000648
1360.0	0.000761	88.0629999638
1360.0	0.000761	88.1099998951
1360.0	0.000761	88.1410000324
1360.0	0.0007605	88.1879999638
1360.0	0.0007605	88.2349998951
1360.0	0.000761	88.2660000324
1360.0	0.000761	88.3129999638
1360.0	0.0007613	88.3599998951
1360.0	0.000761	88.3910000324
1360.0	0.0007605	88.4379999638
1360.0	0.0007603	88.4690001011
1360.0	0.00076	88.5160000324
1370.0	0.00075	88.7820000648
1370.0	0.000746	88.8289999962
1370.0	0.0007428	88.8599998951
1370.0	0.0007403	88.9070000648
1370.0	0.0007385	88.9379999638
1370.0	0.0007365	88.9849998951
1370.0	0.0007353	89.0320000648
1370.0	0.000734	89.0629999638
1370.0	0.000733	89.1099998951
1370.0	0.0007325	89.1570000648
1370.0	0.0007318	89.1879999638
1370.0	0.0007315	89.2349998951
1370.0	0.0007315	89.2660000324
1370.0	0.0007315	89.3129999638
1370.0	0.0007315	89.3599998951
1370.0	0.0007318	89.3910000324
1370.0	0.0007318	89.4379999638
1370.0	0.0007323	89.4849998951
1370.0	0.0007323	89.5160000324
1370.0	0.0007323	89.5629999638
1370.0	0.0007323	89.6099998951
1370.0	0.0007315	89.6410000324
1370.0	0.0007313	89.6879999638
1370.0	0.0007315	89.7190001011
1370.0	0.0007313	89.7660000324
1370.0	0.0007313	89.8129999638
1370.0	0.000731	89.8440001011
1370.0	0.0007305	89.8910000324
1370.0	0.0007305	89.9219999313
1370.0	0.0007305	89.9690001011
1370.0	0.0007305	90.0160000324
1370.0	0.0007305	90.0469999313
1370.0	0.0007305	90.0940001011
1370.0	0.000731	90.1410000324
1370.0	0.000731	90.1719999313
1370.0	0.0007305	90.2190001011
1370.0	0.0007303	90.2660000324
1380.0	0.000721	90.5160000324
1380.0	0.0007173	90.5629999638
1380.0	0.000714	90.6099998951
1380.0	0.0007113	90.6410000324
1380.0	0.0007088	90.6879999638
1380.0	0.0007073	90.7349998951
1380.0	0.000706	90.7660000324
1380.0	0.0007053	90.8129999638
1380.0	0.0007048	90.8440001011
1380.0	0.000704	90.8910000324
1380.0	0.0007038	90.9379999638
1380.0	0.0007038	90.9690001011
1380.0	0.0007035	91.0160000324
1380.0	0.0007035	91.0629999638
1380.0	0.000703	91.0940001011
1380.0	0.0007028	91.1410000324
1380.0	0.0007028	91.1719999313
1380.0	0.0007025	91.2190001011
1380.0	0.0007025	91.2660000324
1380.0	0.0007023	91.2969999313
1380.0	0.0007018	91.3440001011
1380.0	0.0007018	91.3910000324
1380.0	0.0007015	91.4219999313
1380.0	0.0007015	91.4690001011
1380.0	0.0007015	91.5
1380.0	0.0007015	91.5469999313
1380.0	0.0007018	91.5940001011
1380.0	0.0007023	91.625
1380.0	0.0007023	91.6719999313
1380.0	0.0007023	91.7190001011
1380.0	0.0007025	91.75
1380.0	0.0007028	91.7969999313
1380.0	0.000703	91.8289999962
1380.0	0.0007035	91.875
1380.0	0.0007035	91.9219999313
1380.0	0.0007035	91.9539999962
1380.0	0.000703	92.0
1390.0	0.0006935	92.2660000324
1390.0	0.0006903	92.3129999638
1390.0	0.0006875	92.3440001011
1390.0	0.000685	92.3910000324
1390.0	0.0006835	92.4379999638
1390.0	0.0006815	92.4690001011
1390.0	0.0006803	92.5160000324
1390.0	0.0006798	92.5469999313
1390.0	0.000679	92.5940001011
1390.0	0.0006788	92.6410000324
1390.0	0.0006788	92.6719999313
1390.0	0.0006788	92.7190001011
1390.0	0.0006785	92.7660000324
1390.0	0.0006785	92.7969999313
1390.0	0.0006785	92.8440001011
1390.0	0.0006785	92.875
1390.0	0.0006785	92.9219999313
1390.0	0.0006788	92.9690001011
1390.0	0.000679	93.0
1390.0	0.000679	93.0469999313
1390.0	0.000679	93.0940001011
1390.0	0.0006793	93.125
1390.0	0.000679	93.1719999313
1390.0	0.000679	93.2190001011
1390.0	0.0006788	93.25
1390.0	0.0006788	93.2969999313
1390.0	0.0006788	93.3440001011
1390.0	0.000678	93.375
1390.0	0.0006785	93.4219999313
1390.0	0.000678	93.4690001011
1390.0	0.0006785	93.5
1390.0	0.000679	93.5469999313
1390.0	0.0006793	93.5789999962
1390.0	0.0006793	93.625
1390.0	0.00068	93.6719999313
1390.0	0.00068	93.7039999962
1390.0	0.00068	93.75
1400.0	0.0006723	94.0160000324
1400.0	0.0006698	94.0629999638
1400.0	0.0006675	94.0940001011
1400.0	0.0006653	94.1410000324
1400.0	0.0006638	94.1879999638
1400.0	0.0006625	94.2190001011
1400.0	0.0006613	94.2660000324
1400.0	0.0006605	94.2969999313
1400.0	0.0006603	94.3440001011
1400.0	0.00066	94.3910000324
1400.0	0.00066	94.4219999313
1400.0	0.0006598	94.4690001011
1400.0	0.0006598	94.5160000324
1400.0	0.00066	94.5469999313
1400.0	0.00066	94.5940001011
1400.0	0.00066	94.625
1400.0	0.00066	94.6719999313
1400.0	0.0006598	94.7190001011
1400.0	0.000659	94.75
1400.0	0.0006588	94.7969999313
1400.0	0.0006588	94.8440001011
1400.0	0.0006588	94.875
1400.0	0.0006588	94.9219999313
1400.0	0.0006588	94.9690001011
1400.0	0.000659	95.0
1400.0	0.000659	95.0469999313
1400.0	0.0006593	95.0789999962
1400.0	0.00066	95.125
1400.0	0.0006598	95.1719999313
1400.0	0.0006598	95.2039999962
1400.0	0.0006598	95.25
1400.0	0.0006598	95.2969999313
1400.0	0.0006598	95.3289999962
1400.0	0.0006598	95.375
1400.0	0.000659	95.4070000648
1400.0	0.0006588	95.4539999962
1400.0	0.0006588	95.5
1410.0	0.000653	95.7660000324
1410.0	0.0006505	95.7969999313
1410.0	0.0006478	95.8440001011
1410.0	0.0006465	95.8910000324
1410.0	0.0006453	95.9379999638
1410.0	0.0006443	95.9690001011
1410.0	0.000644	96.0160000324
1410.0	0.0006438	96.0469999313
1410.0	0.000643	96.0940001011
1410.0	0.0006428	96.1410000324
1410.0	0.0006423	96.1719999313
1410.0	0.0006423	96.2190001011
1410.0	0.0006425	96.2660000324
1410.0	0.0006423	96.2969999313
1410.0	0.0006423	96.3440001011
1410.0	0.0006418	96.375
1410.0	0.0006418	96.4219999313
1410.0	0.0006423	96.4690001011
1410.0	0.0006425	96.5
1410.0	0.0006425	96.5469999313
1410.0	0.0006425	96.5940001011
1410.0	0.0006423	96.625
1410.0	0.0006418	96.6719999313
1410.0	0.0006423	96.7039999962
1410.0	0.0006418	96.75
1410.0	0.0006425	96.7969999313
1410.0	0.0006428	96.8289999962
1410.0	0.0006428	96.875
1410.0	0.000643	96.9219999313
1410.0	0.0006428	96.9539999962
1410.0	0.0006425	97.0
1410.0	0.0006428	97.0469999313
1410.0	0.0006425	97.0789999962
1410.0	0.0006423	97.125
1410.0	0.0006423	97.1570000648
1410.0	0.0006415	97.2039999962
1410.0	0.0006415	97.25
1420.0	0.0006378	97.5160000324
1420.0	0.0006363	97.5469999313
1420.0	0.0006355	97.5940001011
1420.0	0.0006343	97.6410000324
1420.0	0.000634	97.6719999313
1420.0	0.0006338	97.7190001011
1420.0	0.0006333	97.7660000324
1420.0	0.0006328	97.7969999313
1420.0	0.0006325	97.8440001011
1420.0	0.000632	97.875
1420.0	0.0006318	97.9219999313
1420.0	0.0006318	97.9690001011
1420.0	0.0006315	98.0
1420.0	0.0006315	98.0469999313
1420.0	0.0006313	98.0940001011
1420.0	0.0006313	98.125
1420.0	0.0006315	98.1719999313
1420.0	0.0006315	98.2039999962
1420.0	0.0006318	98.25
1420.0	0.0006315	98.2969999313
1420.0	0.0006315	98.3289999962
1420.0	0.0006315	98.375
1420.0	0.0006308	98.4219999313
1420.0	0.0006305	98.4539999962
1420.0	0.0006305	98.5
1420.0	0.0006303	98.5469999313
1420.0	0.0006303	98.5789999962
1420.0	0.0006308	98.625
1420.0	0.0006313	98.6719999313
1420.0	0.0006313	98.7039999962
1420.0	0.0006313	98.75
1420.0	0.0006308	98.7969999313
1420.0	0.0006305	98.8289999962
1420.0	0.0006303	98.875
1420.0	0.0006303	98.9070000648
1420.0	0.0006305	98.9539999962
1420.0	0.0006305	99.0
1430.0	0.000629	99.2660000324
1430.0	0.0006288	99.2969999313
1430.0	0.0006278	99.3440001011
1430.0	0.0006275	99.3910000324
1430.0	0.000627	99.4219999313
1430.0	0.0006268	99.4690001011
1430.0	0.0006268	99.5160000324
1430.0	0.0006263	99.5469999313
1430.0	0.0006258	99.5940001011
1430.0	0.0006255	99.625
1430.0	0.0006253	99.6719999313
1430.0	0.0006253	99.7190001011
1430.0	0.0006253	99.75
1430.0	0.0006253	99.7969999313
1430.0	0.0006253	99.8440001011
1430.0	0.0006255	99.875
1430.0	0.0006253	99.9219999313
1430.0	0.0006253	99.9539999962
1430.0	0.0006245	100.0
1430.0	0.0006245	100.046999931
1430.0	0.000625	100.078999996
1430.0	0.000625	100.125
1430.0	0.0006253	100.171999931
1430.0	0.0006255	100.203999996
1430.0	0.0006255	100.25
1430.0	0.0006258	100.282000065
1430.0	0.0006263	100.328999996
1430.0	0.0006263	100.375
1430.0	0.0006263	100.407000065
1430.0	0.0006263	100.453999996
1430.0	0.0006265	100.5
1430.0	0.0006265	100.532000065
1430.0	0.0006268	100.578999996
1430.0	0.0006268	100.609999895
1430.0	0.0006268	100.657000065
1430.0	0.0006265	100.703999996
1430.0	0.0006265	100.734999895
1440.0	0.0006268	101.0
1440.0	0.0006268	101.046999931
1440.0	0.0006275	101.094000101
1440.0	0.0006275	101.125
1440.0	0.0006275	101.171999931
1440.0	0.0006278	101.219000101
1440.0	0.000628	101.25
1440.0	0.000628	101.296999931
1440.0	0.0006283	101.328999996
1440.0	0.0006283	101.375
1440.0	0.0006283	101.421999931
1440.0	0.0006288	101.453999996
1440.0	0.0006288	101.5
1440.0	0.000629	101.546999931
1440.0	0.0006293	101.578999996
1440.0	0.000629	101.625
1440.0	0.0006288	101.671999931
1440.0	0.0006288	101.703999996
1440.0	0.0006283	101.75
1440.0	0.0006288	101.782000065
1440.0	0.0006288	101.828999996
1440.0	0.0006288	101.875
1440.0	0.0006288	101.907000065
1440.0	0.0006288	101.953999996
1440.0	0.0006288	102.0
1440.0	0.0006288	102.032000065
1440.0	0.0006288	102.078999996
1440.0	0.0006288	102.109999895
1440.0	0.0006283	102.157000065
1440.0	0.0006288	102.203999996
1440.0	0.000629	102.234999895
1440.0	0.000629	102.282000065
1440.0	0.0006293	102.328999996
1440.0	0.0006293	102.359999895
1440.0	0.0006293	102.407000065
1440.0	0.000629	102.453999996
1440.0	0.0006288	102.484999895
1450.0	0.0006308	102.75
1450.0	0.000632	102.796999931
1450.0	0.000633	102.828999996
1450.0	0.0006343	102.875
1450.0	0.000635	102.921999931
1450.0	0.0006353	102.969000101
1450.0	0.0006355	103.0
1450.0	0.0006358	103.046999931
1450.0	0.0006358	103.078999996
1450.0	0.0006365	103.125
1450.0	0.0006365	103.171999931
1450.0	0.0006368	103.203999996
1450.0	0.0006368	103.25
1450.0	0.0006368	103.296999931
1450.0	0.0006368	103.328999996
1450.0	0.0006365	103.375
1450.0	0.0006363	103.407000065
1450.0	0.0006365	103.453999996
1450.0	0.0006365	103.5
1450.0	0.0006365	103.532000065
1450.0	0.0006365	103.578999996
1450.0	0.0006365	103.625
1450.0	0.0006365	103.657000065
1450.0	0.0006365	103.703999996
1450.0	0.0006365	103.75
1450.0	0.0006365	103.782000065
1450.0	0.0006365	103.828999996
1450.0	0.0006363	103.859999895
1450.0	0.0006363	103.907000065
1450.0	0.0006358	103.953999996
1450.0	0.0006363	103.984999895
1450.0	0.0006358	104.032000065
1450.0	0.0006358	104.078999996
1450.0	0.0006358	104.109999895
1450.0	0.0006363	104.157000065
1450.0	0.0006363	104.187999964
1450.0	0.0006365	104.234999895
1460.0	0.0006403	104.5
1460.0	0.0006423	104.546999931
1460.0	0.0006435	104.578999996
1460.0	0.0006443	104.625
1460.0	0.0006453	104.671999931
1460.0	0.000646	104.703999996
1460.0	0.0006463	104.75
1460.0	0.0006465	104.796999931
1460.0	0.0006473	104.828999996
1460.0	0.0006475	104.875
1460.0	0.0006478	104.907000065
1460.0	0.0006478	104.953999996
1460.0	0.0006475	105.0
1460.0	0.0006478	105.032000065
1460.0	0.0006475	105.078999996
1460.0	0.0006475	105.125
1460.0	0.0006475	105.157000065
1460.0	0.0006475	105.203999996
1460.0	0.0006475	105.234999895
1460.0	0.0006478	105.282000065
1460.0	0.0006478	105.328999996
1460.0	0.0006478	105.359999895
1460.0	0.0006478	105.407000065
1460.0	0.0006478	105.453999996
1460.0	0.000648	105.484999895
1460.0	0.0006478	105.532000065
1460.0	0.0006478	105.578999996
1460.0	0.000648	105.609999895
1460.0	0.000648	105.657000065
1460.0	0.000648	105.687999964
1460.0	0.0006485	105.734999895
1460.0	0.0006485	105.782000065
1460.0	0.0006488	105.812999964
1460.0	0.0006488	105.859999895
1460.0	0.0006488	105.907000065
1460.0	0.000649	105.937999964
1460.0	0.000649	105.984999895
1470.0	0.0006538	106.25
1470.0	0.0006555	106.282000065
1470.0	0.0006568	106.328999996
1470.0	0.000658	106.375
1470.0	0.0006588	106.407000065
1470.0	0.0006593	106.453999996
1470.0	0.00066	106.5
1470.0	0.0006603	106.532000065
1470.0	0.0006603	106.578999996
1470.0	0.000661	106.625
1470.0	0.000661	106.657000065
1470.0	0.000661	106.703999996
1470.0	0.0006605	106.75
1470.0	0.0006603	106.782000065
1470.0	0.0006605	106.828999996
1470.0	0.0006605	106.875
1470.0	0.0006605	106.907000065
1470.0	0.0006605	106.953999996
1470.0	0.0006605	106.984999895
1470.0	0.0006605	107.032000065
1470.0	0.000661	107.078999996
1470.0	0.000661	107.109999895
1470.0	0.0006613	107.157000065
1470.0	0.000661	107.203999996
1470.0	0.0006605	107.234999895
1470.0	0.000661	107.282000065
1470.0	0.000661	107.312999964
1470.0	0.000661	107.359999895
1470.0	0.000661	107.407000065
1470.0	0.0006605	107.437999964
1470.0	0.0006605	107.484999895
1470.0	0.000661	107.532000065
1470.0	0.000661	107.562999964
1470.0	0.0006613	107.609999895
1470.0	0.000661	107.657000065
1470.0	0.0006613	107.687999964
1470.0	0.0006615	107.734999895
1480.0	0.000665	108.0
1480.0	0.0006668	108.032000065
1480.0	0.000668	108.078999996
1480.0	0.000669	108.125
1480.0	0.0006698	108.157000065
1480.0	0.0006703	108.203999996
1480.0	0.0006705	108.25
1480.0	0.000671	108.282000065
1480.0	0.0006713	108.328999996
1480.0	0.0006715	108.375
1480.0	0.0006718	108.407000065
1480.0	0.0006718	108.453999996
1480.0	0.0006723	108.484999895
1480.0	0.0006728	108.532000065
1480.0	0.0006728	108.578999996
1480.0	0.0006728	108.609999895
1480.0	0.0006728	108.657000065
1480.0	0.0006728	108.703999996
1480.0	0.000673	108.734999895
1480.0	0.0006735	108.782000065
1480.0	0.0006735	108.812999964
1480.0	0.000673	108.859999895
1480.0	0.0006728	108.907000065
1480.0	0.0006725	108.937999964
1480.0	0.0006725	108.984999895
1480.0	0.0006725	109.032000065
1480.0	0.0006728	109.062999964
1480.0	0.000673	109.109999895
1480.0	0.0006728	109.157000065
1480.0	0.0006725	109.187999964
1480.0	0.0006725	109.234999895
1480.0	0.0006723	109.282000065
1480.0	0.0006723	109.312999964
1480.0	0.0006723	109.359999895
1480.0	0.0006723	109.407000065
1480.0	0.0006718	109.437999964
1480.0	0.0006713	109.484999895
1490.0	0.000675	109.75
1490.0	0.0006763	109.796999931
1490.0	0.0006773	109.828999996
1490.0	0.0006788	109.875
1490.0	0.0006793	109.921999931
1490.0	0.0006803	109.953999996
1490.0	0.000681	110.0
1490.0	0.0006813	110.032000065
1490.0	0.0006815	110.078999996
1490.0	0.0006818	110.125
1490.0	0.0006823	110.157000065
1490.0	0.0006823	110.203999996
1490.0	0.0006818	110.25
1490.0	0.0006818	110.282000065
1490.0	0.0006818	110.328999996
1490.0	0.0006818	110.375
1490.0	0.0006818	110.407000065
1490.0	0.0006818	110.453999996
1490.0	0.0006818	110.484999895
1490.0	0.0006815	110.532000065
1490.0	0.0006813	110.578999996
1490.0	0.000681	110.609999895
1490.0	0.000681	110.657000065
1490.0	0.0006813	110.703999996
1490.0	0.000681	110.734999895
1490.0	0.000681	110.782000065
1490.0	0.000681	110.812999964
1490.0	0.0006813	110.859999895
1490.0	0.0006815	110.907000065
1490.0	0.0006815	110.937999964
1490.0	0.0006818	110.984999895
1490.0	0.0006818	111.032000065
1490.0	0.0006823	111.062999964
1490.0	0.0006825	111.109999895
1490.0	0.0006825	111.141000032
1490.0	0.0006828	111.187999964
1490.0	0.0006828	111.234999895
1500.0	0.000685	111.5
1500.0	0.000686	111.546999931
1500.0	0.0006865	111.578999996
1500.0	0.0006873	111.625
1500.0	0.0006878	111.671999931
1500.0	0.0006885	111.703999996
1500.0	0.000689	111.75
1500.0	0.000689	111.782000065
1500.0	0.000689	111.828999996
1500.0	0.000689	111.875
1500.0	0.000689	111.907000065
1500.0	0.000689	111.953999996
1500.0	0.0006893	112.0
1500.0	0.0006898	112.032000065
1500.0	0.0006898	112.078999996
1500.0	0.0006898	112.109999895
1500.0	0.0006893	112.157000065
1500.0	0.000689	112.203999996
1500.0	0.0006888	112.234999895
1500.0	0.0006885	112.282000065
1500.0	0.0006885	112.328999996
1500.0	0.0006885	112.359999895
1500.0	0.0006888	112.407000065
1500.0	0.000689	112.453999996
1500.0	0.000689	112.484999895
1500.0	0.0006893	112.532000065
1500.0	0.0006903	112.562999964
1500.0	0.0006905	112.609999895
1500.0	0.0006903	112.657000065
1500.0	0.0006903	112.687999964
1500.0	0.00069	112.734999895
1500.0	0.0006898	112.782000065
1500.0	0.0006898	112.812999964
1500.0	0.000689	112.859999895
1500.0	0.000689	112.891000032
1500.0	0.000689	112.937999964
1500.0	0.0006888	112.984999895
1510.0	0.0006915	113.25
1510.0	0.0006923	113.296999931
1510.0	0.0006928	113.328999996
1510.0	0.000693	113.375
1510.0	0.000693	113.421999931
1510.0	0.0006935	113.453999996
1510.0	0.0006938	113.5
1510.0	0.0006938	113.532000065
1510.0	0.0006943	113.578999996
1510.0	0.0006943	113.625
1510.0	0.0006948	113.657000065
1510.0	0.0006948	113.703999996
1510.0	0.0006948	113.75
1510.0	0.000694	113.782000065
1510.0	0.000694	113.828999996
1510.0	0.0006938	113.875
1510.0	0.0006943	113.907000065
1510.0	0.0006948	113.953999996
1510.0	0.000695	113.984999895
1510.0	0.000695	114.032000065
1510.0	0.000695	114.078999996
1510.0	0.000695	114.109999895
1510.0	0.000695	114.157000065
1510.0	0.0006943	114.203999996
1510.0	0.0006943	114.234999895
1510.0	0.0006948	114.282000065
1510.0	0.0006948	114.312999964
1510.0	0.000695	114.359999895
1510.0	0.000695	114.407000065
1510.0	0.0006948	114.437999964
1510.0	0.0006948	114.484999895
1510.0	0.0006948	114.532000065
1510.0	0.0006948	114.562999964
1510.0	0.000695	114.609999895
1510.0	0.000695	114.641000032
1510.0	0.0006953	114.687999964
1510.0	0.0006953	114.734999895
1520.0	0.000695	115.0
1520.0	0.000695	115.046999931
1520.0	0.000695	115.094000101
1520.0	0.0006948	115.125
1520.0	0.0006943	115.171999931
1520.0	0.0006943	115.203999996
1520.0	0.0006943	115.25
1520.0	0.0006943	115.296999931
1520.0	0.0006943	115.328999996
1520.0	0.0006948	115.375
1520.0	0.0006948	115.421999931
1520.0	0.0006948	115.453999996
1520.0	0.0006948	115.5
1520.0	0.0006948	115.532000065
1520.0	0.0006948	115.578999996
1520.0	0.0006948	115.625
1520.0	0.0006943	115.657000065
1520.0	0.0006943	115.703999996
1520.0	0.0006948	115.75
1520.0	0.0006943	115.782000065
1520.0	0.0006948	115.828999996
1520.0	0.0006943	115.875
1520.0	0.0006943	115.907000065
1520.0	0.0006943	115.953999996
1520.0	0.0006943	115.984999895
1520.0	0.0006948	116.032000065
1520.0	0.0006943	116.078999996
1520.0	0.0006943	116.109999895
1520.0	0.000694	116.157000065
1520.0	0.0006943	116.203999996
1520.0	0.000694	116.234999895
1520.0	0.0006943	116.282000065
1520.0	0.0006943	116.312999964
1520.0	0.0006943	116.359999895
1520.0	0.0006943	116.407000065
1520.0	0.000694	116.437999964
1520.0	0.000694	116.484999895
1530.0	0.000693	116.75
1530.0	0.0006928	116.796999931
1530.0	0.0006928	116.844000101
1530.0	0.0006928	116.875
1530.0	0.0006925	116.921999931
1530.0	0.0006923	116.953999996
1530.0	0.0006918	117.0
1530.0	0.0006915	117.046999931
1530.0	0.0006915	117.078999996
1530.0	0.0006915	117.125
1530.0	0.0006915	117.171999931
1530.0	0.0006913	117.203999996
1530.0	0.000691	117.25
1530.0	0.000691	117.282000065
1530.0	0.0006905	117.328999996
1530.0	0.0006905	117.375
1530.0	0.000691	117.407000065
1530.0	0.0006905	117.453999996
1530.0	0.0006903	117.5
1530.0	0.0006903	117.532000065
1530.0	0.0006905	117.578999996
1530.0	0.0006905	117.609999895
1530.0	0.0006905	117.657000065
1530.0	0.00069	117.703999996
1530.0	0.0006898	117.734999895
1530.0	0.0006898	117.782000065
1530.0	0.0006893	117.828999996
1530.0	0.0006898	117.859999895
1530.0	0.0006898	117.907000065
1530.0	0.0006898	117.953999996
1530.0	0.0006898	117.984999895
1530.0	0.00069	118.032000065
1530.0	0.00069	118.062999964
1530.0	0.0006903	118.109999895
1530.0	0.0006903	118.157000065
1530.0	0.0006903	118.187999964
1530.0	0.0006903	118.234999895
1540.0	0.0006888	118.5
1540.0	0.000688	118.546999931
1540.0	0.0006873	118.594000101
1540.0	0.0006863	118.625
1540.0	0.0006855	118.671999931
1540.0	0.0006853	118.719000101
1540.0	0.0006853	118.75
1540.0	0.000685	118.796999931
1540.0	0.0006848	118.844000101
1540.0	0.0006843	118.875
1540.0	0.000684	118.921999931
1540.0	0.0006843	118.953999996
1540.0	0.0006848	119.0
1540.0	0.000684	119.046999931
1540.0	0.000684	119.078999996
1540.0	0.0006838	119.125
1540.0	0.0006838	119.171999931
1540.0	0.0006835	119.203999996
1540.0	0.0006835	119.25
1540.0	0.000683	119.282000065
1540.0	0.000683	119.328999996
1540.0	0.0006835	119.375
1540.0	0.0006835	119.407000065
1540.0	0.0006838	119.453999996
1540.0	0.0006838	119.5
1540.0	0.000684	119.532000065
1540.0	0.000684	119.578999996
1540.0	0.0006838	119.625
1540.0	0.0006838	119.657000065
1540.0	0.0006838	119.703999996
1540.0	0.000684	119.734999895
1540.0	0.000684	119.782000065
1540.0	0.000684	119.828999996
1540.0	0.0006843	119.859999895
1540.0	0.0006843	119.907000065
1540.0	0.0006843	119.953999996
1540.0	0.0006843	119.984999895
1550.0	0.000681	120.25
1550.0	0.0006798	120.296999931
1550.0	0.0006785	120.344000101
1550.0	0.0006775	120.375
1550.0	0.0006765	120.421999931
1550.0	0.0006763	120.469000101
1550.0	0.0006755	120.5
1550.0	0.000675	120.546999931
1550.0	0.0006748	120.594000101
1550.0	0.0006743	120.625
1550.0	0.0006743	120.671999931
1550.0	0.0006743	120.703999996
1550.0	0.0006748	120.75
1550.0	0.0006748	120.796999931
1550.0	0.0006748	120.828999996
1550.0	0.0006748	120.875
1550.0	0.0006748	120.921999931
1550.0	0.0006748	120.953999996
1550.0	0.0006743	121.0
1550.0	0.0006743	121.032000065
1550.0	0.0006748	121.078999996
1550.0	0.000675	121.125
1550.0	0.0006753	121.157000065
1550.0	0.0006753	121.203999996
1550.0	0.0006753	121.25
1550.0	0.0006753	121.282000065
1550.0	0.0006753	121.328999996
1550.0	0.0006753	121.359999895
1550.0	0.000675	121.407000065
1550.0	0.000675	121.453999996
1550.0	0.0006753	121.484999895
1550.0	0.000676	121.532000065
1550.0	0.000676	121.578999996
1550.0	0.0006755	121.609999895
1550.0	0.0006753	121.657000065
1550.0	0.0006753	121.703999996
1550.0	0.000675	121.734999895
1560.0	0.00067	122.016000032
1560.0	0.000668	122.046999931
1560.0	0.0006665	122.094000101
1560.0	0.0006653	122.141000032
1560.0	0.0006643	122.171999931
1560.0	0.000663	122.219000101
1560.0	0.0006625	122.25
1560.0	0.0006623	122.296999931
1560.0	0.0006613	122.344000101
1560.0	0.000661	122.375
1560.0	0.000661	122.421999931
1560.0	0.000661	122.469000101
1560.0	0.0006613	122.5
1560.0	0.000661	122.546999931
1560.0	0.000661	122.578999996
1560.0	0.000661	122.625
1560.0	0.000661	122.671999931
1560.0	0.000661	122.703999996
1560.0	0.000661	122.75
1560.0	0.000661	122.796999931
1560.0	0.0006613	122.828999996
1560.0	0.0006613	122.875
1560.0	0.0006613	122.921999931
1560.0	0.000661	122.953999996
1560.0	0.0006605	123.0
1560.0	0.0006613	123.046999931
1560.0	0.0006613	123.078999996
1560.0	0.0006613	123.125
1560.0	0.000661	123.171999931
1560.0	0.0006605	123.203999996
1560.0	0.0006605	123.25
1560.0	0.000661	123.282000065
1560.0	0.000661	123.328999996
1560.0	0.0006613	123.375
1560.0	0.000661	123.407000065
1560.0	0.000661	123.453999996
1560.0	0.000661	123.5
1570.0	0.000654	123.766000032
1570.0	0.0006515	123.812999964
1570.0	0.000649	123.844000101
1570.0	0.0006473	123.891000032
1570.0	0.000646	123.937999964
1570.0	0.000645	123.969000101
1570.0	0.000644	124.016000032
1570.0	0.0006435	124.062999964
1570.0	0.0006428	124.094000101
1570.0	0.0006425	124.141000032
1570.0	0.0006425	124.171999931
1570.0	0.0006423	124.219000101
1570.0	0.0006418	124.266000032
1570.0	0.0006415	124.296999931
1570.0	0.000641	124.344000101
1570.0	0.0006405	124.391000032
1570.0	0.000641	124.421999931
1570.0	0.0006405	124.469000101
1570.0	0.0006405	124.516000032
1570.0	0.000641	124.546999931
1570.0	0.000641	124.594000101
1570.0	0.0006413	124.625
1570.0	0.000641	124.671999931
1570.0	0.000641	124.719000101
1570.0	0.0006413	124.766000032
1570.0	0.000641	124.796999931
1570.0	0.0006413	124.844000101
1570.0	0.0006413	124.875
1570.0	0.000641	124.921999931
1570.0	0.000641	124.969000101
1570.0	0.0006405	125.0
1570.0	0.0006405	125.046999931
1570.0	0.0006413	125.094000101
1570.0	0.0006405	125.125
1570.0	0.0006403	125.171999931
1570.0	0.0006403	125.219000101
1580.0	0.0006325	125.484999895
1580.0	0.0006295	125.532000065
1580.0	0.0006268	125.562999964
1580.0	0.0006245	125.609999895
1580.0	0.0006233	125.657000065
1580.0	0.0006215	125.687999964
1580.0	0.0006203	125.734999895
1580.0	0.0006193	125.782000065
1580.0	0.0006188	125.812999964
1580.0	0.0006183	125.859999895
1580.0	0.000618	125.891000032
1580.0	0.0006175	125.937999964
1580.0	0.0006175	125.984999895
1580.0	0.0006175	126.016000032
1580.0	0.0006175	126.062999964
1580.0	0.0006175	126.109999895
1580.0	0.0006175	126.141000032
1580.0	0.0006175	126.187999964
1580.0	0.0006168	126.219000101
1580.0	0.0006168	126.266000032
1580.0	0.0006163	126.312999964
1580.0	0.0006163	126.344000101
1580.0	0.0006158	126.391000032
1580.0	0.0006163	126.437999964
1580.0	0.0006158	126.469000101
1580.0	0.0006158	126.516000032
1580.0	0.0006163	126.546999931
1580.0	0.0006168	126.594000101
1580.0	0.0006168	126.641000032
1580.0	0.0006168	126.671999931
1580.0	0.0006168	126.719000101
1580.0	0.0006168	126.766000032
1580.0	0.0006168	126.796999931
1580.0	0.0006165	126.844000101
1580.0	0.0006168	126.875
1580.0	0.0006165	126.921999931
1580.0	0.0006168	126.969000101
1590.0	0.0006065	127.234999895
1590.0	0.0006028	127.282000065
1590.0	0.0005995	127.328999996
1590.0	0.0005968	127.359999895
1590.0	0.0005945	127.407000065
1590.0	0.000593	127.453999996
1590.0	0.0005918	127.484999895
1590.0	0.0005905	127.532000065
1590.0	0.00059	127.562999964
1590.0	0.0005893	127.609999895
1590.0	0.000589	127.657000065
1590.0	0.0005888	127.687999964
1590.0	0.0005888	127.734999895
1590.0	0.000589	127.782000065
1590.0	0.0005893	127.812999964
1590.0	0.0005893	127.859999895
1590.0	0.00059	127.891000032
1590.0	0.00059	127.937999964
1590.0	0.00059	127.984999895
1590.0	0.00059	128.016000032
1590.0	0.00059	128.062999964
1590.0	0.00059	128.109999895
1590.0	0.0005895	128.141000032
1590.0	0.0005893	128.187999964
1590.0	0.0005893	128.219000101
1590.0	0.0005893	128.266000032
1590.0	0.0005893	128.312999964
1590.0	0.0005893	128.344000101
1590.0	0.0005893	128.391000032
1590.0	0.000589	128.437999964
1590.0	0.0005888	128.469000101
1590.0	0.0005888	128.516000032
1590.0	0.0005888	128.546999931
1590.0	0.0005893	128.594000101
1590.0	0.0005893	128.641000032
1590.0	0.0005893	128.671999931
1590.0	0.0005895	128.719000101
1600.0	0.000577	129.0
1600.0	0.0005728	129.032000065
1600.0	0.000569	129.078999996
1600.0	0.0005663	129.125
1600.0	0.000564	129.157000065
1600.0	0.0005625	129.203999996
1600.0	0.0005613	129.25
1600.0	0.0005603	129.282000065
1600.0	0.0005593	129.328999996
1600.0	0.0005588	129.375
1600.0	0.000558	129.407000065
1600.0	0.0005575	129.453999996
1600.0	0.0005575	129.484999895
1600.0	0.000557	129.532000065
1600.0	0.0005575	129.578999996
1600.0	0.0005575	129.609999895
1600.0	0.0005575	129.657000065
1600.0	0.0005575	129.703999996
1600.0	0.000557	129.734999895
1600.0	0.000557	129.782000065
1600.0	0.0005575	129.812999964
1600.0	0.0005575	129.859999895
1600.0	0.0005578	129.907000065
1600.0	0.0005578	129.937999964
1600.0	0.0005578	129.984999895
1600.0	0.0005575	130.032000065
1600.0	0.0005578	130.062999964
1600.0	0.0005575	130.109999895
1600.0	0.0005575	130.157000065
1600.0	0.0005578	130.187999964
1600.0	0.0005578	130.234999895
1600.0	0.000558	130.282000065
1600.0	0.000558	130.312999964
1600.0	0.0005583	130.359999895
1600.0	0.000558	130.407000065
1600.0	0.000558	130.437999964
1600.0	0.0005578	130.484999895
1610.0	0.0005443	130.766000032
1610.0	0.0005393	130.796999931
1610.0	0.0005358	130.844000101
1610.0	0.0005325	130.891000032
1610.0	0.0005295	130.921999931
1610.0	0.000527	130.969000101
1610.0	0.0005255	131.0
1610.0	0.0005245	131.046999931
1610.0	0.0005238	131.094000101
1610.0	0.000523	131.125
1610.0	0.0005225	131.171999931
1610.0	0.0005225	131.219000101
1610.0	0.000522	131.25
1610.0	0.000522	131.296999931
1610.0	0.0005218	131.328999996
1610.0	0.0005218	131.375
1610.0	0.0005218	131.421999931
1610.0	0.0005215	131.453999996
1610.0	0.0005218	131.5
1610.0	0.0005218	131.546999931
1610.0	0.0005218	131.578999996
1610.0	0.0005218	131.625
1610.0	0.0005218	131.657000065
1610.0	0.0005215	131.703999996
1610.0	0.0005215	131.75
1610.0	0.0005213	131.782000065
1610.0	0.0005218	131.828999996
1610.0	0.0005218	131.875
1610.0	0.0005218	131.907000065
1610.0	0.0005218	131.953999996
1610.0	0.0005215	132.0
1610.0	0.0005208	132.032000065
1610.0	0.0005205	132.078999996
1610.0	0.0005203	132.125
1610.0	0.0005203	132.157000065
1610.0	0.0005203	132.203999996
1610.0	0.0005203	132.25
1620.0	0.0005063	132.516000032
1620.0	0.0005013	132.562999964
1620.0	0.0004965	132.609999895
1620.0	0.0004928	132.641000032
1620.0	0.0004895	132.687999964
1620.0	0.0004875	132.734999895
1620.0	0.0004858	132.766000032
1620.0	0.0004843	132.812999964
1620.0	0.0004833	132.844000101
1620.0	0.0004825	132.891000032
1620.0	0.0004818	132.937999964
1620.0	0.0004818	132.969000101
1620.0	0.0004815	133.016000032
1620.0	0.0004813	133.062999964
1620.0	0.0004815	133.094000101
1620.0	0.0004813	133.141000032
1620.0	0.0004815	133.187999964
1620.0	0.0004818	133.219000101
1620.0	0.0004815	133.266000032
1620.0	0.0004815	133.312999964
1620.0	0.0004813	133.344000101
1620.0	0.0004808	133.391000032
1620.0	0.0004808	133.437999964
1620.0	0.0004808	133.469000101
1620.0	0.0004813	133.516000032
1620.0	0.0004813	133.562999964
1620.0	0.0004813	133.594000101
1620.0	0.0004815	133.641000032
1620.0	0.0004813	133.687999964
1620.0	0.0004813	133.719000101
1620.0	0.0004815	133.766000032
1620.0	0.0004815	133.796999931
1620.0	0.0004815	133.844000101
1620.0	0.0004815	133.891000032
1620.0	0.0004815	133.921999931
1620.0	0.0004815	133.969000101
1620.0	0.0004815	134.016000032
1630.0	0.0004655	134.282000065
1630.0	0.0004605	134.328999996
1630.0	0.0004558	134.375
1630.0	0.000452	134.407000065
1630.0	0.0004493	134.453999996
1630.0	0.000447	134.5
1630.0	0.0004458	134.532000065
1630.0	0.0004445	134.578999996
1630.0	0.0004438	134.625
1630.0	0.000443	134.657000065
1630.0	0.000443	134.703999996
1630.0	0.0004428	134.75
1630.0	0.0004425	134.782000065
1630.0	0.000442	134.828999996
1630.0	0.000442	134.859999895
1630.0	0.0004418	134.907000065
1630.0	0.0004415	134.953999996
1630.0	0.0004415	134.984999895
1630.0	0.0004413	135.032000065
1630.0	0.0004408	135.078999996
1630.0	0.0004413	135.109999895
1630.0	0.0004415	135.157000065
1630.0	0.0004418	135.203999996
1630.0	0.0004418	135.234999895
1630.0	0.0004418	135.282000065
1630.0	0.0004418	135.312999964
1630.0	0.000442	135.359999895
1630.0	0.0004418	135.407000065
1630.0	0.000442	135.437999964
1630.0	0.000442	135.484999895
1630.0	0.0004425	135.532000065
1630.0	0.0004425	135.562999964
1630.0	0.000442	135.609999895
1630.0	0.000442	135.641000032
1630.0	0.000442	135.687999964
1630.0	0.000442	135.734999895
1630.0	0.000442	135.766000032
1640.0	0.0004258	136.046999931
1640.0	0.0004205	136.094000101
1640.0	0.0004158	136.141000032
1640.0	0.0004118	136.171999931
1640.0	0.000409	136.219000101
1640.0	0.0004068	136.266000032
1640.0	0.0004055	136.296999931
1640.0	0.0004045	136.344000101
1640.0	0.0004038	136.375
1640.0	0.000403	136.421999931
1640.0	0.0004025	136.469000101
1640.0	0.0004018	136.5
1640.0	0.0004015	136.546999931
1640.0	0.0004013	136.594000101
1640.0	0.0004013	136.625
1640.0	0.0004015	136.671999931
1640.0	0.0004015	136.719000101
1640.0	0.0004013	136.75
1640.0	0.0004013	136.796999931
1640.0	0.0004015	136.844000101
1640.0	0.0004013	136.875
1640.0	0.0004013	136.921999931
1640.0	0.0004008	136.969000101
1640.0	0.0004008	137.0
1640.0	0.0004008	137.046999931
1640.0	0.0004008	137.078999996
1640.0	0.0004008	137.125
1640.0	0.0004008	137.171999931
1640.0	0.0004005	137.203999996
1640.0	0.0004008	137.25
1640.0	0.0004008	137.296999931
1640.0	0.0004008	137.328999996
1640.0	0.0004015	137.375
1640.0	0.0004015	137.407000065
1640.0	0.0004018	137.453999996
1640.0	0.000402	137.5
1640.0	0.0004018	137.532000065
1650.0	0.0003855	137.828999996
1650.0	0.00038	137.859999895
1650.0	0.0003755	137.907000065
1650.0	0.0003725	137.937999964
1650.0	0.0003695	137.984999895
1650.0	0.0003675	138.032000065
1650.0	0.0003655	138.062999964
1650.0	0.000364	138.109999895
1650.0	0.0003633	138.157000065
1650.0	0.000363	138.187999964
1650.0	0.0003625	138.234999895
1650.0	0.0003625	138.266000032
1650.0	0.000362	138.312999964
1650.0	0.0003618	138.359999895
1650.0	0.0003618	138.391000032
1650.0	0.0003618	138.437999964
1650.0	0.000362	138.484999895
1650.0	0.000362	138.516000032
1650.0	0.000362	138.562999964
1650.0	0.000362	138.594000101
1650.0	0.000362	138.641000032
1650.0	0.000362	138.687999964
1650.0	0.0003625	138.719000101
1650.0	0.000362	138.766000032
1650.0	0.0003618	138.812999964
1650.0	0.0003615	138.844000101
1650.0	0.0003613	138.891000032
1650.0	0.0003613	138.921999931
1650.0	0.0003615	138.969000101
1650.0	0.0003613	139.016000032
1650.0	0.0003613	139.046999931
1650.0	0.0003613	139.094000101
1650.0	0.0003613	139.141000032
1650.0	0.0003615	139.171999931
1650.0	0.0003613	139.219000101
1650.0	0.0003613	139.266000032
1650.0	0.0003613	139.296999931
1660.0	0.0003465	139.594000101
1660.0	0.0003415	139.625
1660.0	0.0003368	139.671999931
1660.0	0.000333	139.719000101
1660.0	0.0003305	139.75
1660.0	0.0003283	139.796999931
1660.0	0.0003268	139.844000101
1660.0	0.0003255	139.875
1660.0	0.000325	139.921999931
1660.0	0.0003245	139.953999996
1660.0	0.0003245	140.0
1660.0	0.000324	140.046999931
1660.0	0.0003233	140.094000101
1660.0	0.000323	140.125
1660.0	0.0003228	140.171999931
1660.0	0.0003225	140.203999996
1660.0	0.0003225	140.25
1660.0	0.0003225	140.296999931
1660.0	0.0003228	140.328999996
1660.0	0.0003225	140.375
1660.0	0.0003228	140.421999931
1660.0	0.000323	140.453999996
1660.0	0.0003228	140.5
1660.0	0.0003228	140.546999931
1660.0	0.0003225	140.578999996
1660.0	0.000322	140.625
1660.0	0.0003218	140.657000065
1660.0	0.0003218	140.703999996
1660.0	0.0003218	140.75
1660.0	0.0003215	140.782000065
1660.0	0.0003215	140.828999996
1660.0	0.0003215	140.875
1660.0	0.0003215	140.907000065
1660.0	0.0003215	140.953999996
1660.0	0.0003215	140.984999895
1660.0	0.0003215	141.032000065
1660.0	0.0003215	141.078999996
1670.0	0.000308	141.359999895
1670.0	0.0003038	141.391000032
1670.0	0.0003	141.437999964
1670.0	0.0002968	141.484999895
1670.0	0.0002945	141.516000032
1670.0	0.0002928	141.562999964
1670.0	0.0002908	141.609999895
1670.0	0.00029	141.641000032
1670.0	0.0002893	141.687999964
1670.0	0.0002888	141.734999895
1670.0	0.0002883	141.766000032
1670.0	0.0002878	141.812999964
1670.0	0.0002878	141.844000101
1670.0	0.0002878	141.891000032
1670.0	0.0002875	141.937999964
1670.0	0.0002878	141.969000101
1670.0	0.000288	142.016000032
1670.0	0.0002878	142.046999931
1670.0	0.0002878	142.094000101
1670.0	0.000288	142.141000032
1670.0	0.0002883	142.171999931
1670.0	0.0002888	142.219000101
1670.0	0.0002883	142.266000032
1670.0	0.000288	142.296999931
1670.0	0.000288	142.344000101
1670.0	0.0002878	142.391000032
1670.0	0.0002875	142.421999931
1670.0	0.0002875	142.469000101
1670.0	0.0002875	142.5
1670.0	0.0002875	142.546999931
1670.0	0.0002875	142.594000101
1670.0	0.0002878	142.625
1670.0	0.000288	142.671999931
1670.0	0.000288	142.719000101
1670.0	0.000288	142.75
1670.0	0.0002883	142.796999931
1670.0	0.0002883	142.828999996
1680.0	0.0002758	143.125
1680.0	0.0002715	143.157000065
1680.0	0.0002678	143.203999996
1680.0	0.0002655	143.234999895
1680.0	0.0002633	143.282000065
1680.0	0.000262	143.328999996
1680.0	0.0002608	143.359999895
1680.0	0.0002603	143.407000065
1680.0	0.00026	143.453999996
1680.0	0.0002595	143.484999895
1680.0	0.0002593	143.532000065
1680.0	0.0002588	143.578999996
1680.0	0.0002583	143.609999895
1680.0	0.0002583	143.657000065
1680.0	0.0002583	143.687999964
1680.0	0.0002583	143.734999895
1680.0	0.0002583	143.782000065
1680.0	0.000258	143.812999964
1680.0	0.0002578	143.859999895
1680.0	0.0002578	143.907000065
1680.0	0.0002575	143.937999964
1680.0	0.0002575	143.984999895
1680.0	0.0002578	144.016000032
1680.0	0.0002578	144.062999964
1680.0	0.0002578	144.109999895
1680.0	0.0002578	144.141000032
1680.0	0.0002575	144.187999964
1680.0	0.0002578	144.234999895
1680.0	0.0002578	144.266000032
1680.0	0.0002575	144.312999964
1680.0	0.0002575	144.344000101
1680.0	0.0002578	144.391000032
1680.0	0.000258	144.437999964
1680.0	0.0002583	144.469000101
1680.0	0.0002583	144.516000032
1680.0	0.0002583	144.562999964
1680.0	0.000258	144.594000101
1690.0	0.0002468	144.891000032
1690.0	0.0002433	144.921999931
1690.0	0.00024	144.969000101
1690.0	0.0002378	145.0
1690.0	0.0002363	145.046999931
1690.0	0.0002345	145.094000101
1690.0	0.0002338	145.125
1690.0	0.000233	145.171999931
1690.0	0.0002325	145.219000101
1690.0	0.000232	145.25
1690.0	0.0002313	145.296999931
1690.0	0.0002308	145.344000101
1690.0	0.0002308	145.375
1690.0	0.0002305	145.421999931
1690.0	0.0002305	145.453999996
1690.0	0.0002305	145.5
1690.0	0.0002305	145.546999931
1690.0	0.0002308	145.578999996
1690.0	0.0002308	145.625
1690.0	0.0002308	145.671999931
1690.0	0.0002308	145.703999996
1690.0	0.0002303	145.75
1690.0	0.00023	145.782000065
1690.0	0.00023	145.828999996
1690.0	0.0002303	145.875
1690.0	0.0002305	145.907000065
1690.0	0.0002308	145.953999996
1690.0	0.0002308	146.0
1690.0	0.0002313	146.032000065
1690.0	0.0002315	146.078999996
1690.0	0.0002313	146.109999895
1690.0	0.0002313	146.157000065
1690.0	0.0002313	146.203999996
1690.0	0.0002308	146.234999895
1690.0	0.0002305	146.282000065
1690.0	0.0002303	146.328999996
1690.0	0.0002305	146.359999895
1700.0	0.00022	146.657000065
1700.0	0.0002168	146.687999964
1700.0	0.000214	146.734999895
1700.0	0.0002118	146.782000065
1700.0	0.00021	146.812999964
1700.0	0.0002088	146.859999895
1700.0	0.0002075	146.891000032
1700.0	0.0002068	146.937999964
1700.0	0.0002068	146.984999895
1700.0	0.0002065	147.016000032
1700.0	0.0002065	147.062999964
1700.0	0.0002065	147.109999895
1700.0	0.0002065	147.141000032
1700.0	0.0002065	147.187999964
1700.0	0.0002063	147.234999895
1700.0	0.0002058	147.266000032
1700.0	0.0002058	147.312999964
1700.0	0.0002055	147.344000101
1700.0	0.0002055	147.391000032
1700.0	0.0002053	147.437999964
1700.0	0.000205	147.469000101
1700.0	0.000205	147.516000032
1700.0	0.0002053	147.546999931
1700.0	0.0002053	147.594000101
1700.0	0.0002055	147.641000032
1700.0	0.0002058	147.671999931
1700.0	0.0002063	147.719000101
1700.0	0.0002058	147.766000032
1700.0	0.0002058	147.796999931
1700.0	0.0002058	147.844000101
1700.0	0.0002058	147.875
1700.0	0.0002058	147.921999931
1700.0	0.0002063	147.969000101
1700.0	0.0002063	148.0
1700.0	0.0002058	148.046999931
1700.0	0.0002058	148.094000101
1700.0	0.0002058	148.125
1710.0	0.0001968	148.421999931
1710.0	0.000194	148.453999996
1710.0	0.0001918	148.5
1710.0	0.0001895	148.546999931
1710.0	0.000188	148.578999996
1710.0	0.000187	148.625
1710.0	0.0001863	148.657000065
1710.0	0.0001855	148.703999996
1710.0	0.000185	148.75
1710.0	0.0001843	148.782000065
1710.0	0.0001838	148.828999996
1710.0	0.0001838	148.875
1710.0	0.0001838	148.907000065
1710.0	0.0001833	148.953999996
1710.0	0.0001833	149.0
1710.0	0.0001833	149.032000065
1710.0	0.0001838	149.078999996
1710.0	0.000184	149.109999895
1710.0	0.0001838	149.157000065
1710.0	0.0001838	149.203999996
1710.0	0.000184	149.234999895
1710.0	0.0001838	149.282000065
1710.0	0.000184	149.328999996
1710.0	0.000184	149.359999895
1710.0	0.0001843	149.407000065
1710.0	0.0001843	149.437999964
1710.0	0.000184	149.484999895
1710.0	0.0001838	149.532000065
1710.0	0.0001838	149.562999964
1710.0	0.0001833	149.609999895
1710.0	0.000183	149.657000065
1710.0	0.000183	149.687999964
1710.0	0.000183	149.734999895
1710.0	0.000183	149.766000032
1710.0	0.0001833	149.812999964
1710.0	0.0001838	149.859999895
1710.0	0.0001838	149.891000032
1720.0	0.0001763	150.187999964
1720.0	0.0001738	150.219000101
1720.0	0.0001715	150.266000032
1720.0	0.0001695	150.312999964
1720.0	0.0001688	150.344000101
1720.0	0.0001678	150.391000032
1720.0	0.000167	150.421999931
1720.0	0.0001668	150.469000101
1720.0	0.0001663	150.516000032
1720.0	0.0001663	150.546999931
1720.0	0.0001663	150.594000101
1720.0	0.0001658	150.641000032
1720.0	0.0001655	150.671999931
1720.0	0.0001653	150.719000101
1720.0	0.000165	150.766000032
1720.0	0.000165	150.796999931
1720.0	0.0001645	150.844000101
1720.0	0.000165	150.875
1720.0	0.0001653	150.921999931
1720.0	0.0001655	150.969000101
1720.0	0.0001658	151.0
1720.0	0.0001658	151.046999931
1720.0	0.0001658	151.094000101
1720.0	0.0001655	151.125
1720.0	0.0001655	151.171999931
1720.0	0.0001655	151.219000101
1720.0	0.0001653	151.25
1720.0	0.0001653	151.296999931
1720.0	0.0001653	151.344000101
1720.0	0.0001653	151.375
1720.0	0.0001653	151.421999931
1720.0	0.0001653	151.453999996
1720.0	0.0001655	151.5
1720.0	0.0001655	151.546999931
1720.0	0.0001658	151.578999996
1720.0	0.0001658	151.625
1720.0	0.0001658	151.671999931
1730.0	0.0001588	151.953999996
1730.0	0.0001563	152.0
1730.0	0.0001545	152.032000065
1730.0	0.0001533	152.078999996
1730.0	0.0001525	152.125
1730.0	0.0001518	152.157000065
1730.0	0.0001513	152.203999996
1730.0	0.0001503	152.234999895
1730.0	0.00015	152.282000065
1730.0	0.0001495	152.328999996
1730.0	0.0001493	152.359999895
1730.0	0.0001493	152.407000065
1730.0	0.0001493	152.453999996
1730.0	0.000149	152.484999895
1730.0	0.000149	152.532000065
1730.0	0.0001493	152.562999964
1730.0	0.0001495	152.609999895
1730.0	0.0001495	152.657000065
1730.0	0.0001495	152.687999964
1730.0	0.00015	152.734999895
1730.0	0.00015	152.782000065
1730.0	0.0001495	152.812999964
1730.0	0.0001495	152.859999895
1730.0	0.0001493	152.891000032
1730.0	0.0001495	152.937999964
1730.0	0.00015	152.984999895
1730.0	0.0001503	153.016000032
1730.0	0.0001503	153.062999964
1730.0	0.00015	153.109999895
1730.0	0.00015	153.141000032
1730.0	0.00015	153.187999964
1730.0	0.0001495	153.234999895
1730.0	0.00015	153.266000032
1730.0	0.00015	153.312999964
1730.0	0.0001495	153.359999895
1730.0	0.00015	153.391000032
1730.0	0.0001495	153.437999964
1740.0	0.0001443	153.734999895
1740.0	0.0001418	153.766000032
1740.0	0.00014	153.812999964
1740.0	0.0001388	153.844000101
1740.0	0.0001378	153.891000032
1740.0	0.000137	153.937999964
1740.0	0.0001368	153.969000101
1740.0	0.0001365	154.016000032
1740.0	0.0001363	154.062999964
1740.0	0.0001355	154.094000101
1740.0	0.0001353	154.141000032
1740.0	0.0001353	154.171999931
1740.0	0.000135	154.219000101
1740.0	0.000135	154.266000032
1740.0	0.000135	154.296999931
1740.0	0.0001345	154.344000101
1740.0	0.000135	154.391000032
1740.0	0.000135	154.421999931
1740.0	0.0001343	154.469000101
1740.0	0.0001343	154.516000032
1740.0	0.0001343	154.546999931
1740.0	0.0001345	154.594000101
1740.0	0.0001345	154.625
1740.0	0.0001345	154.671999931
1740.0	0.000135	154.719000101
1740.0	0.0001345	154.75
1740.0	0.0001343	154.796999931
1740.0	0.0001345	154.844000101
1740.0	0.0001345	154.875
1740.0	0.000135	154.921999931
1740.0	0.000135	154.953999996
1740.0	0.000135	155.0
1740.0	0.000135	155.046999931
1740.0	0.000135	155.078999996
1740.0	0.000135	155.125
1740.0	0.0001345	155.171999931
1740.0	0.000135	155.203999996
1750.0	0.000129	155.5
1750.0	0.000127	155.546999931
1750.0	0.0001255	155.578999996
1750.0	0.0001245	155.625
1750.0	0.000124	155.671999931
1750.0	0.0001233	155.703999996
1750.0	0.000123	155.75
1750.0	0.0001225	155.796999931
1750.0	0.0001225	155.828999996
1750.0	0.0001225	155.875
1750.0	0.000122	155.907000065
1750.0	0.0001225	155.953999996
1750.0	0.000122	156.0
1750.0	0.000122	156.032000065
1750.0	0.000122	156.078999996
1750.0	0.0001225	156.125
1750.0	0.0001225	156.157000065
1750.0	0.0001225	156.203999996
1750.0	0.000122	156.234999895
1750.0	0.000122	156.282000065
1750.0	0.000122	156.328999996
1750.0	0.000122	156.359999895
1750.0	0.000122	156.407000065
1750.0	0.000122	156.453999996
1750.0	0.000122	156.484999895
1750.0	0.0001218	156.532000065
1750.0	0.0001215	156.562999964
1750.0	0.0001213	156.609999895
1750.0	0.0001213	156.657000065
1750.0	0.0001208	156.687999964
1750.0	0.0001213	156.734999895
1750.0	0.0001213	156.782000065
1750.0	0.0001213	156.812999964
1750.0	0.0001215	156.859999895
1750.0	0.0001218	156.907000065
1750.0	0.0001215	156.937999964
1750.0	0.0001218	156.984999895
1760.0	0.000117	157.282000065
1760.0	0.0001155	157.312999964
1760.0	0.0001143	157.359999895
1760.0	0.000113	157.407000065
1760.0	0.0001125	157.437999964
1760.0	0.0001118	157.484999895
1760.0	0.0001115	157.516000032
1760.0	0.0001115	157.562999964
1760.0	0.0001115	157.609999895
1760.0	0.0001113	157.641000032
1760.0	0.0001113	157.687999964
1760.0	0.0001113	157.734999895
1760.0	0.0001115	157.766000032
1760.0	0.0001113	157.812999964
1760.0	0.0001108	157.844000101
1760.0	0.0001105	157.891000032
1760.0	0.0001103	157.937999964
1760.0	0.0001103	157.969000101
1760.0	0.0001103	158.016000032
1760.0	0.00011	158.062999964
1760.0	0.00011	158.094000101
1760.0	0.0001103	158.141000032
1760.0	0.00011	158.171999931
1760.0	0.0001095	158.219000101
1760.0	0.0001095	158.266000032
1760.0	0.0001095	158.296999931
1760.0	0.00011	158.344000101
1760.0	0.00011	158.391000032
1760.0	0.00011	158.421999931
1760.0	0.00011	158.469000101
1760.0	0.00011	158.5
1760.0	0.00011	158.546999931
1760.0	0.00011	158.594000101
1760.0	0.00011	158.625
1760.0	0.0001095	158.671999931
1760.0	0.0001095	158.719000101
1760.0	0.0001095	158.75
1770.0	0.0001038	159.062999964
1770.0	0.000102	159.094000101
1770.0	0.0001008	159.141000032
1770.0	0.0001	159.187999964
1770.0	9.93e-05	159.219000101
1770.0	9.93e-05	159.266000032
1770.0	9.88e-05	159.296999931
1770.0	9.88e-05	159.344000101
1770.0	9.88e-05	159.391000032
1770.0	9.83e-05	159.421999931
1770.0	9.8e-05	159.469000101
1770.0	9.8e-05	159.516000032
1770.0	9.78e-05	159.546999931
1770.0	9.78e-05	159.594000101
1770.0	9.78e-05	159.641000032
1770.0	9.78e-05	159.671999931
1770.0	9.8e-05	159.719000101
1770.0	9.78e-05	159.75
1770.0	9.8e-05	159.796999931
1770.0	9.83e-05	159.844000101
1770.0	9.8e-05	159.875
1770.0	9.78e-05	159.921999931
1770.0	9.75e-05	159.969000101
1770.0	9.7e-05	160.0
1770.0	9.7e-05	160.046999931
1770.0	9.7e-05	160.078999996
1770.0	9.7e-05	160.125
1770.0	9.7e-05	160.171999931
1770.0	9.68e-05	160.203999996
1770.0	9.68e-05	160.25
1770.0	9.68e-05	160.296999931
1770.0	9.68e-05	160.328999996
1770.0	9.78e-05	160.375
1770.0	9.78e-05	160.407000065
1770.0	9.78e-05	160.453999996
1770.0	9.78e-05	160.5
1770.0	9.75e-05	160.532000065
1780.0	9.28e-05	160.844000101
1780.0	9.08e-05	160.875
1780.0	9e-05	160.921999931
1780.0	8.88e-05	160.969000101
1780.0	8.78e-05	161.0
1780.0	8.75e-05	161.046999931
1780.0	8.7e-05	161.094000101
1780.0	8.68e-05	161.125
1780.0	8.68e-05	161.171999931
1780.0	8.65e-05	161.219000101
1780.0	8.65e-05	161.25
1780.0	8.65e-05	161.296999931
1780.0	8.65e-05	161.344000101
1780.0	8.65e-05	161.375
1780.0	8.65e-05	161.421999931
1780.0	8.63e-05	161.469000101
1780.0	8.63e-05	161.5
1780.0	8.63e-05	161.546999931
1780.0	8.63e-05	161.578999996
1780.0	8.65e-05	161.625
1780.0	8.65e-05	161.671999931
1780.0	8.65e-05	161.703999996
1780.0	8.65e-05	161.75
1780.0	8.63e-05	161.796999931
1780.0	8.63e-05	161.828999996
1780.0	8.63e-05	161.875
1780.0	8.65e-05	161.907000065
1780.0	8.65e-05	161.953999996
1780.0	8.63e-05	162.0
1780.0	8.65e-05	162.032000065
1780.0	8.65e-05	162.078999996
1780.0	8.65e-05	162.125
1780.0	8.65e-05	162.157000065
1780.0	8.68e-05	162.203999996
1780.0	8.63e-05	162.234999895
1780.0	8.63e-05	162.282000065
1780.0	8.65e-05	162.328999996
1790.0	8.2e-05	162.625
1790.0	8.05e-05	162.671999931
1790.0	7.9e-05	162.703999996
1790.0	7.83e-05	162.75
1790.0	7.78e-05	162.796999931
1790.0	7.75e-05	162.828999996
1790.0	7.7e-05	162.875
1790.0	7.68e-05	162.921999931
1790.0	7.68e-05	162.953999996
1790.0	7.65e-05	163.0
1790.0	7.65e-05	163.032000065
1790.0	7.65e-05	163.078999996
1790.0	7.65e-05	163.125
1790.0	7.63e-05	163.157000065
1790.0	7.63e-05	163.203999996
1790.0	7.63e-05	163.25
1790.0	7.63e-05	163.282000065
1790.0	7.65e-05	163.328999996
1790.0	7.63e-05	163.375
1790.0	7.58e-05	163.407000065
1790.0	7.55e-05	163.453999996
1790.0	7.53e-05	163.484999895
1790.0	7.53e-05	163.532000065
1790.0	7.53e-05	163.578999996
1790.0	7.53e-05	163.609999895
1790.0	7.55e-05	163.657000065
1790.0	7.55e-05	163.703999996
1790.0	7.55e-05	163.734999895
1790.0	7.55e-05	163.782000065
1790.0	7.58e-05	163.812999964
1790.0	7.63e-05	163.859999895
1790.0	7.63e-05	163.907000065
1790.0	7.63e-05	163.937999964
1790.0	7.63e-05	163.984999895
1790.0	7.58e-05	164.032000065
1790.0	7.55e-05	164.062999964
1790.0	7.58e-05	164.109999895
1800.0	7.25e-05	164.407000065
1800.0	7.13e-05	164.453999996
1800.0	6.95e-05	164.5
1800.0	6.88e-05	164.532000065
1800.0	6.78e-05	164.578999996
1800.0	6.7e-05	164.625
1800.0	6.65e-05	164.657000065
1800.0	6.63e-05	164.703999996
1800.0	6.63e-05	164.75
1800.0	6.65e-05	164.782000065
1800.0	6.65e-05	164.828999996
1800.0	6.65e-05	164.859999895
1800.0	6.63e-05	164.907000065
1800.0	6.63e-05	164.953999996
1800.0	6.65e-05	164.984999895
1800.0	6.68e-05	165.032000065
1800.0	6.65e-05	165.078999996
1800.0	6.65e-05	165.109999895
1800.0	6.65e-05	165.157000065
1800.0	6.65e-05	165.187999964
1800.0	6.68e-05	165.234999895
1800.0	6.68e-05	165.282000065
1800.0	6.68e-05	165.312999964
1800.0	6.68e-05	165.359999895
1800.0	6.65e-05	165.407000065
1800.0	6.65e-05	165.437999964
1800.0	6.65e-05	165.484999895
1800.0	6.65e-05	165.532000065
1800.0	6.65e-05	165.562999964
1800.0	6.68e-05	165.609999895
1800.0	6.68e-05	165.641000032
1800.0	6.68e-05	165.687999964
1800.0	6.7e-05	165.734999895
1800.0	6.7e-05	165.766000032
1800.0	6.7e-05	165.812999964
1800.0	6.68e-05	165.859999895
1800.0	6.65e-05	165.891000032
