Your edit line - do NOT delete this line
Wavelength [nm], Voltage [V], Elapsed time [s]
900.0	0.0002503	14.0940001011
900.0	0.0002453	14.125
900.0	0.0002413	14.1719999313
900.0	0.000238	14.2190001011
900.0	0.0002355	14.2660000324
900.0	0.000234	14.2969999313
900.0	0.0002325	14.3440001011
900.0	0.0002315	14.375
900.0	0.0002305	14.4219999313
900.0	0.00023	14.4690001011
900.0	0.0002295	14.5
900.0	0.0002295	14.5469999313
900.0	0.0002293	14.5940001011
900.0	0.0002293	14.625
900.0	0.000229	14.6719999313
900.0	0.0002293	14.7190001011
900.0	0.0002293	14.75
900.0	0.0002295	14.7969999313
900.0	0.0002303	14.8440001011
900.0	0.0002303	14.875
900.0	0.0002303	14.9219999313
900.0	0.00023	14.9690001011
900.0	0.00023	15.0
900.0	0.0002295	15.0469999313
900.0	0.0002295	15.0940001011
900.0	0.0002293	15.125
900.0	0.0002293	15.1719999313
900.0	0.0002293	15.2190001011
900.0	0.000229	15.25
900.0	0.0002293	15.2969999313
900.0	0.0002293	15.3289999962
900.0	0.0002295	15.375
900.0	0.00023	15.4219999313
900.0	0.00023	15.4539999962
900.0	0.0002295	15.5
900.0	0.00023	15.5469999313
910.0	0.0002395	15.8440001011
910.0	0.0002428	15.8910000324
910.0	0.0002453	15.9379999638
910.0	0.0002475	15.9690001011
910.0	0.0002493	16.0160000324
910.0	0.0002508	16.0469999313
910.0	0.0002518	16.0940001011
910.0	0.000252	16.1410000324
910.0	0.0002528	16.1879999638
910.0	0.000253	16.2190001011
910.0	0.000253	16.2660000324
910.0	0.000253	16.2969999313
910.0	0.0002533	16.3440001011
910.0	0.0002538	16.3910000324
910.0	0.0002538	16.4219999313
910.0	0.0002538	16.4690001011
910.0	0.0002538	16.5160000324
910.0	0.000254	16.5469999313
910.0	0.0002543	16.5940001011
910.0	0.0002543	16.625
910.0	0.000254	16.6719999313
910.0	0.0002543	16.7190001011
910.0	0.0002543	16.75
910.0	0.0002543	16.7969999313
910.0	0.000254	16.8440001011
910.0	0.0002538	16.875
910.0	0.0002538	16.9219999313
910.0	0.0002533	16.9690001011
910.0	0.000253	17.0
910.0	0.000253	17.0469999313
910.0	0.000253	17.0940001011
910.0	0.000253	17.1410000324
910.0	0.000253	17.1719999313
910.0	0.000253	17.2190001011
910.0	0.0002528	17.25
910.0	0.0002528	17.2969999313
910.0	0.0002528	17.3440001011
920.0	0.0002645	17.6410000324
920.0	0.000268	17.6879999638
920.0	0.0002713	17.7190001011
920.0	0.0002738	17.7660000324
920.0	0.0002758	17.8129999638
920.0	0.0002775	17.8440001011
920.0	0.0002788	17.8910000324
920.0	0.0002795	17.9379999638
920.0	0.0002803	17.9690001011
920.0	0.0002813	18.0160000324
920.0	0.0002815	18.0469999313
920.0	0.000282	18.0940001011
920.0	0.000282	18.1410000324
920.0	0.000282	18.1719999313
920.0	0.000282	18.2190001011
920.0	0.0002818	18.2660000324
920.0	0.0002815	18.2969999313
920.0	0.0002815	18.3440001011
920.0	0.0002813	18.375
920.0	0.0002808	18.4219999313
920.0	0.0002813	18.4690001011
920.0	0.0002808	18.5
920.0	0.0002813	18.5469999313
920.0	0.0002813	18.5940001011
920.0	0.0002813	18.6410000324
920.0	0.0002813	18.6719999313
920.0	0.0002813	18.7190001011
920.0	0.0002815	18.75
920.0	0.0002815	18.7969999313
920.0	0.0002815	18.8440001011
920.0	0.0002815	18.875
920.0	0.0002815	18.9219999313
920.0	0.0002815	18.9690001011
920.0	0.0002815	19.0
920.0	0.0002815	19.0469999313
920.0	0.0002813	19.0940001011
930.0	0.000294	19.3910000324
930.0	0.0002975	19.4379999638
930.0	0.0003008	19.4690001011
930.0	0.0003033	19.5160000324
930.0	0.0003053	19.5629999638
930.0	0.0003068	19.6099998951
930.0	0.0003083	19.6410000324
930.0	0.0003093	19.6879999638
930.0	0.0003095	19.7190001011
930.0	0.0003105	19.7660000324
930.0	0.0003113	19.8129999638
930.0	0.0003113	19.8440001011
930.0	0.0003113	19.8910000324
930.0	0.0003115	19.9379999638
930.0	0.0003115	19.9690001011
930.0	0.0003115	20.0160000324
930.0	0.0003113	20.0469999313
930.0	0.0003115	20.0940001011
930.0	0.0003115	20.1410000324
930.0	0.0003115	20.1719999313
930.0	0.0003115	20.2190001011
930.0	0.0003115	20.2660000324
930.0	0.0003115	20.2969999313
930.0	0.0003118	20.3440001011
930.0	0.000312	20.3910000324
930.0	0.0003118	20.4219999313
930.0	0.000312	20.4690001011
930.0	0.000312	20.5160000324
930.0	0.0003125	20.5469999313
930.0	0.0003128	20.5940001011
930.0	0.0003125	20.6410000324
930.0	0.0003128	20.6719999313
930.0	0.0003125	20.7190001011
930.0	0.000312	20.75
930.0	0.000312	20.7969999313
930.0	0.0003118	20.8440001011
940.0	0.0003245	21.1410000324
940.0	0.0003288	21.1719999313
940.0	0.0003315	21.2190001011
940.0	0.0003338	21.2660000324
940.0	0.0003355	21.2969999313
940.0	0.0003375	21.3440001011
940.0	0.0003388	21.3910000324
940.0	0.0003395	21.4219999313
940.0	0.0003403	21.4690001011
940.0	0.0003405	21.5
940.0	0.0003413	21.5469999313
940.0	0.0003415	21.5940001011
940.0	0.0003418	21.625
940.0	0.000342	21.6719999313
940.0	0.000342	21.7190001011
940.0	0.000342	21.75
940.0	0.000342	21.7969999313
940.0	0.0003425	21.8289999962
940.0	0.0003425	21.875
940.0	0.0003425	21.9219999313
940.0	0.000342	21.9539999962
940.0	0.000342	22.0
940.0	0.000342	22.0469999313
940.0	0.000342	22.0789999962
940.0	0.000342	22.125
940.0	0.000342	22.1719999313
940.0	0.000342	22.2039999962
940.0	0.0003418	22.25
940.0	0.0003418	22.2820000648
940.0	0.0003415	22.3289999962
940.0	0.0003413	22.375
940.0	0.0003413	22.4070000648
940.0	0.0003413	22.4539999962
940.0	0.0003413	22.5
940.0	0.0003413	22.5320000648
940.0	0.0003415	22.5789999962
940.0	0.0003418	22.6099998951
950.0	0.0003543	22.9070000648
950.0	0.0003583	22.9539999962
950.0	0.000362	23.0
950.0	0.0003655	23.0320000648
950.0	0.000368	23.0789999962
950.0	0.0003695	23.125
950.0	0.0003705	23.1570000648
950.0	0.0003715	23.2039999962
950.0	0.000372	23.2349998951
950.0	0.0003728	23.2820000648
950.0	0.0003733	23.3289999962
950.0	0.0003733	23.3599998951
950.0	0.0003733	23.4070000648
950.0	0.0003733	23.4539999962
950.0	0.000373	23.4849998951
950.0	0.0003728	23.5320000648
950.0	0.0003725	23.5789999962
950.0	0.0003725	23.6099998951
950.0	0.000372	23.6570000648
950.0	0.000372	23.7039999962
950.0	0.0003728	23.7349998951
950.0	0.0003728	23.7820000648
950.0	0.0003728	23.8129999638
950.0	0.000373	23.8599998951
950.0	0.000373	23.9070000648
950.0	0.0003733	23.9379999638
950.0	0.000374	23.9849998951
950.0	0.0003738	24.0320000648
950.0	0.000374	24.0629999638
950.0	0.000374	24.1099998951
950.0	0.000374	24.1570000648
950.0	0.0003738	24.1879999638
950.0	0.0003738	24.2349998951
950.0	0.0003738	24.2660000324
950.0	0.0003738	24.3129999638
950.0	0.0003733	24.3599998951
960.0	0.0003853	24.6410000324
960.0	0.000389	24.6879999638
960.0	0.0003925	24.7190001011
960.0	0.0003953	24.7660000324
960.0	0.000397	24.8129999638
960.0	0.000399	24.8440001011
960.0	0.0004	24.8910000324
960.0	0.0004013	24.9379999638
960.0	0.0004018	24.9690001011
960.0	0.000402	25.0160000324
960.0	0.0004028	25.0629999638
960.0	0.0004028	25.0940001011
960.0	0.0004028	25.1410000324
960.0	0.000403	25.1879999638
960.0	0.0004028	25.2190001011
960.0	0.0004025	25.2660000324
960.0	0.000402	25.3129999638
960.0	0.000402	25.3440001011
960.0	0.0004025	25.3910000324
960.0	0.0004025	25.4379999638
960.0	0.0004025	25.4690001011
960.0	0.0004025	25.5160000324
960.0	0.0004025	25.5469999313
960.0	0.0004028	25.5940001011
960.0	0.0004028	25.6410000324
960.0	0.0004028	25.6719999313
960.0	0.0004025	25.7190001011
960.0	0.0004025	25.7660000324
960.0	0.0004025	25.7969999313
960.0	0.0004028	25.8440001011
960.0	0.000403	25.875
960.0	0.000403	25.9219999313
960.0	0.000403	25.9690001011
960.0	0.000403	26.0
960.0	0.0004033	26.0469999313
960.0	0.000403	26.0940001011
970.0	0.0004145	26.375
970.0	0.0004188	26.4219999313
970.0	0.000422	26.4539999962
970.0	0.0004245	26.5
970.0	0.0004268	26.5320000648
970.0	0.0004288	26.5789999962
970.0	0.00043	26.625
970.0	0.0004308	26.6570000648
970.0	0.0004308	26.7039999962
970.0	0.0004313	26.75
970.0	0.0004313	26.7820000648
970.0	0.0004313	26.8289999962
970.0	0.0004313	26.875
970.0	0.0004313	26.9070000648
970.0	0.0004313	26.9539999962
970.0	0.0004315	26.9849998951
970.0	0.0004313	27.0320000648
970.0	0.0004315	27.0789999962
970.0	0.0004318	27.1099998951
970.0	0.0004318	27.1570000648
970.0	0.000432	27.2039999962
970.0	0.0004325	27.2349998951
970.0	0.0004325	27.2820000648
970.0	0.0004325	27.3129999638
970.0	0.0004325	27.3599998951
970.0	0.0004325	27.4070000648
970.0	0.0004325	27.4539999962
970.0	0.000432	27.4849998951
970.0	0.000432	27.5320000648
970.0	0.0004318	27.5629999638
970.0	0.0004315	27.6099998951
970.0	0.0004315	27.6570000648
970.0	0.0004315	27.7039999962
970.0	0.0004313	27.7349998951
970.0	0.0004315	27.7820000648
970.0	0.0004315	27.8289999962
980.0	0.0004428	28.0940001011
980.0	0.0004468	28.1410000324
980.0	0.0004503	28.1879999638
980.0	0.000453	28.2190001011
980.0	0.000455	28.2660000324
980.0	0.0004565	28.3129999638
980.0	0.000458	28.3440001011
980.0	0.000459	28.3910000324
980.0	0.0004603	28.4219999313
980.0	0.0004613	28.4690001011
980.0	0.0004615	28.5160000324
980.0	0.0004618	28.5469999313
980.0	0.000462	28.5940001011
980.0	0.0004625	28.6410000324
980.0	0.0004625	28.6719999313
980.0	0.0004625	28.7190001011
980.0	0.000462	28.7660000324
980.0	0.000462	28.7969999313
980.0	0.0004618	28.8440001011
980.0	0.000462	28.8910000324
980.0	0.0004618	28.9219999313
980.0	0.0004615	28.9690001011
980.0	0.0004615	29.0
980.0	0.0004618	29.0469999313
980.0	0.0004618	29.0940001011
980.0	0.0004618	29.125
980.0	0.0004618	29.1719999313
980.0	0.0004618	29.2190001011
980.0	0.000462	29.25
980.0	0.000462	29.2969999313
980.0	0.000462	29.3440001011
980.0	0.000462	29.375
980.0	0.0004625	29.4219999313
980.0	0.0004625	29.4690001011
980.0	0.0004628	29.5160000324
980.0	0.0004628	29.5469999313
980.0	0.000463	29.5940001011
990.0	0.0004725	29.875
990.0	0.0004765	29.9070000648
990.0	0.0004795	29.9539999962
990.0	0.000482	30.0
990.0	0.0004843	30.0320000648
990.0	0.0004858	30.0789999962
990.0	0.0004868	30.1099998951
990.0	0.000488	30.1570000648
990.0	0.0004888	30.2039999962
990.0	0.000489	30.2349998951
990.0	0.0004893	30.2820000648
990.0	0.00049	30.3289999962
990.0	0.0004905	30.3599998951
990.0	0.0004908	30.4070000648
990.0	0.0004913	30.4379999638
990.0	0.0004915	30.4849998951
990.0	0.0004913	30.5320000648
990.0	0.0004913	30.5629999638
990.0	0.0004915	30.6099998951
990.0	0.0004913	30.6570000648
990.0	0.0004915	30.6879999638
990.0	0.0004915	30.7349998951
990.0	0.0004915	30.7820000648
990.0	0.0004915	30.8129999638
990.0	0.0004915	30.8599998951
990.0	0.0004918	30.9070000648
990.0	0.0004918	30.9379999638
990.0	0.0004915	30.9849998951
990.0	0.0004915	31.0320000648
990.0	0.0004913	31.0629999638
990.0	0.0004913	31.1099998951
990.0	0.0004908	31.1410000324
990.0	0.0004913	31.1879999638
990.0	0.0004915	31.2349998951
990.0	0.0004915	31.2660000324
990.0	0.0004915	31.3129999638
990.0	0.0004918	31.3599998951
1000.0	0.0005028	31.625
1000.0	0.0005063	31.6719999313
1000.0	0.0005093	31.7190001011
1000.0	0.0005118	31.75
1000.0	0.0005138	31.7969999313
1000.0	0.0005153	31.8440001011
1000.0	0.0005165	31.875
1000.0	0.0005175	31.9219999313
1000.0	0.000518	31.9690001011
1000.0	0.0005188	32.0
1000.0	0.0005188	32.0469999313
1000.0	0.0005188	32.0940001011
1000.0	0.000519	32.125
1000.0	0.0005193	32.1719999313
1000.0	0.00052	32.2039999962
1000.0	0.00052	32.25
1000.0	0.0005203	32.2969999313
1000.0	0.0005203	32.3289999962
1000.0	0.0005205	32.375
1000.0	0.0005205	32.4219999313
1000.0	0.0005208	32.4539999962
1000.0	0.0005213	32.5
1000.0	0.0005215	32.5469999313
1000.0	0.000522	32.5789999962
1000.0	0.0005225	32.625
1000.0	0.0005225	32.6570000648
1000.0	0.000522	32.7039999962
1000.0	0.0005218	32.75
1000.0	0.0005215	32.7820000648
1000.0	0.0005215	32.8289999962
1000.0	0.0005218	32.875
1000.0	0.0005215	32.9070000648
1000.0	0.0005213	32.9539999962
1000.0	0.0005213	32.9849998951
1000.0	0.0005208	33.0320000648
1000.0	0.0005208	33.0789999962
1000.0	0.0005205	33.1099998951
1010.0	0.0005318	33.3910000324
1010.0	0.0005353	33.4379999638
1010.0	0.000538	33.4690001011
1010.0	0.0005413	33.5160000324
1010.0	0.0005433	33.5629999638
1010.0	0.000545	33.5940001011
1010.0	0.0005463	33.6410000324
1010.0	0.0005475	33.6879999638
1010.0	0.000548	33.7190001011
1010.0	0.0005488	33.7660000324
1010.0	0.0005488	33.8129999638
1010.0	0.0005493	33.8440001011
1010.0	0.000549	33.8910000324
1010.0	0.000549	33.9219999313
1010.0	0.0005493	33.9690001011
1010.0	0.000549	34.0160000324
1010.0	0.000549	34.0469999313
1010.0	0.000549	34.0940001011
1010.0	0.0005493	34.1410000324
1010.0	0.0005493	34.1719999313
1010.0	0.0005495	34.2190001011
1010.0	0.0005495	34.25
1010.0	0.0005493	34.2969999313
1010.0	0.000549	34.3440001011
1010.0	0.0005488	34.375
1010.0	0.0005488	34.4219999313
1010.0	0.0005488	34.4690001011
1010.0	0.000549	34.5
1010.0	0.0005493	34.5469999313
1010.0	0.0005495	34.5940001011
1010.0	0.0005495	34.625
1010.0	0.0005495	34.6719999313
1010.0	0.0005495	34.7190001011
1010.0	0.0005495	34.75
1010.0	0.0005493	34.7969999313
1010.0	0.000549	34.8289999962
1020.0	0.0005615	35.125
1020.0	0.0005655	35.1570000648
1020.0	0.0005688	35.2039999962
1020.0	0.0005713	35.25
1020.0	0.0005733	35.2969999313
1020.0	0.0005753	35.3289999962
1020.0	0.0005763	35.375
1020.0	0.000577	35.4219999313
1020.0	0.0005778	35.4539999962
1020.0	0.000578	35.5
1020.0	0.000578	35.5320000648
1020.0	0.0005783	35.5789999962
1020.0	0.0005788	35.625
1020.0	0.0005788	35.6570000648
1020.0	0.0005788	35.7039999962
1020.0	0.0005788	35.75
1020.0	0.0005783	35.7820000648
1020.0	0.0005783	35.8289999962
1020.0	0.0005788	35.8599998951
1020.0	0.0005783	35.9070000648
1020.0	0.000578	35.9539999962
1020.0	0.000578	35.9849998951
1020.0	0.0005783	36.0320000648
1020.0	0.0005788	36.0789999962
1020.0	0.0005783	36.1099998951
1020.0	0.0005788	36.1570000648
1020.0	0.0005783	36.2039999962
1020.0	0.0005783	36.2349998951
1020.0	0.0005783	36.2820000648
1020.0	0.0005788	36.3129999638
1020.0	0.0005788	36.3599998951
1020.0	0.0005783	36.4070000648
1020.0	0.0005783	36.4379999638
1020.0	0.0005783	36.4849998951
1020.0	0.0005788	36.5320000648
1020.0	0.0005788	36.5629999638
1020.0	0.0005788	36.6099998951
1030.0	0.00059	36.8910000324
1030.0	0.000594	36.9379999638
1030.0	0.0005975	36.9690001011
1030.0	0.0006003	37.0160000324
1030.0	0.000602	37.0469999313
1030.0	0.0006033	37.0940001011
1030.0	0.0006045	37.1410000324
1030.0	0.0006058	37.1719999313
1030.0	0.0006068	37.2190001011
1030.0	0.0006068	37.2660000324
1030.0	0.0006068	37.2969999313
1030.0	0.000607	37.3440001011
1030.0	0.000607	37.375
1030.0	0.0006075	37.4219999313
1030.0	0.0006075	37.4690001011
1030.0	0.0006075	37.5
1030.0	0.0006075	37.5469999313
1030.0	0.000607	37.5940001011
1030.0	0.0006075	37.625
1030.0	0.0006075	37.6719999313
1030.0	0.000607	37.7039999962
1030.0	0.0006068	37.75
1030.0	0.000607	37.7969999313
1030.0	0.0006075	37.8289999962
1030.0	0.0006078	37.875
1030.0	0.0006083	37.9219999313
1030.0	0.000608	37.9539999962
1030.0	0.0006078	38.0
1030.0	0.000608	38.0469999313
1030.0	0.0006078	38.0789999962
1030.0	0.000608	38.125
1030.0	0.000608	38.1570000648
1030.0	0.0006078	38.2039999962
1030.0	0.000608	38.25
1030.0	0.000608	38.2820000648
1030.0	0.000608	38.3289999962
1030.0	0.000608	38.375
1040.0	0.0006193	38.6570000648
1040.0	0.0006238	38.6879999638
1040.0	0.000627	38.7349998951
1040.0	0.0006295	38.7820000648
1040.0	0.0006318	38.8129999638
1040.0	0.000633	38.8599998951
1040.0	0.000634	38.8910000324
1040.0	0.0006345	38.9379999638
1040.0	0.000635	38.9849998951
1040.0	0.0006355	39.0160000324
1040.0	0.0006358	39.0629999638
1040.0	0.0006365	39.1099998951
1040.0	0.0006365	39.1410000324
1040.0	0.0006368	39.1879999638
1040.0	0.000637	39.2349998951
1040.0	0.0006375	39.2660000324
1040.0	0.0006375	39.3129999638
1040.0	0.0006378	39.3599998951
1040.0	0.000638	39.3910000324
1040.0	0.0006378	39.4379999638
1040.0	0.000638	39.4849998951
1040.0	0.0006375	39.5160000324
1040.0	0.000637	39.5629999638
1040.0	0.000637	39.5940001011
1040.0	0.000637	39.6410000324
1040.0	0.000637	39.6879999638
1040.0	0.000637	39.7190001011
1040.0	0.0006368	39.7660000324
1040.0	0.0006365	39.8129999638
1040.0	0.0006368	39.8440001011
1040.0	0.0006368	39.8910000324
1040.0	0.0006368	39.9379999638
1040.0	0.0006365	39.9690001011
1040.0	0.0006365	40.0160000324
1040.0	0.0006363	40.0629999638
1040.0	0.0006358	40.0940001011
1040.0	0.0006358	40.1410000324
1050.0	0.0006488	40.4219999313
1050.0	0.0006528	40.4690001011
1050.0	0.0006555	40.5
1050.0	0.000658	40.5469999313
1050.0	0.0006605	40.5789999962
1050.0	0.0006623	40.625
1050.0	0.0006635	40.6719999313
1050.0	0.000664	40.7039999962
1050.0	0.0006648	40.75
1050.0	0.000665	40.7969999313
1050.0	0.0006653	40.8289999962
1050.0	0.0006655	40.875
1050.0	0.0006655	40.9219999313
1050.0	0.0006653	40.9539999962
1050.0	0.000665	41.0
1050.0	0.0006653	41.0320000648
1050.0	0.0006653	41.0789999962
1050.0	0.0006653	41.125
1050.0	0.0006653	41.1570000648
1050.0	0.0006655	41.2039999962
1050.0	0.0006655	41.25
1050.0	0.000666	41.2820000648
1050.0	0.0006655	41.3289999962
1050.0	0.0006655	41.375
1050.0	0.0006655	41.4070000648
1050.0	0.0006655	41.4539999962
1050.0	0.000666	41.5
1050.0	0.000666	41.5320000648
1050.0	0.0006663	41.5789999962
1050.0	0.0006663	41.6099998951
1050.0	0.0006663	41.6570000648
1050.0	0.0006665	41.7039999962
1050.0	0.0006665	41.7349998951
1050.0	0.0006663	41.7820000648
1050.0	0.000666	41.8289999962
1050.0	0.000666	41.8599998951
1050.0	0.000666	41.9070000648
1060.0	0.0006773	42.1879999638
1060.0	0.0006813	42.2349998951
1060.0	0.0006843	42.2660000324
1060.0	0.0006873	42.3129999638
1060.0	0.000689	42.3599998951
1060.0	0.000691	42.3910000324
1060.0	0.0006923	42.4379999638
1060.0	0.000693	42.4690001011
1060.0	0.0006938	42.5160000324
1060.0	0.000694	42.5629999638
1060.0	0.000694	42.5940001011
1060.0	0.0006943	42.6410000324
1060.0	0.0006943	42.6879999638
1060.0	0.0006943	42.7190001011
1060.0	0.0006943	42.7660000324
1060.0	0.0006943	42.7969999313
1060.0	0.0006948	42.8440001011
1060.0	0.000695	42.8910000324
1060.0	0.0006948	42.9219999313
1060.0	0.0006948	42.9690001011
1060.0	0.0006948	43.0160000324
1060.0	0.0006948	43.0469999313
1060.0	0.0006948	43.0940001011
1060.0	0.0006943	43.125
1060.0	0.0006943	43.1719999313
1060.0	0.0006948	43.2190001011
1060.0	0.0006943	43.25
1060.0	0.0006943	43.2969999313
1060.0	0.0006943	43.3440001011
1060.0	0.0006948	43.375
1060.0	0.0006948	43.4219999313
1060.0	0.0006943	43.4539999962
1060.0	0.0006943	43.5
1060.0	0.0006943	43.5469999313
1060.0	0.0006948	43.5789999962
1060.0	0.0006948	43.625
1060.0	0.0006948	43.6719999313
1070.0	0.000705	43.9539999962
1070.0	0.0007085	43.9849998951
1070.0	0.000711	44.0320000648
1070.0	0.000713	44.0789999962
1070.0	0.0007153	44.1099998951
1070.0	0.0007165	44.1570000648
1070.0	0.0007178	44.2039999962
1070.0	0.0007188	44.2349998951
1070.0	0.0007193	44.2820000648
1070.0	0.0007203	44.3129999638
1070.0	0.0007205	44.3599998951
1070.0	0.0007203	44.4070000648
1070.0	0.0007203	44.4379999638
1070.0	0.0007205	44.4849998951
1070.0	0.000721	44.5320000648
1070.0	0.0007205	44.5629999638
1070.0	0.0007203	44.6099998951
1070.0	0.0007205	44.6570000648
1070.0	0.0007205	44.7039999962
1070.0	0.000721	44.7349998951
1070.0	0.000721	44.7820000648
1070.0	0.0007205	44.8129999638
1070.0	0.0007205	44.8599998951
1070.0	0.0007205	44.9070000648
1070.0	0.0007205	44.9379999638
1070.0	0.000721	44.9849998951
1070.0	0.0007213	45.0320000648
1070.0	0.0007213	45.0629999638
1070.0	0.0007213	45.1099998951
1070.0	0.0007215	45.1570000648
1070.0	0.0007215	45.1879999638
1070.0	0.0007213	45.2349998951
1070.0	0.0007213	45.2820000648
1070.0	0.0007213	45.3289999962
1070.0	0.0007215	45.3599998951
1070.0	0.0007215	45.4070000648
1080.0	0.0007303	45.6879999638
1080.0	0.0007335	45.7349998951
1080.0	0.0007365	45.7660000324
1080.0	0.0007385	45.8129999638
1080.0	0.0007398	45.8440001011
1080.0	0.000741	45.8910000324
1080.0	0.0007418	45.9379999638
1080.0	0.0007425	45.9690001011
1080.0	0.0007435	46.0160000324
1080.0	0.000744	46.0629999638
1080.0	0.0007448	46.0940001011
1080.0	0.000745	46.1410000324
1080.0	0.000745	46.1879999638
1080.0	0.0007453	46.2190001011
1080.0	0.000745	46.2660000324
1080.0	0.000745	46.2969999313
1080.0	0.000745	46.3440001011
1080.0	0.0007448	46.3910000324
1080.0	0.000745	46.4219999313
1080.0	0.000745	46.4690001011
1080.0	0.000745	46.5160000324
1080.0	0.000745	46.5469999313
1080.0	0.000745	46.5940001011
1080.0	0.0007448	46.6410000324
1080.0	0.0007443	46.6719999313
1080.0	0.000744	46.7190001011
1080.0	0.000744	46.7660000324
1080.0	0.000744	46.7969999313
1080.0	0.0007443	46.8440001011
1080.0	0.0007448	46.8910000324
1080.0	0.0007448	46.9219999313
1080.0	0.0007448	46.9690001011
1080.0	0.0007448	47.0160000324
1080.0	0.0007453	47.0469999313
1080.0	0.0007455	47.0940001011
1080.0	0.000746	47.1410000324
1090.0	0.000753	47.4219999313
1090.0	0.000756	47.4539999962
1090.0	0.0007585	47.5
1090.0	0.00076	47.5469999313
1090.0	0.0007615	47.5789999962
1090.0	0.0007625	47.625
1090.0	0.000763	47.6570000648
1090.0	0.000764	47.7039999962
1090.0	0.0007643	47.75
1090.0	0.000765	47.7820000648
1090.0	0.000765	47.8289999962
1090.0	0.0007648	47.875
1090.0	0.0007648	47.9070000648
1090.0	0.0007648	47.9539999962
1090.0	0.0007648	47.9849998951
1090.0	0.0007648	48.0320000648
1090.0	0.0007648	48.0789999962
1090.0	0.0007648	48.1099998951
1090.0	0.000765	48.1570000648
1090.0	0.0007648	48.2039999962
1090.0	0.0007648	48.2349998951
1090.0	0.000765	48.2820000648
1090.0	0.000765	48.3129999638
1090.0	0.000765	48.3599998951
1090.0	0.0007648	48.4070000648
1090.0	0.0007643	48.4379999638
1090.0	0.0007643	48.4849998951
1090.0	0.0007643	48.5320000648
1090.0	0.0007643	48.5629999638
1090.0	0.0007648	48.6099998951
1090.0	0.0007643	48.6410000324
1090.0	0.0007648	48.6879999638
1090.0	0.0007648	48.7349998951
1090.0	0.0007648	48.7660000324
1090.0	0.0007648	48.8129999638
1090.0	0.0007648	48.8599998951
1090.0	0.0007648	48.8910000324
1100.0	0.000771	49.1719999313
1100.0	0.000773	49.2190001011
1100.0	0.0007748	49.2660000324
1100.0	0.0007765	49.2969999313
1100.0	0.0007778	49.3440001011
1100.0	0.0007788	49.3910000324
1100.0	0.0007793	49.4219999313
1100.0	0.00078	49.4690001011
1100.0	0.00078	49.5
1100.0	0.00078	49.5469999313
1100.0	0.0007803	49.5940001011
1100.0	0.0007805	49.625
1100.0	0.0007805	49.6719999313
1100.0	0.000781	49.7190001011
1100.0	0.0007803	49.75
1100.0	0.0007805	49.7969999313
1100.0	0.0007813	49.8289999962
1100.0	0.0007813	49.875
1100.0	0.000781	49.9219999313
1100.0	0.0007803	49.9539999962
1100.0	0.0007803	50.0
1100.0	0.0007805	50.0469999313
1100.0	0.0007805	50.0789999962
1100.0	0.0007805	50.125
1100.0	0.0007805	50.1570000648
1100.0	0.000781	50.2039999962
1100.0	0.0007805	50.25
1100.0	0.0007803	50.2820000648
1100.0	0.00078	50.3289999962
1100.0	0.00078	50.375
1100.0	0.00078	50.4070000648
1100.0	0.0007793	50.4539999962
1100.0	0.0007793	50.4849998951
1100.0	0.0007798	50.5320000648
1100.0	0.0007798	50.5789999962
1100.0	0.0007798	50.6099998951
1100.0	0.00078	50.6570000648
1110.0	0.0007843	50.9379999638
1110.0	0.0007855	50.9849998951
1110.0	0.0007868	51.0160000324
1110.0	0.000788	51.0629999638
1110.0	0.0007888	51.0940001011
1110.0	0.000789	51.1410000324
1110.0	0.0007898	51.1879999638
1110.0	0.0007903	51.2190001011
1110.0	0.0007903	51.2660000324
1110.0	0.0007905	51.3129999638
1110.0	0.000791	51.3440001011
1110.0	0.000791	51.3910000324
1110.0	0.0007913	51.4219999313
1110.0	0.000791	51.4690001011
1110.0	0.0007905	51.5160000324
1110.0	0.0007903	51.5469999313
1110.0	0.0007903	51.5940001011
1110.0	0.0007905	51.6410000324
1110.0	0.0007905	51.6719999313
1110.0	0.000791	51.7190001011
1110.0	0.000791	51.7660000324
1110.0	0.000791	51.7969999313
1110.0	0.0007913	51.8440001011
1110.0	0.0007913	51.875
1110.0	0.0007915	51.9219999313
1110.0	0.0007915	51.9690001011
1110.0	0.000791	52.0
1110.0	0.0007905	52.0469999313
1110.0	0.000791	52.0789999962
1110.0	0.000791	52.125
1110.0	0.0007915	52.1719999313
1110.0	0.0007918	52.2039999962
1110.0	0.0007913	52.25
1110.0	0.0007913	52.2969999313
1110.0	0.0007915	52.3289999962
1110.0	0.0007915	52.375
1110.0	0.0007918	52.4219999313
1120.0	0.0007938	52.6879999638
1120.0	0.0007948	52.7349998951
1120.0	0.0007955	52.7820000648
1120.0	0.0007963	52.8129999638
1120.0	0.0007965	52.8599998951
1120.0	0.0007973	52.9070000648
1120.0	0.0007978	52.9379999638
1120.0	0.000798	52.9849998951
1120.0	0.000798	53.0320000648
1120.0	0.000798	53.0629999638
1120.0	0.0007985	53.1099998951
1120.0	0.000798	53.1570000648
1120.0	0.000798	53.1879999638
1120.0	0.0007978	53.2349998951
1120.0	0.0007978	53.2660000324
1120.0	0.0007978	53.3129999638
1120.0	0.0007978	53.3599998951
1120.0	0.0007978	53.4070000648
1120.0	0.0007978	53.4379999638
1120.0	0.000798	53.4849998951
1120.0	0.0007985	53.5320000648
1120.0	0.0007988	53.5629999638
1120.0	0.0007988	53.6099998951
1120.0	0.000799	53.6410000324
1120.0	0.0007988	53.6879999638
1120.0	0.0007985	53.7349998951
1120.0	0.0007988	53.7660000324
1120.0	0.000799	53.8129999638
1120.0	0.000799	53.8599998951
1120.0	0.000799	53.8910000324
1120.0	0.000799	53.9379999638
1120.0	0.000799	53.9690001011
1120.0	0.000799	54.0160000324
1120.0	0.000799	54.0629999638
1120.0	0.000799	54.0940001011
1120.0	0.000799	54.1410000324
1120.0	0.000799	54.1879999638
1130.0	0.0008003	54.4539999962
1130.0	0.000801	54.5
1130.0	0.0008013	54.5320000648
1130.0	0.0008018	54.5789999962
1130.0	0.0008023	54.625
1130.0	0.0008023	54.6719999313
1130.0	0.0008023	54.7039999962
1130.0	0.0008023	54.75
1130.0	0.0008023	54.7820000648
1130.0	0.0008023	54.8289999962
1130.0	0.0008023	54.875
1130.0	0.0008028	54.9070000648
1130.0	0.0008025	54.9539999962
1130.0	0.0008023	55.0
1130.0	0.0008023	55.0320000648
1130.0	0.0008018	55.0789999962
1130.0	0.0008018	55.1099998951
1130.0	0.0008018	55.1570000648
1130.0	0.0008023	55.2039999962
1130.0	0.0008023	55.2349998951
1130.0	0.0008018	55.2820000648
1130.0	0.0008018	55.3289999962
1130.0	0.0008018	55.3599998951
1130.0	0.0008015	55.4070000648
1130.0	0.0008018	55.4539999962
1130.0	0.0008023	55.4849998951
1130.0	0.0008023	55.5320000648
1130.0	0.0008028	55.5629999638
1130.0	0.000803	55.6099998951
1130.0	0.0008035	55.6570000648
1130.0	0.0008035	55.6879999638
1130.0	0.0008035	55.7349998951
1130.0	0.0008038	55.7820000648
1130.0	0.0008038	55.8129999638
1130.0	0.000803	55.8599998951
1130.0	0.0008025	55.8910000324
1130.0	0.0008023	55.9379999638
1140.0	0.000803	56.2039999962
1140.0	0.0008038	56.25
1140.0	0.0008035	56.2969999313
1140.0	0.0008038	56.3289999962
1140.0	0.0008038	56.375
1140.0	0.0008038	56.4219999313
1140.0	0.000804	56.4539999962
1140.0	0.000804	56.5
1140.0	0.0008038	56.5469999313
1140.0	0.000804	56.5789999962
1140.0	0.0008038	56.625
1140.0	0.0008035	56.6719999313
1140.0	0.0008035	56.7039999962
1140.0	0.000803	56.75
1140.0	0.0008035	56.7969999313
1140.0	0.0008038	56.8289999962
1140.0	0.000804	56.875
1140.0	0.000804	56.9219999313
1140.0	0.000804	56.9539999962
1140.0	0.0008043	57.0
1140.0	0.000805	57.0320000648
1140.0	0.000805	57.0789999962
1140.0	0.0008053	57.125
1140.0	0.0008053	57.1570000648
1140.0	0.0008053	57.2039999962
1140.0	0.0008053	57.25
1140.0	0.0008053	57.2820000648
1140.0	0.000805	57.3289999962
1140.0	0.0008053	57.375
1140.0	0.0008053	57.4070000648
1140.0	0.0008053	57.4539999962
1140.0	0.0008055	57.4849998951
1140.0	0.000805	57.5320000648
1140.0	0.0008048	57.5789999962
1140.0	0.0008043	57.6099998951
1140.0	0.000804	57.6570000648
1140.0	0.000804	57.7039999962
1150.0	0.0008043	57.9690001011
1150.0	0.000804	58.0
1150.0	0.000804	58.0469999313
1150.0	0.000804	58.0940001011
1150.0	0.000804	58.125
1150.0	0.000804	58.1719999313
1150.0	0.0008038	58.2039999962
1150.0	0.0008035	58.25
1150.0	0.0008035	58.2969999313
1150.0	0.0008035	58.3289999962
1150.0	0.0008035	58.375
1150.0	0.0008038	58.4219999313
1150.0	0.000804	58.4539999962
1150.0	0.0008043	58.5
1150.0	0.000804	58.5320000648
1150.0	0.0008043	58.5789999962
1150.0	0.0008043	58.625
1150.0	0.0008043	58.6570000648
1150.0	0.000804	58.7039999962
1150.0	0.000804	58.75
1150.0	0.000804	58.7820000648
1150.0	0.0008048	58.8289999962
1150.0	0.0008043	58.8599998951
1150.0	0.000804	58.9070000648
1150.0	0.000804	58.9539999962
1150.0	0.0008043	58.9849998951
1150.0	0.0008043	59.0320000648
1150.0	0.000804	59.0789999962
1150.0	0.0008038	59.1099998951
1150.0	0.0008038	59.1570000648
1150.0	0.0008038	59.2039999962
1150.0	0.0008038	59.2349998951
1150.0	0.000804	59.2820000648
1150.0	0.0008043	59.3129999638
1150.0	0.0008043	59.3599998951
1150.0	0.0008043	59.4070000648
1150.0	0.0008038	59.4379999638
1160.0	0.000803	59.7039999962
1160.0	0.000803	59.75
1160.0	0.000803	59.7820000648
1160.0	0.0008028	59.8289999962
1160.0	0.0008028	59.875
1160.0	0.0008028	59.9070000648
1160.0	0.0008025	59.9539999962
1160.0	0.0008025	59.9849998951
1160.0	0.0008025	60.0320000648
1160.0	0.0008028	60.0789999962
1160.0	0.0008028	60.1099998951
1160.0	0.000803	60.1570000648
1160.0	0.0008035	60.2039999962
1160.0	0.0008035	60.2349998951
1160.0	0.0008038	60.2820000648
1160.0	0.0008038	60.3289999962
1160.0	0.0008038	60.3599998951
1160.0	0.000804	60.4070000648
1160.0	0.000804	60.4379999638
1160.0	0.000804	60.4849998951
1160.0	0.0008038	60.5320000648
1160.0	0.0008035	60.5629999638
1160.0	0.0008035	60.6099998951
1160.0	0.0008035	60.6570000648
1160.0	0.0008035	60.6879999638
1160.0	0.0008035	60.7349998951
1160.0	0.0008035	60.7660000324
1160.0	0.0008035	60.8129999638
1160.0	0.0008035	60.8599998951
1160.0	0.0008038	60.9070000648
1160.0	0.0008035	60.9539999962
1160.0	0.0008035	60.9849998951
1160.0	0.0008028	61.0320000648
1160.0	0.0008028	61.0629999638
1160.0	0.0008028	61.1099998951
1160.0	0.0008028	61.1570000648
1170.0	0.0008028	61.4070000648
1170.0	0.0008023	61.4539999962
1170.0	0.0008023	61.4849998951
1170.0	0.0008025	61.5320000648
1170.0	0.0008025	61.5789999962
1170.0	0.0008023	61.6099998951
1170.0	0.0008025	61.6570000648
1170.0	0.0008025	61.7039999962
1170.0	0.0008028	61.7349998951
1170.0	0.000803	61.7820000648
1170.0	0.000803	61.8129999638
1170.0	0.000803	61.8599998951
1170.0	0.0008035	61.9070000648
1170.0	0.0008035	61.9379999638
1170.0	0.0008035	61.9849998951
1170.0	0.0008035	62.0320000648
1170.0	0.0008035	62.0629999638
1170.0	0.0008035	62.1099998951
1170.0	0.0008028	62.1570000648
1170.0	0.0008028	62.1879999638
1170.0	0.000803	62.2349998951
1170.0	0.000803	62.2660000324
1170.0	0.0008035	62.3129999638
1170.0	0.0008035	62.3599998951
1170.0	0.0008035	62.3910000324
1170.0	0.0008035	62.4379999638
1170.0	0.0008035	62.4849998951
1170.0	0.000803	62.5160000324
1170.0	0.0008035	62.5629999638
1170.0	0.000803	62.5940001011
1170.0	0.0008028	62.6410000324
1170.0	0.0008028	62.6879999638
1170.0	0.0008028	62.7190001011
1170.0	0.000803	62.7660000324
1170.0	0.000803	62.8129999638
1170.0	0.0008035	62.8440001011
1170.0	0.0008035	62.8910000324
1180.0	0.0008035	63.1570000648
1180.0	0.0008035	63.2039999962
1180.0	0.000804	63.2349998951
1180.0	0.000804	63.2820000648
1180.0	0.0008048	63.3129999638
1180.0	0.000805	63.3599998951
1180.0	0.0008048	63.4070000648
1180.0	0.0008043	63.4379999638
1180.0	0.000804	63.4849998951
1180.0	0.0008038	63.5320000648
1180.0	0.000804	63.5629999638
1180.0	0.0008043	63.6099998951
1180.0	0.000804	63.6410000324
1180.0	0.0008043	63.6879999638
1180.0	0.0008043	63.7349998951
1180.0	0.0008048	63.7660000324
1180.0	0.0008048	63.8129999638
1180.0	0.0008048	63.8599998951
1180.0	0.0008043	63.8910000324
1180.0	0.0008043	63.9379999638
1180.0	0.000804	63.9849998951
1180.0	0.000804	64.0160000324
1180.0	0.0008043	64.0629999638
1180.0	0.0008043	64.0940001011
1180.0	0.000804	64.1410000324
1180.0	0.0008038	64.1879999638
1180.0	0.000804	64.2190001011
1180.0	0.000804	64.2660000324
1180.0	0.0008038	64.3129999638
1180.0	0.0008038	64.3440001011
1180.0	0.0008035	64.3910000324
1180.0	0.000803	64.4219999313
1180.0	0.000803	64.4690001011
1180.0	0.000803	64.5160000324
1180.0	0.000803	64.5469999313
1180.0	0.0008035	64.5940001011
1180.0	0.0008035	64.6410000324
1190.0	0.000804	64.8910000324
1190.0	0.0008043	64.9379999638
1190.0	0.000805	64.9690001011
1190.0	0.0008055	65.0160000324
1190.0	0.000806	65.0629999638
1190.0	0.0008063	65.0940001011
1190.0	0.0008065	65.1410000324
1190.0	0.0008068	65.1879999638
1190.0	0.0008073	65.2190001011
1190.0	0.0008073	65.2660000324
1190.0	0.0008073	65.2969999313
1190.0	0.0008075	65.3440001011
1190.0	0.0008075	65.3910000324
1190.0	0.0008075	65.4219999313
1190.0	0.0008075	65.4690001011
1190.0	0.0008073	65.5160000324
1190.0	0.0008073	65.5469999313
1190.0	0.0008073	65.5940001011
1190.0	0.0008068	65.625
1190.0	0.0008065	65.6719999313
1190.0	0.0008068	65.7190001011
1190.0	0.0008068	65.75
1190.0	0.0008073	65.7969999313
1190.0	0.0008068	65.8440001011
1190.0	0.0008068	65.875
1190.0	0.0008073	65.9219999313
1190.0	0.0008068	65.9539999962
1190.0	0.0008065	66.0
1190.0	0.0008065	66.0469999313
1190.0	0.0008065	66.0789999962
1190.0	0.0008065	66.125
1190.0	0.0008073	66.1719999313
1190.0	0.0008073	66.2039999962
1190.0	0.0008068	66.25
1190.0	0.0008068	66.2820000648
1190.0	0.0008065	66.3289999962
1190.0	0.0008065	66.375
1200.0	0.0008088	66.6410000324
1200.0	0.0008098	66.6719999313
1200.0	0.0008105	66.7190001011
1200.0	0.000811	66.75
1200.0	0.0008115	66.7969999313
1200.0	0.0008118	66.8440001011
1200.0	0.0008118	66.8910000324
1200.0	0.0008123	66.9219999313
1200.0	0.0008128	66.9690001011
1200.0	0.0008128	67.0160000324
1200.0	0.0008128	67.0469999313
1200.0	0.0008125	67.0940001011
1200.0	0.0008125	67.125
1200.0	0.0008125	67.1719999313
1200.0	0.0008128	67.2190001011
1200.0	0.000813	67.2660000324
1200.0	0.0008128	67.2969999313
1200.0	0.0008125	67.3440001011
1200.0	0.0008128	67.3910000324
1200.0	0.0008128	67.4219999313
1200.0	0.000813	67.4690001011
1200.0	0.0008135	67.5160000324
1200.0	0.0008135	67.5469999313
1200.0	0.0008138	67.5940001011
1200.0	0.0008138	67.625
1200.0	0.0008138	67.6719999313
1200.0	0.0008135	67.7190001011
1200.0	0.000813	67.75
1200.0	0.000813	67.7969999313
1200.0	0.0008135	67.8440001011
1200.0	0.0008135	67.875
1200.0	0.0008135	67.9219999313
1200.0	0.0008135	67.9539999962
1200.0	0.0008138	68.0
1200.0	0.0008135	68.0469999313
1200.0	0.0008135	68.0789999962
1200.0	0.000813	68.125
1210.0	0.0008155	68.3910000324
1210.0	0.0008165	68.4379999638
1210.0	0.0008178	68.4690001011
1210.0	0.0008188	68.5160000324
1210.0	0.0008193	68.5629999638
1210.0	0.0008193	68.5940001011
1210.0	0.0008198	68.6410000324
1210.0	0.0008198	68.6879999638
1210.0	0.00082	68.7190001011
1210.0	0.0008203	68.7660000324
1210.0	0.000821	68.8129999638
1210.0	0.0008213	68.8440001011
1210.0	0.0008218	68.8910000324
1210.0	0.0008223	68.9379999638
1210.0	0.0008223	68.9690001011
1210.0	0.0008223	69.0160000324
1210.0	0.0008223	69.0469999313
1210.0	0.0008225	69.0940001011
1210.0	0.0008228	69.1410000324
1210.0	0.0008228	69.1719999313
1210.0	0.0008225	69.2190001011
1210.0	0.0008223	69.25
1210.0	0.0008223	69.2969999313
1210.0	0.0008218	69.3440001011
1210.0	0.0008218	69.375
1210.0	0.0008218	69.4219999313
1210.0	0.0008218	69.4690001011
1210.0	0.0008225	69.5
1210.0	0.000823	69.5469999313
1210.0	0.0008228	69.5940001011
1210.0	0.0008228	69.625
1210.0	0.0008225	69.6719999313
1210.0	0.0008225	69.7039999962
1210.0	0.0008223	69.75
1210.0	0.0008218	69.7969999313
1210.0	0.0008215	69.8440001011
1220.0	0.0008265	70.1099998951
1220.0	0.0008278	70.1410000324
1220.0	0.0008288	70.1879999638
1220.0	0.0008298	70.2349998951
1220.0	0.0008305	70.2660000324
1220.0	0.0008313	70.3129999638
1220.0	0.0008318	70.3440001011
1220.0	0.0008318	70.3910000324
1220.0	0.0008323	70.4379999638
1220.0	0.0008323	70.4849998951
1220.0	0.0008325	70.5160000324
1220.0	0.0008328	70.5629999638
1220.0	0.0008328	70.5940001011
1220.0	0.0008328	70.6410000324
1220.0	0.000833	70.6879999638
1220.0	0.0008328	70.7190001011
1220.0	0.0008328	70.7660000324
1220.0	0.0008328	70.8129999638
1220.0	0.0008328	70.8440001011
1220.0	0.000833	70.8910000324
1220.0	0.0008335	70.9379999638
1220.0	0.0008335	70.9690001011
1220.0	0.0008338	71.0160000324
1220.0	0.0008335	71.0469999313
1220.0	0.0008338	71.0940001011
1220.0	0.0008335	71.1410000324
1220.0	0.0008335	71.1719999313
1220.0	0.0008338	71.2190001011
1220.0	0.0008338	71.2660000324
1220.0	0.0008338	71.2969999313
1220.0	0.0008338	71.3440001011
1220.0	0.0008335	71.375
1220.0	0.0008335	71.4219999313
1220.0	0.0008335	71.4690001011
1220.0	0.000833	71.5
1220.0	0.000833	71.5469999313
1220.0	0.0008328	71.5940001011
1230.0	0.0008378	71.8599998951
1230.0	0.00084	71.9070000648
1230.0	0.0008415	71.9379999638
1230.0	0.000843	71.9849998951
1230.0	0.0008443	72.0160000324
1230.0	0.0008448	72.0629999638
1230.0	0.0008453	72.1099998951
1230.0	0.000846	72.1410000324
1230.0	0.0008463	72.1879999638
1230.0	0.0008465	72.2349998951
1230.0	0.0008468	72.2660000324
1230.0	0.0008475	72.3129999638
1230.0	0.0008475	72.3440001011
1230.0	0.0008478	72.3910000324
1230.0	0.0008475	72.4379999638
1230.0	0.0008475	72.4690001011
1230.0	0.0008473	72.5160000324
1230.0	0.0008473	72.5629999638
1230.0	0.0008473	72.5940001011
1230.0	0.0008473	72.6410000324
1230.0	0.0008475	72.6879999638
1230.0	0.0008475	72.7190001011
1230.0	0.0008473	72.7660000324
1230.0	0.0008473	72.7969999313
1230.0	0.0008473	72.8440001011
1230.0	0.0008473	72.8910000324
1230.0	0.0008475	72.9219999313
1230.0	0.0008478	72.9690001011
1230.0	0.000848	73.0160000324
1230.0	0.000848	73.0469999313
1230.0	0.0008485	73.0940001011
1230.0	0.0008485	73.125
1230.0	0.000848	73.1719999313
1230.0	0.000848	73.2190001011
1230.0	0.0008478	73.25
1230.0	0.0008475	73.2969999313
1230.0	0.0008473	73.3440001011
1240.0	0.0008535	73.6099998951
1240.0	0.0008553	73.6570000648
1240.0	0.0008565	73.6879999638
1240.0	0.0008578	73.7349998951
1240.0	0.0008588	73.7660000324
1240.0	0.0008598	73.8129999638
1240.0	0.0008603	73.8599998951
1240.0	0.000861	73.8910000324
1240.0	0.0008605	73.9379999638
1240.0	0.000861	73.9849998951
1240.0	0.000861	74.0160000324
1240.0	0.0008613	74.0629999638
1240.0	0.0008615	74.1099998951
1240.0	0.0008618	74.1410000324
1240.0	0.0008625	74.1879999638
1240.0	0.0008623	74.2349998951
1240.0	0.0008625	74.2820000648
1240.0	0.0008623	74.3129999638
1240.0	0.0008623	74.3599998951
1240.0	0.0008623	74.3910000324
1240.0	0.0008623	74.4379999638
1240.0	0.0008623	74.4849998951
1240.0	0.0008625	74.5160000324
1240.0	0.0008628	74.5629999638
1240.0	0.0008628	74.6099998951
1240.0	0.0008628	74.6410000324
1240.0	0.0008628	74.6879999638
1240.0	0.0008628	74.7190001011
1240.0	0.0008625	74.7660000324
1240.0	0.0008625	74.8129999638
1240.0	0.0008623	74.8440001011
1240.0	0.0008625	74.8910000324
1240.0	0.0008628	74.9379999638
1240.0	0.0008625	74.9690001011
1240.0	0.0008623	75.0160000324
1240.0	0.0008625	75.0469999313
1240.0	0.0008625	75.0940001011
1250.0	0.0008675	75.3599998951
1250.0	0.000869	75.4070000648
1250.0	0.0008703	75.4379999638
1250.0	0.0008715	75.4849998951
1250.0	0.0008728	75.5320000648
1250.0	0.0008735	75.5629999638
1250.0	0.000874	75.6099998951
1250.0	0.0008748	75.6570000648
1250.0	0.0008753	75.6879999638
1250.0	0.000876	75.7349998951
1250.0	0.000876	75.7660000324
1250.0	0.000876	75.8129999638
1250.0	0.0008765	75.8599998951
1250.0	0.0008765	75.8910000324
1250.0	0.0008768	75.9379999638
1250.0	0.0008768	75.9849998951
1250.0	0.0008768	76.0160000324
1250.0	0.0008773	76.0629999638
1250.0	0.0008773	76.0940001011
1250.0	0.0008773	76.1410000324
1250.0	0.0008768	76.1879999638
1250.0	0.0008768	76.2190001011
1250.0	0.0008768	76.2660000324
1250.0	0.0008768	76.3129999638
1250.0	0.0008765	76.3440001011
1250.0	0.0008768	76.3910000324
1250.0	0.0008765	76.4379999638
1250.0	0.0008763	76.4690001011
1250.0	0.000876	76.5160000324
1250.0	0.000876	76.5469999313
1250.0	0.000876	76.5940001011
1250.0	0.000876	76.6410000324
1250.0	0.0008763	76.6719999313
1250.0	0.0008765	76.7190001011
1250.0	0.0008768	76.7660000324
1250.0	0.0008773	76.7969999313
1250.0	0.0008775	76.8440001011
1260.0	0.0008823	77.1099998951
1260.0	0.0008838	77.1570000648
1260.0	0.0008853	77.2039999962
1260.0	0.0008865	77.2349998951
1260.0	0.0008878	77.2820000648
1260.0	0.0008885	77.3289999962
1260.0	0.0008888	77.3599998951
1260.0	0.0008893	77.4070000648
1260.0	0.0008893	77.4379999638
1260.0	0.00089	77.4849998951
1260.0	0.00089	77.5320000648
1260.0	0.00089	77.5629999638
1260.0	0.00089	77.6099998951
1260.0	0.0008893	77.6570000648
1260.0	0.000889	77.6879999638
1260.0	0.000889	77.7349998951
1260.0	0.0008893	77.7660000324
1260.0	0.0008893	77.8129999638
1260.0	0.0008898	77.8599998951
1260.0	0.0008898	77.8910000324
1260.0	0.0008898	77.9379999638
1260.0	0.00089	77.9849998951
1260.0	0.00089	78.0160000324
1260.0	0.0008903	78.0629999638
1260.0	0.0008905	78.1099998951
1260.0	0.0008905	78.1410000324
1260.0	0.0008903	78.1879999638
1260.0	0.00089	78.2349998951
1260.0	0.00089	78.2660000324
1260.0	0.00089	78.3129999638
1260.0	0.00089	78.3599998951
1260.0	0.0008903	78.3910000324
1260.0	0.000891	78.4379999638
1260.0	0.000891	78.4690001011
1260.0	0.0008913	78.5160000324
1260.0	0.0008913	78.5629999638
1260.0	0.000891	78.5940001011
1270.0	0.0008943	78.8599998951
1270.0	0.0008963	78.9070000648
1270.0	0.0008975	78.9539999962
1270.0	0.0008988	78.9849998951
1270.0	0.0008993	79.0320000648
1270.0	0.0009003	79.0789999962
1270.0	0.000901	79.1099998951
1270.0	0.000901	79.1570000648
1270.0	0.0009013	79.1879999638
1270.0	0.0009015	79.2349998951
1270.0	0.0009015	79.2820000648
1270.0	0.0009013	79.3129999638
1270.0	0.0009013	79.3599998951
1270.0	0.000901	79.4070000648
1270.0	0.000901	79.4379999638
1270.0	0.000901	79.4849998951
1270.0	0.0009005	79.5160000324
1270.0	0.000901	79.5629999638
1270.0	0.0009015	79.6099998951
1270.0	0.0009015	79.6410000324
1270.0	0.0009015	79.6879999638
1270.0	0.0009018	79.7349998951
1270.0	0.0009018	79.7660000324
1270.0	0.0009023	79.8129999638
1270.0	0.0009023	79.8440001011
1270.0	0.0009023	79.8910000324
1270.0	0.0009018	79.9379999638
1270.0	0.0009018	79.9690001011
1270.0	0.0009015	80.0160000324
1270.0	0.0009015	80.0629999638
1270.0	0.0009018	80.1099998951
1270.0	0.0009018	80.1410000324
1270.0	0.0009018	80.1879999638
1270.0	0.0009018	80.2190001011
1270.0	0.0009018	80.2660000324
1270.0	0.0009018	80.3129999638
1270.0	0.0009015	80.3440001011
1280.0	0.0009038	80.6099998951
1280.0	0.000905	80.6570000648
1280.0	0.0009053	80.7039999962
1280.0	0.0009063	80.7349998951
1280.0	0.0009065	80.7820000648
1280.0	0.0009068	80.8129999638
1280.0	0.0009075	80.8599998951
1280.0	0.0009078	80.9070000648
1280.0	0.000908	80.9379999638
1280.0	0.000908	80.9849998951
1280.0	0.0009078	81.0320000648
1280.0	0.000908	81.0789999962
1280.0	0.0009078	81.1099998951
1280.0	0.0009078	81.1570000648
1280.0	0.0009078	81.1879999638
1280.0	0.0009075	81.2349998951
1280.0	0.0009075	81.2820000648
1280.0	0.0009075	81.3129999638
1280.0	0.0009078	81.3599998951
1280.0	0.0009078	81.4070000648
1280.0	0.000908	81.4379999638
1280.0	0.000908	81.4849998951
1280.0	0.000908	81.5160000324
1280.0	0.000908	81.5629999638
1280.0	0.0009078	81.6099998951
1280.0	0.0009073	81.6410000324
1280.0	0.0009075	81.6879999638
1280.0	0.0009075	81.7349998951
1280.0	0.000908	81.7660000324
1280.0	0.0009085	81.8129999638
1280.0	0.0009085	81.8599998951
1280.0	0.0009085	81.8910000324
1280.0	0.0009085	81.9379999638
1280.0	0.0009085	81.9849998951
1280.0	0.000908	82.0160000324
1280.0	0.000908	82.0629999638
1280.0	0.000908	82.1099998951
1290.0	0.000909	82.375
1290.0	0.000909	82.4070000648
1290.0	0.000909	82.4539999962
1290.0	0.0009088	82.4849998951
1290.0	0.0009088	82.5320000648
1290.0	0.0009093	82.5789999962
1290.0	0.0009098	82.6099998951
1290.0	0.0009098	82.6570000648
1290.0	0.00091	82.7039999962
1290.0	0.00091	82.7349998951
1290.0	0.0009098	82.7820000648
1290.0	0.0009098	82.8289999962
1290.0	0.00091	82.8599998951
1290.0	0.00091	82.9070000648
1290.0	0.00091	82.9539999962
1290.0	0.00091	82.9849998951
1290.0	0.0009103	83.0320000648
1290.0	0.0009103	83.0789999962
1290.0	0.0009103	83.1099998951
1290.0	0.0009103	83.1570000648
1290.0	0.0009103	83.1879999638
1290.0	0.0009103	83.2349998951
1290.0	0.0009103	83.2820000648
1290.0	0.00091	83.3129999638
1290.0	0.0009098	83.3599998951
1290.0	0.0009093	83.4070000648
1290.0	0.0009093	83.4379999638
1290.0	0.0009093	83.4849998951
1290.0	0.0009093	83.5160000324
1290.0	0.0009093	83.5629999638
1290.0	0.000909	83.6099998951
1290.0	0.000909	83.6410000324
1290.0	0.0009093	83.6879999638
1290.0	0.0009093	83.7349998951
1290.0	0.0009093	83.7660000324
1290.0	0.0009093	83.8129999638
1290.0	0.000909	83.8599998951
1300.0	0.0009078	84.1099998951
1300.0	0.0009075	84.1570000648
1300.0	0.0009068	84.2039999962
1300.0	0.0009068	84.2349998951
1300.0	0.0009068	84.2820000648
1300.0	0.0009065	84.3129999638
1300.0	0.0009065	84.3599998951
1300.0	0.0009063	84.4070000648
1300.0	0.000906	84.4539999962
1300.0	0.0009055	84.4849998951
1300.0	0.0009055	84.5320000648
1300.0	0.0009053	84.5629999638
1300.0	0.000906	84.6099998951
1300.0	0.0009065	84.6570000648
1300.0	0.0009068	84.6879999638
1300.0	0.0009068	84.7349998951
1300.0	0.0009068	84.7820000648
1300.0	0.0009068	84.8129999638
1300.0	0.0009065	84.8599998951
1300.0	0.0009065	84.9070000648
1300.0	0.0009065	84.9379999638
1300.0	0.0009065	84.9849998951
1300.0	0.0009063	85.0160000324
1300.0	0.0009065	85.0629999638
1300.0	0.0009065	85.1099998951
1300.0	0.0009063	85.1410000324
1300.0	0.0009055	85.1879999638
1300.0	0.0009055	85.2349998951
1300.0	0.0009053	85.2660000324
1300.0	0.0009053	85.3129999638
1300.0	0.0009055	85.3440001011
1300.0	0.000906	85.3910000324
1300.0	0.000906	85.4379999638
1300.0	0.0009063	85.4690001011
1300.0	0.0009063	85.5160000324
1300.0	0.0009063	85.5629999638
1300.0	0.0009063	85.5940001011
1310.0	0.0009015	85.8599998951
1310.0	0.0009003	85.9070000648
1310.0	0.000899	85.9379999638
1310.0	0.0008985	85.9849998951
1310.0	0.0008978	86.0320000648
1310.0	0.0008973	86.0629999638
1310.0	0.0008965	86.1099998951
1310.0	0.000896	86.1410000324
1310.0	0.0008953	86.1879999638
1310.0	0.0008948	86.2349998951
1310.0	0.000895	86.2660000324
1310.0	0.000895	86.3129999638
1310.0	0.000895	86.3599998951
1310.0	0.0008953	86.3910000324
1310.0	0.0008953	86.4379999638
1310.0	0.0008953	86.4690001011
1310.0	0.0008955	86.5160000324
1310.0	0.0008953	86.5629999638
1310.0	0.000896	86.5940001011
1310.0	0.000896	86.6410000324
1310.0	0.000896	86.6879999638
1310.0	0.0008963	86.7349998951
1310.0	0.000896	86.7660000324
1310.0	0.0008955	86.8129999638
1310.0	0.0008953	86.8440001011
1310.0	0.000895	86.8910000324
1310.0	0.0008948	86.9379999638
1310.0	0.0008948	86.9690001011
1310.0	0.0008948	87.0160000324
1310.0	0.0008953	87.0629999638
1310.0	0.0008953	87.0940001011
1310.0	0.0008955	87.1410000324
1310.0	0.000896	87.1719999313
1310.0	0.000896	87.2190001011
1310.0	0.000896	87.2660000324
1310.0	0.0008963	87.2969999313
1310.0	0.0008965	87.3440001011
1320.0	0.00089	87.6099998951
1320.0	0.0008875	87.6410000324
1320.0	0.000885	87.6879999638
1320.0	0.000883	87.7349998951
1320.0	0.0008815	87.7660000324
1320.0	0.0008805	87.8129999638
1320.0	0.0008793	87.8599998951
1320.0	0.0008785	87.8910000324
1320.0	0.0008778	87.9379999638
1320.0	0.0008773	87.9690001011
1320.0	0.0008768	88.0160000324
1320.0	0.0008763	88.0629999638
1320.0	0.0008763	88.0940001011
1320.0	0.0008763	88.1410000324
1320.0	0.0008765	88.1879999638
1320.0	0.0008765	88.2190001011
1320.0	0.0008763	88.2660000324
1320.0	0.000876	88.2969999313
1320.0	0.0008763	88.3440001011
1320.0	0.0008763	88.3910000324
1320.0	0.0008768	88.4219999313
1320.0	0.0008773	88.4690001011
1320.0	0.0008775	88.5160000324
1320.0	0.0008775	88.5469999313
1320.0	0.0008773	88.5940001011
1320.0	0.0008773	88.625
1320.0	0.0008773	88.6719999313
1320.0	0.0008768	88.7190001011
1320.0	0.0008768	88.75
1320.0	0.0008768	88.7969999313
1320.0	0.0008773	88.8440001011
1320.0	0.0008778	88.875
1320.0	0.0008778	88.9219999313
1320.0	0.0008775	88.9690001011
1320.0	0.0008775	89.0
1320.0	0.0008773	89.0469999313
1320.0	0.0008778	89.0940001011
1330.0	0.0008693	89.3440001011
1330.0	0.000865	89.3910000324
1330.0	0.0008618	89.4379999638
1330.0	0.000859	89.4690001011
1330.0	0.0008565	89.5160000324
1330.0	0.0008548	89.5629999638
1330.0	0.0008535	89.5940001011
1330.0	0.0008523	89.6410000324
1330.0	0.0008515	89.6879999638
1330.0	0.000851	89.7190001011
1330.0	0.0008505	89.7660000324
1330.0	0.0008503	89.7969999313
1330.0	0.00085	89.8440001011
1330.0	0.0008503	89.8910000324
1330.0	0.0008503	89.9219999313
1330.0	0.0008503	89.9690001011
1330.0	0.0008505	90.0
1330.0	0.000851	90.0469999313
1330.0	0.000851	90.0940001011
1330.0	0.000851	90.125
1330.0	0.000851	90.1719999313
1330.0	0.000851	90.2190001011
1330.0	0.000851	90.25
1330.0	0.0008505	90.2969999313
1330.0	0.0008505	90.3440001011
1330.0	0.0008505	90.375
1330.0	0.0008505	90.4219999313
1330.0	0.0008503	90.4539999962
1330.0	0.0008503	90.5
1330.0	0.0008505	90.5469999313
1330.0	0.000851	90.5789999962
1330.0	0.0008515	90.625
1330.0	0.0008513	90.6719999313
1330.0	0.0008513	90.7039999962
1330.0	0.0008513	90.75
1330.0	0.0008505	90.7969999313
1330.0	0.0008503	90.8289999962
1340.0	0.000839	91.0940001011
1340.0	0.0008348	91.1410000324
1340.0	0.000831	91.1719999313
1340.0	0.000828	91.2190001011
1340.0	0.000826	91.2660000324
1340.0	0.000824	91.2969999313
1340.0	0.0008223	91.3440001011
1340.0	0.000821	91.3910000324
1340.0	0.0008198	91.4219999313
1340.0	0.000819	91.4690001011
1340.0	0.0008185	91.5
1340.0	0.000818	91.5469999313
1340.0	0.0008178	91.5940001011
1340.0	0.0008178	91.625
1340.0	0.0008178	91.6719999313
1340.0	0.0008175	91.7190001011
1340.0	0.0008175	91.75
1340.0	0.0008175	91.7969999313
1340.0	0.0008175	91.8289999962
1340.0	0.0008173	91.875
1340.0	0.0008168	91.9219999313
1340.0	0.0008165	91.9539999962
1340.0	0.0008168	92.0
1340.0	0.0008168	92.0469999313
1340.0	0.0008165	92.0789999962
1340.0	0.0008165	92.125
1340.0	0.0008165	92.1719999313
1340.0	0.0008165	92.2039999962
1340.0	0.0008165	92.25
1340.0	0.0008168	92.2820000648
1340.0	0.0008173	92.3289999962
1340.0	0.0008175	92.375
1340.0	0.0008178	92.4070000648
1340.0	0.0008178	92.4539999962
1340.0	0.0008178	92.5
1340.0	0.0008178	92.5320000648
1340.0	0.000818	92.5789999962
1350.0	0.0008043	92.8440001011
1350.0	0.0007993	92.875
1350.0	0.0007953	92.9219999313
1350.0	0.0007923	92.9539999962
1350.0	0.0007893	93.0
1350.0	0.0007873	93.0469999313
1350.0	0.0007853	93.0789999962
1350.0	0.000784	93.125
1350.0	0.000783	93.1719999313
1350.0	0.0007823	93.2039999962
1350.0	0.0007818	93.25
1350.0	0.0007815	93.2969999313
1350.0	0.0007815	93.3289999962
1350.0	0.0007815	93.375
1350.0	0.0007815	93.4070000648
1350.0	0.0007815	93.4539999962
1350.0	0.0007815	93.5
1350.0	0.0007818	93.5469999313
1350.0	0.0007815	93.5789999962
1350.0	0.0007815	93.625
1350.0	0.0007813	93.6719999313
1350.0	0.0007815	93.7039999962
1350.0	0.0007813	93.75
1350.0	0.000781	93.7969999313
1350.0	0.0007805	93.8289999962
1350.0	0.0007805	93.875
1350.0	0.0007803	93.9070000648
1350.0	0.00078	93.9539999962
1350.0	0.0007798	94.0
1350.0	0.0007798	94.0320000648
1350.0	0.00078	94.0789999962
1350.0	0.0007803	94.125
1350.0	0.0007803	94.1570000648
1350.0	0.00078	94.2039999962
1350.0	0.00078	94.25
1350.0	0.00078	94.2820000648
1350.0	0.0007798	94.3289999962
1360.0	0.0007665	94.5940001011
1360.0	0.0007613	94.625
1360.0	0.0007568	94.6719999313
1360.0	0.000753	94.7039999962
1360.0	0.00075	94.75
1360.0	0.0007475	94.7969999313
1360.0	0.0007455	94.8289999962
1360.0	0.000744	94.875
1360.0	0.0007428	94.9219999313
1360.0	0.0007423	94.9690001011
1360.0	0.0007413	95.0
1360.0	0.0007405	95.0469999313
1360.0	0.0007403	95.0789999962
1360.0	0.00074	95.125
1360.0	0.0007393	95.1719999313
1360.0	0.0007388	95.2039999962
1360.0	0.0007385	95.25
1360.0	0.000738	95.2969999313
1360.0	0.0007378	95.3289999962
1360.0	0.0007375	95.375
1360.0	0.0007375	95.4070000648
1360.0	0.0007373	95.4539999962
1360.0	0.0007378	95.5
1360.0	0.0007378	95.5320000648
1360.0	0.0007375	95.5789999962
1360.0	0.0007378	95.625
1360.0	0.0007375	95.6570000648
1360.0	0.0007378	95.7039999962
1360.0	0.0007375	95.75
1360.0	0.0007375	95.7820000648
1360.0	0.0007375	95.8289999962
1360.0	0.0007375	95.875
1360.0	0.0007373	95.9070000648
1360.0	0.0007373	95.9539999962
1360.0	0.0007368	96.0
1360.0	0.0007363	96.0320000648
1360.0	0.0007363	96.0789999962
1370.0	0.0007243	96.3440001011
1370.0	0.0007193	96.375
1370.0	0.0007153	96.4219999313
1370.0	0.0007123	96.4539999962
1370.0	0.0007093	96.5
1370.0	0.0007073	96.5469999313
1370.0	0.0007053	96.5789999962
1370.0	0.0007038	96.625
1370.0	0.0007025	96.6719999313
1370.0	0.0007015	96.7039999962
1370.0	0.000701	96.75
1370.0	0.0007005	96.7969999313
1370.0	0.000701	96.8289999962
1370.0	0.0007013	96.875
1370.0	0.0007013	96.9070000648
1370.0	0.000701	96.9539999962
1370.0	0.000701	97.0
1370.0	0.000701	97.0320000648
1370.0	0.000701	97.0789999962
1370.0	0.0007005	97.125
1370.0	0.0007003	97.1570000648
1370.0	0.0007005	97.2039999962
1370.0	0.0007005	97.2349998951
1370.0	0.0007005	97.2820000648
1370.0	0.0007005	97.3289999962
1370.0	0.0007003	97.3599998951
1370.0	0.0007005	97.4070000648
1370.0	0.000701	97.4539999962
1370.0	0.000701	97.4849998951
1370.0	0.000701	97.5320000648
1370.0	0.0007013	97.5629999638
1370.0	0.0007013	97.6099998951
1370.0	0.0007013	97.6570000648
1370.0	0.000701	97.6879999638
1370.0	0.000701	97.7349998951
1370.0	0.000701	97.7820000648
1370.0	0.0007013	97.8129999638
1380.0	0.0006888	98.0789999962
1380.0	0.000684	98.125
1380.0	0.0006803	98.1719999313
1380.0	0.0006773	98.2039999962
1380.0	0.0006743	98.25
1380.0	0.0006725	98.2820000648
1380.0	0.0006713	98.3289999962
1380.0	0.0006703	98.375
1380.0	0.0006698	98.4070000648
1380.0	0.0006693	98.4539999962
1380.0	0.0006688	98.5
1380.0	0.0006685	98.5320000648
1380.0	0.0006678	98.5789999962
1380.0	0.0006675	98.625
1380.0	0.0006673	98.6570000648
1380.0	0.0006673	98.7039999962
1380.0	0.0006673	98.75
1380.0	0.0006675	98.7820000648
1380.0	0.0006675	98.8289999962
1380.0	0.0006678	98.8599998951
1380.0	0.0006678	98.9070000648
1380.0	0.0006678	98.9539999962
1380.0	0.0006678	98.9849998951
1380.0	0.0006673	99.0320000648
1380.0	0.0006668	99.0789999962
1380.0	0.0006668	99.1099998951
1380.0	0.0006668	99.1570000648
1380.0	0.0006668	99.2039999962
1380.0	0.0006673	99.2349998951
1380.0	0.0006673	99.2820000648
1380.0	0.0006673	99.3129999638
1380.0	0.0006675	99.3599998951
1380.0	0.0006675	99.4070000648
1380.0	0.0006675	99.4379999638
1380.0	0.0006675	99.4849998951
1380.0	0.0006675	99.5320000648
1380.0	0.0006678	99.5629999638
1390.0	0.0006573	99.8289999962
1390.0	0.000653	99.875
1390.0	0.00065	99.9219999313
1390.0	0.0006473	99.9539999962
1390.0	0.0006453	100.0
1390.0	0.0006435	100.046999931
1390.0	0.0006418	100.078999996
1390.0	0.000641	100.125
1390.0	0.0006403	100.171999931
1390.0	0.0006398	100.203999996
1390.0	0.0006398	100.25
1390.0	0.0006398	100.282000065
1390.0	0.0006393	100.328999996
1390.0	0.0006395	100.375
1390.0	0.0006393	100.407000065
1390.0	0.0006393	100.453999996
1390.0	0.000639	100.5
1390.0	0.0006388	100.532000065
1390.0	0.0006388	100.578999996
1390.0	0.0006388	100.609999895
1390.0	0.0006388	100.657000065
1390.0	0.0006383	100.703999996
1390.0	0.000638	100.734999895
1390.0	0.000638	100.782000065
1390.0	0.000638	100.828999996
1390.0	0.0006383	100.859999895
1390.0	0.0006383	100.907000065
1390.0	0.0006383	100.953999996
1390.0	0.0006383	100.984999895
1390.0	0.0006383	101.032000065
1390.0	0.0006388	101.062999964
1390.0	0.0006388	101.109999895
1390.0	0.0006393	101.157000065
1390.0	0.0006393	101.187999964
1390.0	0.0006398	101.234999895
1390.0	0.0006398	101.282000065
1390.0	0.0006398	101.312999964
1400.0	0.0006305	101.578999996
1400.0	0.0006268	101.625
1400.0	0.0006238	101.657000065
1400.0	0.0006218	101.703999996
1400.0	0.0006195	101.75
1400.0	0.0006188	101.796999931
1400.0	0.0006178	101.828999996
1400.0	0.000617	101.875
1400.0	0.0006168	101.921999931
1400.0	0.0006165	101.953999996
1400.0	0.0006163	102.0
1400.0	0.0006158	102.032000065
1400.0	0.0006158	102.078999996
1400.0	0.0006163	102.125
1400.0	0.0006165	102.157000065
1400.0	0.0006163	102.203999996
1400.0	0.0006163	102.25
1400.0	0.0006163	102.282000065
1400.0	0.0006163	102.328999996
1400.0	0.0006163	102.359999895
1400.0	0.0006163	102.407000065
1400.0	0.0006158	102.453999996
1400.0	0.0006155	102.5
1400.0	0.0006155	102.532000065
1400.0	0.0006155	102.578999996
1400.0	0.0006158	102.625
1400.0	0.0006155	102.657000065
1400.0	0.0006155	102.703999996
1400.0	0.0006155	102.75
1400.0	0.0006155	102.782000065
1400.0	0.0006155	102.828999996
1400.0	0.0006155	102.875
1400.0	0.0006155	102.907000065
1400.0	0.0006155	102.953999996
1400.0	0.0006155	102.984999895
1400.0	0.0006155	103.032000065
1410.0	0.000608	103.296999931
1410.0	0.0006058	103.344000101
1410.0	0.0006043	103.375
1410.0	0.0006028	103.421999931
1410.0	0.0006018	103.469000101
1410.0	0.0006005	103.5
1410.0	0.0005995	103.546999931
1410.0	0.0005993	103.594000101
1410.0	0.000599	103.625
1410.0	0.0005988	103.671999931
1410.0	0.0005988	103.703999996
1410.0	0.000599	103.75
1410.0	0.000599	103.796999931
1410.0	0.0005988	103.828999996
1410.0	0.0005983	103.875
1410.0	0.000598	103.921999931
1410.0	0.000598	103.953999996
1410.0	0.0005975	104.0
1410.0	0.000597	104.032000065
1410.0	0.000597	104.078999996
1410.0	0.000597	104.125
1410.0	0.000597	104.157000065
1410.0	0.0005975	104.203999996
1410.0	0.0005975	104.25
1410.0	0.0005978	104.282000065
1410.0	0.0005978	104.328999996
1410.0	0.000598	104.359999895
1410.0	0.0005983	104.407000065
1410.0	0.0005983	104.453999996
1410.0	0.000598	104.484999895
1410.0	0.000598	104.532000065
1410.0	0.0005978	104.578999996
1410.0	0.000598	104.609999895
1410.0	0.0005983	104.657000065
1410.0	0.0005988	104.703999996
1410.0	0.0005988	104.734999895
1410.0	0.0005983	104.782000065
1420.0	0.0005928	105.046999931
1420.0	0.0005915	105.078999996
1420.0	0.0005903	105.125
1420.0	0.00059	105.171999931
1420.0	0.0005893	105.203999996
1420.0	0.0005883	105.25
1420.0	0.000588	105.296999931
1420.0	0.0005875	105.328999996
1420.0	0.000587	105.375
1420.0	0.0005868	105.421999931
1420.0	0.0005868	105.453999996
1420.0	0.0005868	105.5
1420.0	0.0005868	105.532000065
1420.0	0.0005868	105.578999996
1420.0	0.0005868	105.625
1420.0	0.0005865	105.657000065
1420.0	0.0005868	105.703999996
1420.0	0.000587	105.75
1420.0	0.0005868	105.782000065
1420.0	0.000587	105.828999996
1420.0	0.0005868	105.859999895
1420.0	0.0005865	105.907000065
1420.0	0.0005865	105.953999996
1420.0	0.0005865	105.984999895
1420.0	0.0005863	106.032000065
1420.0	0.0005863	106.078999996
1420.0	0.0005858	106.109999895
1420.0	0.0005858	106.157000065
1420.0	0.0005863	106.187999964
1420.0	0.0005863	106.234999895
1420.0	0.0005865	106.282000065
1420.0	0.0005865	106.312999964
1420.0	0.0005868	106.359999895
1420.0	0.0005868	106.407000065
1420.0	0.000587	106.437999964
1420.0	0.0005868	106.484999895
1420.0	0.0005868	106.532000065
1430.0	0.0005843	106.796999931
1430.0	0.0005838	106.844000101
1430.0	0.0005833	106.875
1430.0	0.000583	106.921999931
1430.0	0.0005828	106.969000101
1430.0	0.0005825	107.0
1430.0	0.0005828	107.046999931
1430.0	0.0005825	107.094000101
1430.0	0.0005825	107.125
1430.0	0.0005825	107.171999931
1430.0	0.0005828	107.219000101
1430.0	0.0005828	107.25
1430.0	0.0005833	107.296999931
1430.0	0.0005833	107.328999996
1430.0	0.0005833	107.375
1430.0	0.0005838	107.421999931
1430.0	0.0005833	107.453999996
1430.0	0.0005833	107.5
1430.0	0.0005833	107.546999931
1430.0	0.0005833	107.594000101
1430.0	0.0005833	107.625
1430.0	0.000583	107.671999931
1430.0	0.000583	107.703999996
1430.0	0.000583	107.75
1430.0	0.000583	107.796999931
1430.0	0.000583	107.844000101
1430.0	0.0005828	107.875
1430.0	0.0005828	107.921999931
1430.0	0.0005825	107.969000101
1430.0	0.0005828	108.0
1430.0	0.0005825	108.046999931
1430.0	0.0005825	108.094000101
1430.0	0.0005825	108.125
1430.0	0.000582	108.171999931
1430.0	0.0005825	108.219000101
1430.0	0.0005825	108.25
1440.0	0.0005828	108.532000065
1440.0	0.0005833	108.562999964
1440.0	0.0005833	108.609999895
1440.0	0.0005838	108.641000032
1440.0	0.0005838	108.687999964
1440.0	0.0005838	108.734999895
1440.0	0.0005843	108.766000032
1440.0	0.0005843	108.812999964
1440.0	0.000584	108.859999895
1440.0	0.000584	108.891000032
1440.0	0.0005838	108.937999964
1440.0	0.000584	108.969000101
1440.0	0.0005843	109.016000032
1440.0	0.0005845	109.062999964
1440.0	0.000585	109.094000101
1440.0	0.000585	109.141000032
1440.0	0.000585	109.187999964
1440.0	0.000585	109.219000101
1440.0	0.0005845	109.266000032
1440.0	0.0005843	109.296999931
1440.0	0.0005843	109.344000101
1440.0	0.0005843	109.391000032
1440.0	0.0005843	109.421999931
1440.0	0.0005845	109.469000101
1440.0	0.0005845	109.516000032
1440.0	0.0005853	109.562999964
1440.0	0.000585	109.594000101
1440.0	0.000585	109.641000032
1440.0	0.000585	109.687999964
1440.0	0.000585	109.719000101
1440.0	0.0005853	109.766000032
1440.0	0.0005853	109.812999964
1440.0	0.000585	109.844000101
1440.0	0.0005853	109.891000032
1440.0	0.000585	109.937999964
1440.0	0.0005845	109.969000101
1440.0	0.0005843	110.016000032
1450.0	0.0005863	110.282000065
1450.0	0.000587	110.328999996
1450.0	0.0005883	110.359999895
1450.0	0.0005893	110.407000065
1450.0	0.00059	110.453999996
1450.0	0.0005903	110.484999895
1450.0	0.0005905	110.532000065
1450.0	0.0005913	110.562999964
1450.0	0.0005915	110.609999895
1450.0	0.0005918	110.657000065
1450.0	0.000592	110.687999964
1450.0	0.000592	110.734999895
1450.0	0.0005925	110.782000065
1450.0	0.0005925	110.812999964
1450.0	0.0005928	110.859999895
1450.0	0.0005928	110.891000032
1450.0	0.0005928	110.937999964
1450.0	0.0005925	110.984999895
1450.0	0.000592	111.016000032
1450.0	0.0005918	111.062999964
1450.0	0.0005918	111.109999895
1450.0	0.0005918	111.141000032
1450.0	0.0005918	111.187999964
1450.0	0.0005918	111.234999895
1450.0	0.0005918	111.266000032
1450.0	0.0005918	111.312999964
1450.0	0.000592	111.359999895
1450.0	0.000592	111.391000032
1450.0	0.0005918	111.437999964
1450.0	0.0005915	111.484999895
1450.0	0.0005913	111.516000032
1450.0	0.0005908	111.562999964
1450.0	0.0005913	111.594000101
1450.0	0.0005913	111.641000032
1450.0	0.0005913	111.687999964
1450.0	0.0005913	111.719000101
1450.0	0.0005913	111.766000032
1460.0	0.0005943	112.032000065
1460.0	0.0005963	112.078999996
1460.0	0.0005975	112.109999895
1460.0	0.000599	112.157000065
1460.0	0.0006003	112.203999996
1460.0	0.0006013	112.234999895
1460.0	0.0006018	112.282000065
1460.0	0.0006018	112.312999964
1460.0	0.000602	112.359999895
1460.0	0.000602	112.407000065
1460.0	0.0006018	112.437999964
1460.0	0.0006018	112.484999895
1460.0	0.0006018	112.532000065
1460.0	0.000602	112.562999964
1460.0	0.0006025	112.609999895
1460.0	0.0006025	112.657000065
1460.0	0.0006025	112.687999964
1460.0	0.0006025	112.734999895
1460.0	0.000602	112.782000065
1460.0	0.0006025	112.812999964
1460.0	0.0006025	112.859999895
1460.0	0.0006028	112.891000032
1460.0	0.0006033	112.937999964
1460.0	0.0006033	112.984999895
1460.0	0.0006033	113.016000032
1460.0	0.000603	113.062999964
1460.0	0.000603	113.109999895
1460.0	0.000603	113.141000032
1460.0	0.0006033	113.187999964
1460.0	0.0006033	113.234999895
1460.0	0.0006033	113.266000032
1460.0	0.0006038	113.312999964
1460.0	0.0006038	113.344000101
1460.0	0.0006033	113.391000032
1460.0	0.000603	113.437999964
1460.0	0.000603	113.469000101
1460.0	0.0006025	113.516000032
1470.0	0.0006058	113.782000065
1470.0	0.0006078	113.828999996
1470.0	0.0006093	113.859999895
1470.0	0.0006105	113.907000065
1470.0	0.0006118	113.937999964
1470.0	0.0006128	113.984999895
1470.0	0.000613	114.032000065
1470.0	0.0006138	114.062999964
1470.0	0.000614	114.109999895
1470.0	0.0006143	114.157000065
1470.0	0.0006143	114.187999964
1470.0	0.0006143	114.234999895
1470.0	0.0006143	114.282000065
1470.0	0.0006145	114.312999964
1470.0	0.0006145	114.359999895
1470.0	0.000615	114.391000032
1470.0	0.000615	114.437999964
1470.0	0.0006155	114.484999895
1470.0	0.0006158	114.516000032
1470.0	0.0006155	114.562999964
1470.0	0.0006153	114.609999895
1470.0	0.0006155	114.641000032
1470.0	0.0006155	114.687999964
1470.0	0.0006153	114.719000101
1470.0	0.0006153	114.766000032
1470.0	0.000615	114.812999964
1470.0	0.000615	114.844000101
1470.0	0.000615	114.891000032
1470.0	0.0006153	114.937999964
1470.0	0.0006155	114.969000101
1470.0	0.0006155	115.016000032
1470.0	0.0006155	115.062999964
1470.0	0.0006158	115.094000101
1470.0	0.0006155	115.141000032
1470.0	0.0006155	115.171999931
1470.0	0.0006155	115.219000101
1470.0	0.0006155	115.266000032
1480.0	0.00062	115.532000065
1480.0	0.0006213	115.562999964
1480.0	0.0006225	115.609999895
1480.0	0.0006233	115.657000065
1480.0	0.000624	115.687999964
1480.0	0.0006245	115.734999895
1480.0	0.0006253	115.766000032
1480.0	0.0006258	115.812999964
1480.0	0.0006263	115.859999895
1480.0	0.0006265	115.891000032
1480.0	0.0006268	115.937999964
1480.0	0.0006268	115.984999895
1480.0	0.0006268	116.016000032
1480.0	0.000627	116.062999964
1480.0	0.0006275	116.094000101
1480.0	0.0006275	116.141000032
1480.0	0.0006275	116.187999964
1480.0	0.0006275	116.219000101
1480.0	0.0006275	116.266000032
1480.0	0.0006275	116.312999964
1480.0	0.0006278	116.344000101
1480.0	0.000628	116.391000032
1480.0	0.0006283	116.437999964
1480.0	0.000628	116.469000101
1480.0	0.000628	116.516000032
1480.0	0.0006278	116.546999931
1480.0	0.0006275	116.594000101
1480.0	0.000627	116.641000032
1480.0	0.000627	116.671999931
1480.0	0.0006268	116.719000101
1480.0	0.0006268	116.766000032
1480.0	0.0006268	116.796999931
1480.0	0.0006265	116.844000101
1480.0	0.0006265	116.875
1480.0	0.0006265	116.921999931
1480.0	0.0006265	116.969000101
1480.0	0.0006268	117.0
1490.0	0.0006305	117.282000065
1490.0	0.000632	117.312999964
1490.0	0.000633	117.359999895
1490.0	0.0006333	117.407000065
1490.0	0.0006338	117.437999964
1490.0	0.000634	117.484999895
1490.0	0.0006343	117.532000065
1490.0	0.0006343	117.562999964
1490.0	0.0006343	117.609999895
1490.0	0.0006345	117.657000065
1490.0	0.000635	117.687999964
1490.0	0.0006353	117.734999895
1490.0	0.0006353	117.766000032
1490.0	0.0006353	117.812999964
1490.0	0.0006353	117.859999895
1490.0	0.0006353	117.891000032
1490.0	0.000635	117.937999964
1490.0	0.000635	117.984999895
1490.0	0.0006353	118.016000032
1490.0	0.0006353	118.062999964
1490.0	0.0006353	118.109999895
1490.0	0.0006353	118.141000032
1490.0	0.000635	118.187999964
1490.0	0.0006353	118.219000101
1490.0	0.000635	118.266000032
1490.0	0.0006345	118.312999964
1490.0	0.000635	118.344000101
1490.0	0.000635	118.391000032
1490.0	0.000635	118.437999964
1490.0	0.0006345	118.469000101
1490.0	0.0006343	118.516000032
1490.0	0.000634	118.546999931
1490.0	0.000634	118.594000101
1490.0	0.000634	118.641000032
1490.0	0.000634	118.671999931
1490.0	0.000634	118.719000101
1490.0	0.0006343	118.766000032
1500.0	0.0006365	119.032000065
1500.0	0.0006368	119.078999996
1500.0	0.0006375	119.109999895
1500.0	0.000638	119.157000065
1500.0	0.0006383	119.187999964
1500.0	0.0006388	119.234999895
1500.0	0.000639	119.282000065
1500.0	0.0006393	119.312999964
1500.0	0.0006395	119.359999895
1500.0	0.0006398	119.407000065
1500.0	0.0006398	119.437999964
1500.0	0.0006403	119.484999895
1500.0	0.00064	119.532000065
1500.0	0.00064	119.562999964
1500.0	0.0006398	119.609999895
1500.0	0.00064	119.657000065
1500.0	0.0006398	119.687999964
1500.0	0.0006398	119.734999895
1500.0	0.0006398	119.782000065
1500.0	0.0006398	119.812999964
1500.0	0.0006398	119.859999895
1500.0	0.0006398	119.891000032
1500.0	0.00064	119.937999964
1500.0	0.00064	119.984999895
1500.0	0.00064	120.016000032
1500.0	0.00064	120.062999964
1500.0	0.00064	120.109999895
1500.0	0.0006398	120.141000032
1500.0	0.0006398	120.187999964
1500.0	0.0006398	120.219000101
1500.0	0.0006398	120.266000032
1500.0	0.0006398	120.312999964
1500.0	0.0006398	120.344000101
1500.0	0.0006398	120.391000032
1500.0	0.0006398	120.437999964
1500.0	0.0006398	120.469000101
1500.0	0.0006398	120.516000032
1510.0	0.000641	120.782000065
1510.0	0.000641	120.828999996
1510.0	0.000641	120.859999895
1510.0	0.0006413	120.907000065
1510.0	0.0006415	120.953999996
1510.0	0.0006418	120.984999895
1510.0	0.0006423	121.032000065
1510.0	0.0006425	121.078999996
1510.0	0.0006425	121.109999895
1510.0	0.0006428	121.157000065
1510.0	0.0006428	121.187999964
1510.0	0.000643	121.234999895
1510.0	0.0006428	121.282000065
1510.0	0.0006425	121.312999964
1510.0	0.0006425	121.359999895
1510.0	0.000643	121.407000065
1510.0	0.0006435	121.437999964
1510.0	0.0006435	121.484999895
1510.0	0.0006435	121.516000032
1510.0	0.0006435	121.562999964
1510.0	0.0006435	121.609999895
1510.0	0.0006435	121.641000032
1510.0	0.0006435	121.687999964
1510.0	0.0006438	121.734999895
1510.0	0.0006438	121.766000032
1510.0	0.000644	121.812999964
1510.0	0.000644	121.859999895
1510.0	0.0006438	121.891000032
1510.0	0.0006438	121.937999964
1510.0	0.000644	121.969000101
1510.0	0.0006443	122.016000032
1510.0	0.0006443	122.062999964
1510.0	0.0006443	122.094000101
1510.0	0.0006443	122.141000032
1510.0	0.000644	122.187999964
1510.0	0.000644	122.219000101
1510.0	0.0006443	122.266000032
1520.0	0.0006448	122.546999931
1520.0	0.0006453	122.578999996
1520.0	0.0006453	122.625
1520.0	0.0006453	122.671999931
1520.0	0.0006453	122.703999996
1520.0	0.0006453	122.75
1520.0	0.0006453	122.782000065
1520.0	0.0006455	122.828999996
1520.0	0.0006453	122.875
1520.0	0.0006453	122.907000065
1520.0	0.0006453	122.953999996
1520.0	0.0006453	123.0
1520.0	0.0006453	123.032000065
1520.0	0.0006453	123.078999996
1520.0	0.000645	123.109999895
1520.0	0.0006453	123.157000065
1520.0	0.0006455	123.203999996
1520.0	0.0006455	123.234999895
1520.0	0.0006455	123.282000065
1520.0	0.0006453	123.328999996
1520.0	0.0006453	123.359999895
1520.0	0.0006455	123.407000065
1520.0	0.000646	123.437999964
1520.0	0.0006463	123.484999895
1520.0	0.0006465	123.532000065
1520.0	0.0006465	123.562999964
1520.0	0.0006468	123.609999895
1520.0	0.0006468	123.657000065
1520.0	0.0006468	123.703999996
1520.0	0.0006463	123.734999895
1520.0	0.000646	123.782000065
1520.0	0.0006455	123.812999964
1520.0	0.0006455	123.859999895
1520.0	0.0006453	123.907000065
1520.0	0.0006453	123.937999964
1520.0	0.0006455	123.984999895
1520.0	0.0006453	124.032000065
1530.0	0.0006455	124.296999931
1530.0	0.0006453	124.344000101
1530.0	0.000645	124.375
1530.0	0.0006453	124.421999931
1530.0	0.0006453	124.469000101
1530.0	0.0006453	124.5
1530.0	0.0006453	124.546999931
1530.0	0.0006448	124.594000101
1530.0	0.0006443	124.625
1530.0	0.0006443	124.671999931
1530.0	0.0006443	124.703999996
1530.0	0.0006443	124.75
1530.0	0.000644	124.796999931
1530.0	0.000644	124.828999996
1530.0	0.0006438	124.875
1530.0	0.0006435	124.921999931
1530.0	0.000643	124.953999996
1530.0	0.0006428	125.0
1530.0	0.0006425	125.032000065
1530.0	0.0006425	125.078999996
1530.0	0.0006428	125.125
1530.0	0.000643	125.157000065
1530.0	0.000643	125.203999996
1530.0	0.0006428	125.25
1530.0	0.000643	125.296999931
1530.0	0.000643	125.328999996
1530.0	0.000643	125.375
1530.0	0.0006435	125.407000065
1530.0	0.0006435	125.453999996
1530.0	0.0006435	125.5
1530.0	0.0006435	125.532000065
1530.0	0.000643	125.578999996
1530.0	0.0006435	125.625
1530.0	0.0006435	125.657000065
1530.0	0.0006435	125.703999996
1530.0	0.0006435	125.734999895
1530.0	0.0006435	125.782000065
1540.0	0.0006405	126.062999964
1540.0	0.00064	126.094000101
1540.0	0.0006395	126.141000032
1540.0	0.0006388	126.171999931
1540.0	0.000638	126.219000101
1540.0	0.0006375	126.266000032
1540.0	0.000637	126.296999931
1540.0	0.000637	126.344000101
1540.0	0.0006368	126.391000032
1540.0	0.000637	126.421999931
1540.0	0.0006375	126.469000101
1540.0	0.0006375	126.516000032
1540.0	0.0006375	126.546999931
1540.0	0.0006368	126.594000101
1540.0	0.0006363	126.625
1540.0	0.0006363	126.671999931
1540.0	0.0006363	126.719000101
1540.0	0.0006363	126.75
1540.0	0.0006365	126.796999931
1540.0	0.0006365	126.844000101
1540.0	0.0006368	126.875
1540.0	0.0006368	126.921999931
1540.0	0.0006368	126.969000101
1540.0	0.0006375	127.0
1540.0	0.0006375	127.046999931
1540.0	0.0006378	127.094000101
1540.0	0.0006378	127.125
1540.0	0.0006375	127.171999931
1540.0	0.000637	127.219000101
1540.0	0.000637	127.25
1540.0	0.0006375	127.296999931
1540.0	0.0006378	127.328999996
1540.0	0.0006378	127.375
1540.0	0.0006375	127.421999931
1540.0	0.0006375	127.453999996
1540.0	0.0006375	127.5
1540.0	0.0006375	127.546999931
1550.0	0.000633	127.812999964
1550.0	0.0006315	127.859999895
1550.0	0.0006305	127.891000032
1550.0	0.0006295	127.937999964
1550.0	0.000629	127.984999895
1550.0	0.0006288	128.016000032
1550.0	0.0006278	128.062999964
1550.0	0.0006278	128.109999895
1550.0	0.0006278	128.141000032
1550.0	0.0006278	128.187999964
1550.0	0.0006278	128.219000101
1550.0	0.0006275	128.266000032
1550.0	0.0006268	128.312999964
1550.0	0.0006268	128.344000101
1550.0	0.0006268	128.391000032
1550.0	0.0006268	128.437999964
1550.0	0.0006265	128.469000101
1550.0	0.0006265	128.516000032
1550.0	0.0006268	128.546999931
1550.0	0.0006268	128.594000101
1550.0	0.0006268	128.641000032
1550.0	0.000627	128.671999931
1550.0	0.000627	128.719000101
1550.0	0.000627	128.766000032
1550.0	0.000627	128.796999931
1550.0	0.000627	128.844000101
1550.0	0.000627	128.891000032
1550.0	0.0006278	128.921999931
1550.0	0.000628	128.969000101
1550.0	0.000628	129.0
1550.0	0.000628	129.046999931
1550.0	0.0006283	129.094000101
1550.0	0.0006283	129.125
1550.0	0.0006288	129.171999931
1550.0	0.0006288	129.219000101
1550.0	0.000629	129.25
1550.0	0.0006288	129.296999931
1560.0	0.0006228	129.562999964
1560.0	0.0006205	129.609999895
1560.0	0.000619	129.657000065
1560.0	0.0006175	129.687999964
1560.0	0.0006163	129.734999895
1560.0	0.0006153	129.782000065
1560.0	0.000615	129.812999964
1560.0	0.0006145	129.859999895
1560.0	0.0006143	129.891000032
1560.0	0.000614	129.937999964
1560.0	0.000614	129.984999895
1560.0	0.000614	130.016000032
1560.0	0.000614	130.062999964
1560.0	0.000614	130.109999895
1560.0	0.0006143	130.141000032
1560.0	0.0006145	130.187999964
1560.0	0.0006145	130.234999895
1560.0	0.000615	130.266000032
1560.0	0.0006145	130.312999964
1560.0	0.0006145	130.359999895
1560.0	0.000615	130.391000032
1560.0	0.000615	130.437999964
1560.0	0.0006145	130.484999895
1560.0	0.0006143	130.516000032
1560.0	0.0006138	130.562999964
1560.0	0.0006133	130.594000101
1560.0	0.000613	130.641000032
1560.0	0.0006128	130.687999964
1560.0	0.000613	130.719000101
1560.0	0.000613	130.766000032
1560.0	0.000613	130.812999964
1560.0	0.000613	130.844000101
1560.0	0.000613	130.891000032
1560.0	0.0006133	130.937999964
1560.0	0.0006138	130.969000101
1560.0	0.0006138	131.016000032
1560.0	0.000614	131.062999964
1570.0	0.0006063	131.328999996
1570.0	0.0006038	131.375
1570.0	0.0006015	131.407000065
1570.0	0.0005995	131.453999996
1570.0	0.0005983	131.5
1570.0	0.0005975	131.532000065
1570.0	0.0005965	131.578999996
1570.0	0.0005958	131.625
1570.0	0.0005953	131.657000065
1570.0	0.000595	131.703999996
1570.0	0.0005945	131.734999895
1570.0	0.0005945	131.782000065
1570.0	0.0005945	131.828999996
1570.0	0.0005945	131.859999895
1570.0	0.0005945	131.907000065
1570.0	0.0005945	131.953999996
1570.0	0.0005943	131.984999895
1570.0	0.000594	132.032000065
1570.0	0.000594	132.078999996
1570.0	0.0005938	132.109999895
1570.0	0.0005938	132.157000065
1570.0	0.0005938	132.187999964
1570.0	0.000594	132.234999895
1570.0	0.000594	132.282000065
1570.0	0.0005943	132.312999964
1570.0	0.0005945	132.359999895
1570.0	0.0005945	132.407000065
1570.0	0.0005945	132.437999964
1570.0	0.0005945	132.484999895
1570.0	0.0005945	132.516000032
1570.0	0.0005945	132.562999964
1570.0	0.000595	132.609999895
1570.0	0.0005945	132.641000032
1570.0	0.0005943	132.687999964
1570.0	0.000594	132.734999895
1570.0	0.000594	132.766000032
1570.0	0.0005933	132.812999964
1580.0	0.0005843	133.078999996
1580.0	0.0005808	133.125
1580.0	0.0005783	133.157000065
1580.0	0.0005765	133.203999996
1580.0	0.0005745	133.25
1580.0	0.000573	133.282000065
1580.0	0.0005718	133.328999996
1580.0	0.0005708	133.375
1580.0	0.0005705	133.407000065
1580.0	0.0005705	133.453999996
1580.0	0.0005703	133.484999895
1580.0	0.00057	133.532000065
1580.0	0.0005695	133.578999996
1580.0	0.0005693	133.625
1580.0	0.0005693	133.657000065
1580.0	0.000569	133.703999996
1580.0	0.0005688	133.734999895
1580.0	0.0005688	133.782000065
1580.0	0.0005688	133.828999996
1580.0	0.0005688	133.859999895
1580.0	0.0005688	133.907000065
1580.0	0.0005688	133.953999996
1580.0	0.0005688	133.984999895
1580.0	0.0005688	134.032000065
1580.0	0.000569	134.078999996
1580.0	0.000569	134.109999895
1580.0	0.0005688	134.157000065
1580.0	0.0005688	134.187999964
1580.0	0.000569	134.234999895
1580.0	0.0005693	134.282000065
1580.0	0.0005693	134.312999964
1580.0	0.0005693	134.359999895
1580.0	0.000569	134.407000065
1580.0	0.0005688	134.437999964
1580.0	0.0005688	134.484999895
1580.0	0.0005688	134.532000065
1590.0	0.0005578	134.796999931
1590.0	0.0005533	134.844000101
1590.0	0.0005505	134.891000032
1590.0	0.000548	134.921999931
1590.0	0.0005458	134.969000101
1590.0	0.0005443	135.0
1590.0	0.000543	135.046999931
1590.0	0.0005425	135.094000101
1590.0	0.0005418	135.125
1590.0	0.0005413	135.171999931
1590.0	0.0005405	135.219000101
1590.0	0.0005403	135.25
1590.0	0.0005403	135.296999931
1590.0	0.0005403	135.344000101
1590.0	0.0005405	135.375
1590.0	0.0005403	135.421999931
1590.0	0.0005403	135.469000101
1590.0	0.00054	135.5
1590.0	0.00054	135.546999931
1590.0	0.0005393	135.578999996
1590.0	0.000539	135.625
1590.0	0.0005388	135.671999931
1590.0	0.0005383	135.703999996
1590.0	0.0005383	135.75
1590.0	0.0005383	135.796999931
1590.0	0.0005388	135.828999996
1590.0	0.0005388	135.875
1590.0	0.000539	135.921999931
1590.0	0.000539	135.953999996
1590.0	0.0005393	136.0
1590.0	0.0005393	136.032000065
1590.0	0.0005393	136.078999996
1590.0	0.00054	136.125
1590.0	0.00054	136.171999931
1590.0	0.00054	136.203999996
1590.0	0.00054	136.25
1590.0	0.0005395	136.282000065
1600.0	0.0005275	136.562999964
1600.0	0.000523	136.609999895
1600.0	0.0005195	136.641000032
1600.0	0.0005165	136.687999964
1600.0	0.000514	136.734999895
1600.0	0.0005125	136.766000032
1600.0	0.0005115	136.812999964
1600.0	0.00051	136.859999895
1600.0	0.0005095	136.891000032
1600.0	0.000509	136.937999964
1600.0	0.0005088	136.969000101
1600.0	0.0005083	137.016000032
1600.0	0.0005083	137.062999964
1600.0	0.000508	137.094000101
1600.0	0.000508	137.141000032
1600.0	0.000508	137.171999931
1600.0	0.0005083	137.219000101
1600.0	0.0005083	137.266000032
1600.0	0.0005083	137.296999931
1600.0	0.0005088	137.344000101
1600.0	0.0005083	137.391000032
1600.0	0.000508	137.421999931
1600.0	0.0005083	137.469000101
1600.0	0.0005088	137.5
1600.0	0.0005088	137.546999931
1600.0	0.000509	137.594000101
1600.0	0.000509	137.625
1600.0	0.000509	137.671999931
1600.0	0.0005088	137.719000101
1600.0	0.0005088	137.75
1600.0	0.000508	137.796999931
1600.0	0.000508	137.844000101
1600.0	0.000508	137.875
1600.0	0.0005078	137.921999931
1600.0	0.0005075	137.953999996
1600.0	0.0005075	138.0
1600.0	0.0005075	138.046999931
1610.0	0.0004938	138.328999996
1610.0	0.0004888	138.359999895
1610.0	0.0004845	138.407000065
1610.0	0.0004815	138.437999964
1610.0	0.000479	138.484999895
1610.0	0.0004768	138.532000065
1610.0	0.0004753	138.562999964
1610.0	0.000474	138.609999895
1610.0	0.0004728	138.657000065
1610.0	0.000472	138.687999964
1610.0	0.0004718	138.734999895
1610.0	0.0004715	138.782000065
1610.0	0.0004715	138.812999964
1610.0	0.0004715	138.859999895
1610.0	0.0004715	138.891000032
1610.0	0.0004718	138.937999964
1610.0	0.0004718	138.984999895
1610.0	0.0004718	139.016000032
1610.0	0.000472	139.062999964
1610.0	0.0004715	139.109999895
1610.0	0.0004715	139.141000032
1610.0	0.0004713	139.187999964
1610.0	0.0004713	139.219000101
1610.0	0.0004708	139.266000032
1610.0	0.0004705	139.312999964
1610.0	0.0004708	139.344000101
1610.0	0.0004708	139.391000032
1610.0	0.0004708	139.437999964
1610.0	0.0004713	139.469000101
1610.0	0.0004715	139.516000032
1610.0	0.0004715	139.562999964
1610.0	0.0004715	139.594000101
1610.0	0.0004713	139.641000032
1610.0	0.0004713	139.687999964
1610.0	0.0004708	139.719000101
1610.0	0.0004708	139.766000032
1610.0	0.0004713	139.796999931
1620.0	0.0004563	140.078999996
1620.0	0.0004505	140.125
1620.0	0.0004463	140.171999931
1620.0	0.0004425	140.203999996
1620.0	0.00044	140.25
1620.0	0.0004378	140.282000065
1620.0	0.0004363	140.328999996
1620.0	0.000435	140.375
1620.0	0.0004343	140.407000065
1620.0	0.0004333	140.453999996
1620.0	0.000433	140.5
1620.0	0.0004328	140.532000065
1620.0	0.0004325	140.578999996
1620.0	0.0004325	140.625
1620.0	0.000432	140.657000065
1620.0	0.0004315	140.703999996
1620.0	0.0004315	140.734999895
1620.0	0.0004315	140.782000065
1620.0	0.0004315	140.828999996
1620.0	0.0004315	140.859999895
1620.0	0.0004315	140.907000065
1620.0	0.0004315	140.953999996
1620.0	0.0004313	140.984999895
1620.0	0.0004313	141.032000065
1620.0	0.0004308	141.062999964
1620.0	0.0004308	141.109999895
1620.0	0.0004313	141.157000065
1620.0	0.0004313	141.187999964
1620.0	0.0004318	141.234999895
1620.0	0.0004318	141.282000065
1620.0	0.0004318	141.312999964
1620.0	0.0004318	141.359999895
1620.0	0.000432	141.391000032
1620.0	0.0004318	141.437999964
1620.0	0.0004318	141.484999895
1620.0	0.0004318	141.532000065
1620.0	0.0004315	141.578999996
1630.0	0.0004165	141.844000101
1630.0	0.0004113	141.891000032
1630.0	0.0004068	141.937999964
1630.0	0.0004033	141.969000101
1630.0	0.0004003	142.016000032
1630.0	0.0003975	142.046999931
1630.0	0.0003955	142.094000101
1630.0	0.0003943	142.141000032
1630.0	0.0003933	142.187999964
1630.0	0.0003928	142.219000101
1630.0	0.000392	142.266000032
1630.0	0.0003918	142.312999964
1630.0	0.0003915	142.344000101
1630.0	0.0003913	142.391000032
1630.0	0.0003908	142.421999931
1630.0	0.0003908	142.469000101
1630.0	0.0003908	142.516000032
1630.0	0.0003905	142.546999931
1630.0	0.0003905	142.594000101
1630.0	0.0003905	142.641000032
1630.0	0.0003905	142.671999931
1630.0	0.0003908	142.719000101
1630.0	0.0003913	142.75
1630.0	0.0003915	142.796999931
1630.0	0.0003915	142.844000101
1630.0	0.0003918	142.875
1630.0	0.0003918	142.921999931
1630.0	0.000392	142.969000101
1630.0	0.0003925	143.0
1630.0	0.000392	143.046999931
1630.0	0.0003925	143.078999996
1630.0	0.0003925	143.125
1630.0	0.0003925	143.171999931
1630.0	0.000392	143.203999996
1630.0	0.000392	143.25
1630.0	0.0003925	143.296999931
1630.0	0.0003925	143.328999996
1640.0	0.0003755	143.625
1640.0	0.0003703	143.657000065
1640.0	0.0003658	143.703999996
1640.0	0.0003628	143.75
1640.0	0.0003603	143.782000065
1640.0	0.0003583	143.828999996
1640.0	0.0003565	143.859999895
1640.0	0.0003555	143.907000065
1640.0	0.0003545	143.953999996
1640.0	0.0003543	143.984999895
1640.0	0.0003538	144.032000065
1640.0	0.0003533	144.078999996
1640.0	0.0003528	144.109999895
1640.0	0.0003528	144.157000065
1640.0	0.0003528	144.203999996
1640.0	0.0003528	144.234999895
1640.0	0.0003525	144.282000065
1640.0	0.000352	144.328999996
1640.0	0.000352	144.359999895
1640.0	0.0003518	144.407000065
1640.0	0.0003518	144.453999996
1640.0	0.0003515	144.484999895
1640.0	0.0003515	144.532000065
1640.0	0.0003518	144.562999964
1640.0	0.0003518	144.609999895
1640.0	0.000352	144.657000065
1640.0	0.0003525	144.687999964
1640.0	0.000352	144.734999895
1640.0	0.0003525	144.782000065
1640.0	0.0003525	144.812999964
1640.0	0.0003525	144.859999895
1640.0	0.0003525	144.907000065
1640.0	0.0003525	144.953999996
1640.0	0.000352	144.984999895
1640.0	0.000352	145.032000065
1640.0	0.000352	145.062999964
1640.0	0.000352	145.109999895
1650.0	0.0003365	145.391000032
1650.0	0.0003313	145.437999964
1650.0	0.000327	145.484999895
1650.0	0.000324	145.516000032
1650.0	0.0003213	145.562999964
1650.0	0.0003195	145.594000101
1650.0	0.000318	145.641000032
1650.0	0.0003168	145.687999964
1650.0	0.0003163	145.719000101
1650.0	0.0003155	145.766000032
1650.0	0.000315	145.796999931
1650.0	0.0003143	145.844000101
1650.0	0.000314	145.891000032
1650.0	0.000314	145.921999931
1650.0	0.0003143	145.969000101
1650.0	0.0003143	146.016000032
1650.0	0.000314	146.062999964
1650.0	0.0003138	146.094000101
1650.0	0.0003138	146.141000032
1650.0	0.0003138	146.171999931
1650.0	0.0003133	146.219000101
1650.0	0.000313	146.266000032
1650.0	0.000313	146.296999931
1650.0	0.000313	146.344000101
1650.0	0.0003128	146.391000032
1650.0	0.0003125	146.421999931
1650.0	0.0003125	146.469000101
1650.0	0.000312	146.5
1650.0	0.000312	146.546999931
1650.0	0.0003125	146.594000101
1650.0	0.0003125	146.625
1650.0	0.0003125	146.671999931
1650.0	0.0003128	146.719000101
1650.0	0.0003128	146.75
1650.0	0.0003125	146.796999931
1650.0	0.0003128	146.828999996
1660.0	0.000299	147.125
1660.0	0.0002943	147.157000065
1660.0	0.0002903	147.203999996
1660.0	0.000287	147.25
1660.0	0.000285	147.282000065
1660.0	0.0002833	147.328999996
1660.0	0.000282	147.359999895
1660.0	0.0002808	147.407000065
1660.0	0.0002803	147.453999996
1660.0	0.0002793	147.484999895
1660.0	0.0002788	147.532000065
1660.0	0.000278	147.578999996
1660.0	0.0002778	147.609999895
1660.0	0.0002775	147.657000065
1660.0	0.0002768	147.687999964
1660.0	0.0002765	147.734999895
1660.0	0.0002765	147.782000065
1660.0	0.0002768	147.812999964
1660.0	0.000277	147.859999895
1660.0	0.000277	147.907000065
1660.0	0.000277	147.937999964
1660.0	0.0002775	147.984999895
1660.0	0.0002778	148.016000032
1660.0	0.000278	148.062999964
1660.0	0.000278	148.109999895
1660.0	0.0002778	148.141000032
1660.0	0.0002778	148.187999964
1660.0	0.0002775	148.234999895
1660.0	0.0002778	148.266000032
1660.0	0.0002778	148.312999964
1660.0	0.0002775	148.359999895
1660.0	0.0002775	148.391000032
1660.0	0.000277	148.437999964
1660.0	0.000277	148.469000101
1660.0	0.000277	148.516000032
1660.0	0.0002768	148.562999964
1660.0	0.000277	148.594000101
1670.0	0.0002655	148.875
1670.0	0.0002613	148.921999931
1670.0	0.0002578	148.969000101
1670.0	0.000255	149.0
1670.0	0.000253	149.046999931
1670.0	0.0002515	149.094000101
1670.0	0.00025	149.125
1670.0	0.0002488	149.171999931
1670.0	0.000248	149.203999996
1670.0	0.0002475	149.25
1670.0	0.000247	149.296999931
1670.0	0.0002468	149.328999996
1670.0	0.000247	149.375
1670.0	0.0002468	149.421999931
1670.0	0.0002465	149.453999996
1670.0	0.0002465	149.5
1670.0	0.0002465	149.532000065
1670.0	0.0002463	149.578999996
1670.0	0.0002463	149.625
1670.0	0.0002458	149.657000065
1670.0	0.0002458	149.703999996
1670.0	0.0002458	149.75
1670.0	0.0002458	149.782000065
1670.0	0.0002458	149.828999996
1670.0	0.0002463	149.859999895
1670.0	0.0002465	149.907000065
1670.0	0.0002465	149.953999996
1670.0	0.0002465	149.984999895
1670.0	0.0002465	150.032000065
1670.0	0.0002465	150.078999996
1670.0	0.0002468	150.109999895
1670.0	0.0002468	150.157000065
1670.0	0.0002468	150.203999996
1670.0	0.0002465	150.234999895
1670.0	0.0002468	150.282000065
1670.0	0.000247	150.312999964
1670.0	0.0002468	150.359999895
1680.0	0.0002355	150.641000032
1680.0	0.000232	150.687999964
1680.0	0.0002293	150.734999895
1680.0	0.0002268	150.766000032
1680.0	0.0002243	150.812999964
1680.0	0.000223	150.859999895
1680.0	0.0002218	150.891000032
1680.0	0.0002208	150.937999964
1680.0	0.0002203	150.969000101
1680.0	0.0002195	151.016000032
1680.0	0.0002195	151.062999964
1680.0	0.00022	151.109999895
1680.0	0.0002195	151.141000032
1680.0	0.0002195	151.187999964
1680.0	0.0002193	151.234999895
1680.0	0.000219	151.266000032
1680.0	0.000219	151.312999964
1680.0	0.0002188	151.344000101
1680.0	0.0002183	151.391000032
1680.0	0.000218	151.437999964
1680.0	0.0002183	151.484999895
1680.0	0.0002183	151.516000032
1680.0	0.0002188	151.562999964
1680.0	0.0002188	151.609999895
1680.0	0.0002183	151.641000032
1680.0	0.000218	151.687999964
1680.0	0.0002183	151.734999895
1680.0	0.0002183	151.766000032
1680.0	0.000218	151.812999964
1680.0	0.0002178	151.844000101
1680.0	0.0002178	151.891000032
1680.0	0.0002175	151.937999964
1680.0	0.0002175	151.969000101
1680.0	0.0002178	152.016000032
1680.0	0.0002175	152.062999964
1680.0	0.0002178	152.094000101
1680.0	0.0002178	152.141000032
1690.0	0.0002078	152.421999931
1690.0	0.0002045	152.469000101
1690.0	0.0002018	152.5
1690.0	0.0001995	152.546999931
1690.0	0.000198	152.594000101
1690.0	0.0001965	152.625
1690.0	0.0001955	152.671999931
1690.0	0.0001945	152.719000101
1690.0	0.0001943	152.75
1690.0	0.000194	152.796999931
1690.0	0.0001938	152.844000101
1690.0	0.0001938	152.875
1690.0	0.0001938	152.921999931
1690.0	0.0001938	152.953999996
1690.0	0.0001938	153.0
1690.0	0.0001938	153.046999931
1690.0	0.0001938	153.094000101
1690.0	0.0001938	153.125
1690.0	0.0001938	153.171999931
1690.0	0.0001938	153.203999996
1690.0	0.0001938	153.25
1690.0	0.0001933	153.296999931
1690.0	0.0001933	153.328999996
1690.0	0.000193	153.375
1690.0	0.000193	153.421999931
1690.0	0.000193	153.453999996
1690.0	0.0001928	153.5
1690.0	0.000193	153.532000065
1690.0	0.000193	153.578999996
1690.0	0.000193	153.625
1690.0	0.0001928	153.657000065
1690.0	0.000193	153.703999996
1690.0	0.000193	153.75
1690.0	0.0001933	153.782000065
1690.0	0.000193	153.828999996
1690.0	0.0001928	153.859999895
1690.0	0.000193	153.907000065
1700.0	0.0001843	154.203999996
1700.0	0.0001818	154.234999895
1700.0	0.0001795	154.282000065
1700.0	0.000178	154.328999996
1700.0	0.0001765	154.375
1700.0	0.000175	154.407000065
1700.0	0.0001738	154.453999996
1700.0	0.0001728	154.484999895
1700.0	0.000172	154.532000065
1700.0	0.0001718	154.578999996
1700.0	0.0001715	154.609999895
1700.0	0.0001715	154.657000065
1700.0	0.0001713	154.703999996
1700.0	0.0001713	154.734999895
1700.0	0.0001708	154.782000065
1700.0	0.0001708	154.828999996
1700.0	0.0001705	154.859999895
1700.0	0.0001705	154.907000065
1700.0	0.0001703	154.937999964
1700.0	0.0001703	154.984999895
1700.0	0.0001703	155.032000065
1700.0	0.0001705	155.062999964
1700.0	0.0001705	155.109999895
1700.0	0.0001705	155.157000065
1700.0	0.0001703	155.187999964
1700.0	0.0001703	155.234999895
1700.0	0.0001703	155.282000065
1700.0	0.00017	155.312999964
1700.0	0.0001703	155.359999895
1700.0	0.0001703	155.407000065
1700.0	0.0001703	155.437999964
1700.0	0.0001705	155.484999895
1700.0	0.0001705	155.516000032
1700.0	0.0001713	155.562999964
1700.0	0.0001715	155.609999895
1700.0	0.0001713	155.641000032
1700.0	0.0001713	155.687999964
1710.0	0.000163	155.969000101
1710.0	0.0001605	156.016000032
1710.0	0.000159	156.062999964
1710.0	0.0001575	156.094000101
1710.0	0.0001563	156.141000032
1710.0	0.000155	156.171999931
1710.0	0.000154	156.219000101
1710.0	0.0001538	156.266000032
1710.0	0.000153	156.296999931
1710.0	0.0001525	156.344000101
1710.0	0.0001525	156.391000032
1710.0	0.000152	156.421999931
1710.0	0.0001518	156.469000101
1710.0	0.0001518	156.516000032
1710.0	0.0001515	156.546999931
1710.0	0.0001515	156.594000101
1710.0	0.0001518	156.625
1710.0	0.0001518	156.671999931
1710.0	0.000152	156.719000101
1710.0	0.000152	156.75
1710.0	0.0001525	156.796999931
1710.0	0.0001525	156.844000101
1710.0	0.000152	156.875
1710.0	0.0001518	156.921999931
1710.0	0.0001518	156.969000101
1710.0	0.0001515	157.0
1710.0	0.0001518	157.046999931
1710.0	0.0001515	157.094000101
1710.0	0.0001515	157.125
1710.0	0.0001515	157.171999931
1710.0	0.0001518	157.203999996
1710.0	0.0001515	157.25
1710.0	0.0001515	157.296999931
1710.0	0.0001518	157.344000101
1710.0	0.000152	157.375
1710.0	0.0001525	157.421999931
1710.0	0.0001525	157.453999996
1720.0	0.000145	157.75
1720.0	0.0001425	157.796999931
1720.0	0.0001413	157.828999996
1720.0	0.00014	157.875
1720.0	0.0001388	157.921999931
1720.0	0.000138	157.953999996
1720.0	0.000137	158.0
1720.0	0.0001368	158.046999931
1720.0	0.0001365	158.078999996
1720.0	0.0001365	158.125
1720.0	0.0001365	158.157000065
1720.0	0.0001365	158.203999996
1720.0	0.0001363	158.25
1720.0	0.0001358	158.282000065
1720.0	0.0001358	158.328999996
1720.0	0.0001358	158.375
1720.0	0.0001363	158.407000065
1720.0	0.0001355	158.453999996
1720.0	0.000135	158.484999895
1720.0	0.000135	158.532000065
1720.0	0.000135	158.578999996
1720.0	0.0001353	158.609999895
1720.0	0.0001355	158.657000065
1720.0	0.0001355	158.703999996
1720.0	0.0001358	158.734999895
1720.0	0.0001363	158.782000065
1720.0	0.0001363	158.828999996
1720.0	0.0001363	158.859999895
1720.0	0.0001363	158.907000065
1720.0	0.0001363	158.937999964
1720.0	0.0001365	158.984999895
1720.0	0.0001363	159.032000065
1720.0	0.0001363	159.062999964
1720.0	0.0001363	159.109999895
1720.0	0.0001358	159.157000065
1720.0	0.0001365	159.187999964
1720.0	0.0001368	159.234999895
1730.0	0.0001303	159.516000032
1730.0	0.000128	159.562999964
1730.0	0.0001268	159.609999895
1730.0	0.0001255	159.641000032
1730.0	0.0001245	159.687999964
1730.0	0.0001243	159.734999895
1730.0	0.000124	159.766000032
1730.0	0.0001238	159.812999964
1730.0	0.0001238	159.859999895
1730.0	0.0001238	159.891000032
1730.0	0.0001238	159.937999964
1730.0	0.0001238	159.969000101
1730.0	0.000124	160.016000032
1730.0	0.000124	160.062999964
1730.0	0.0001243	160.094000101
1730.0	0.000124	160.141000032
1730.0	0.000124	160.171999931
1730.0	0.000124	160.219000101
1730.0	0.0001238	160.266000032
1730.0	0.0001233	160.296999931
1730.0	0.0001238	160.344000101
1730.0	0.000123	160.391000032
1730.0	0.000123	160.421999931
1730.0	0.0001228	160.469000101
1730.0	0.000122	160.516000032
1730.0	0.000122	160.546999931
1730.0	0.000122	160.594000101
1730.0	0.0001225	160.625
1730.0	0.0001225	160.671999931
1730.0	0.000122	160.719000101
1730.0	0.0001218	160.75
1730.0	0.000122	160.796999931
1730.0	0.000122	160.844000101
1730.0	0.0001225	160.875
1730.0	0.0001225	160.921999931
1730.0	0.0001228	160.969000101
1730.0	0.0001228	161.0
1740.0	0.0001175	161.296999931
1740.0	0.0001163	161.344000101
1740.0	0.0001145	161.391000032
1740.0	0.000114	161.421999931
1740.0	0.0001133	161.469000101
1740.0	0.0001128	161.5
1740.0	0.000112	161.546999931
1740.0	0.0001118	161.594000101
1740.0	0.0001113	161.625
1740.0	0.0001113	161.671999931
1740.0	0.0001108	161.719000101
1740.0	0.0001105	161.75
1740.0	0.0001105	161.796999931
1740.0	0.0001105	161.828999996
1740.0	0.0001105	161.875
1740.0	0.00011	161.921999931
1740.0	0.0001095	161.953999996
1740.0	0.00011	162.0
1740.0	0.00011	162.046999931
1740.0	0.00011	162.078999996
1740.0	0.00011	162.125
1740.0	0.00011	162.171999931
1740.0	0.0001103	162.203999996
1740.0	0.0001105	162.25
1740.0	0.00011	162.296999931
1740.0	0.00011	162.328999996
1740.0	0.00011	162.375
1740.0	0.00011	162.421999931
1740.0	0.0001103	162.453999996
1740.0	0.00011	162.5
1740.0	0.0001095	162.532000065
1740.0	0.0001095	162.578999996
1740.0	0.0001095	162.625
1740.0	0.0001093	162.657000065
1740.0	0.0001095	162.703999996
1740.0	0.00011	162.75
1750.0	0.0001058	163.032000065
1750.0	0.0001043	163.078999996
1750.0	0.0001033	163.125
1750.0	0.0001025	163.157000065
1750.0	0.0001018	163.203999996
1750.0	0.0001013	163.25
1750.0	0.0001005	163.282000065
1750.0	0.0001003	163.328999996
1750.0	0.0001003	163.359999895
1750.0	0.0001	163.407000065
1750.0	0.0001	163.453999996
1750.0	0.0001003	163.484999895
1750.0	0.0001003	163.532000065
1750.0	0.0001003	163.578999996
1750.0	0.0001005	163.609999895
1750.0	0.0001003	163.657000065
1750.0	0.0001	163.703999996
1750.0	9.95e-05	163.734999895
1750.0	9.95e-05	163.782000065
1750.0	0.0001	163.812999964
1750.0	9.95e-05	163.859999895
1750.0	0.0001	163.907000065
1750.0	0.0001	163.937999964
1750.0	0.0001003	163.984999895
1750.0	0.0001005	164.032000065
1750.0	0.0001005	164.062999964
1750.0	0.0001	164.109999895
1750.0	0.0001	164.141000032
1750.0	0.0001	164.187999964
1750.0	0.0001	164.234999895
1750.0	0.0001	164.266000032
1750.0	9.95e-05	164.312999964
1750.0	9.95e-05	164.359999895
1750.0	9.93e-05	164.391000032
1750.0	9.93e-05	164.437999964
1750.0	9.93e-05	164.484999895
1750.0	9.95e-05	164.516000032
1760.0	9.43e-05	164.828999996
1760.0	9.3e-05	164.859999895
1760.0	9.2e-05	164.907000065
1760.0	9.15e-05	164.937999964
1760.0	9.13e-05	164.984999895
1760.0	9.05e-05	165.032000065
1760.0	9.03e-05	165.062999964
1760.0	9e-05	165.109999895
1760.0	8.95e-05	165.157000065
1760.0	8.93e-05	165.187999964
1760.0	8.9e-05	165.234999895
1760.0	8.93e-05	165.266000032
1760.0	8.9e-05	165.312999964
1760.0	8.93e-05	165.359999895
1760.0	8.95e-05	165.391000032
1760.0	8.95e-05	165.437999964
1760.0	8.95e-05	165.484999895
1760.0	8.93e-05	165.516000032
1760.0	8.93e-05	165.562999964
1760.0	8.9e-05	165.609999895
1760.0	8.88e-05	165.641000032
1760.0	8.88e-05	165.687999964
1760.0	8.88e-05	165.734999895
1760.0	8.83e-05	165.766000032
1760.0	8.88e-05	165.812999964
1760.0	8.9e-05	165.859999895
1760.0	8.9e-05	165.891000032
1760.0	8.93e-05	165.937999964
1760.0	8.95e-05	165.969000101
1760.0	9e-05	166.016000032
1760.0	9e-05	166.062999964
1760.0	8.95e-05	166.094000101
1760.0	8.95e-05	166.141000032
1760.0	8.93e-05	166.187999964
1760.0	8.95e-05	166.219000101
1760.0	8.95e-05	166.266000032
1760.0	8.95e-05	166.296999931
1770.0	8.5e-05	166.609999895
1770.0	8.38e-05	166.657000065
1770.0	8.28e-05	166.687999964
1770.0	8.18e-05	166.734999895
1770.0	8.08e-05	166.766000032
1770.0	8.03e-05	166.812999964
1770.0	8.03e-05	166.859999895
1770.0	8.03e-05	166.891000032
1770.0	8.03e-05	166.937999964
1770.0	8e-05	166.984999895
1770.0	8e-05	167.016000032
1770.0	8e-05	167.062999964
1770.0	7.93e-05	167.094000101
1770.0	7.93e-05	167.141000032
1770.0	7.93e-05	167.187999964
1770.0	7.93e-05	167.219000101
1770.0	7.9e-05	167.266000032
1770.0	7.9e-05	167.312999964
1770.0	7.93e-05	167.344000101
1770.0	8e-05	167.391000032
1770.0	8.03e-05	167.421999931
1770.0	8.03e-05	167.469000101
1770.0	8.03e-05	167.516000032
1770.0	8.03e-05	167.546999931
1770.0	8.03e-05	167.594000101
1770.0	8.05e-05	167.641000032
1770.0	8.05e-05	167.671999931
1770.0	8.05e-05	167.719000101
1770.0	8.03e-05	167.75
1770.0	8e-05	167.796999931
1770.0	8e-05	167.844000101
1770.0	8e-05	167.875
1770.0	7.95e-05	167.921999931
1770.0	7.95e-05	167.969000101
1770.0	7.95e-05	168.0
1770.0	7.93e-05	168.046999931
1770.0	7.93e-05	168.094000101
1780.0	7.53e-05	168.391000032
1780.0	7.4e-05	168.437999964
1780.0	7.3e-05	168.469000101
1780.0	7.2e-05	168.516000032
1780.0	7.15e-05	168.562999964
1780.0	7.15e-05	168.594000101
1780.0	7.15e-05	168.641000032
1780.0	7.13e-05	168.687999964
1780.0	7.13e-05	168.734999895
1780.0	7.13e-05	168.766000032
1780.0	7.08e-05	168.812999964
1780.0	7.08e-05	168.844000101
1780.0	7.08e-05	168.891000032
1780.0	7.08e-05	168.937999964
1780.0	7.13e-05	168.969000101
1780.0	7.13e-05	169.016000032
1780.0	7.05e-05	169.062999964
1780.0	7.03e-05	169.094000101
1780.0	7e-05	169.141000032
1780.0	7e-05	169.171999931
1780.0	7e-05	169.219000101
1780.0	7e-05	169.266000032
1780.0	7e-05	169.296999931
1780.0	7.05e-05	169.344000101
1780.0	7.05e-05	169.391000032
1780.0	7.08e-05	169.421999931
1780.0	7.08e-05	169.469000101
1780.0	7.08e-05	169.516000032
1780.0	7.08e-05	169.546999931
1780.0	7.05e-05	169.594000101
1780.0	7.03e-05	169.641000032
1780.0	6.95e-05	169.671999931
1780.0	6.93e-05	169.719000101
1780.0	6.95e-05	169.766000032
1780.0	6.95e-05	169.796999931
1780.0	6.95e-05	169.844000101
1790.0	6.65e-05	170.157000065
1790.0	6.53e-05	170.187999964
1790.0	6.45e-05	170.234999895
1790.0	6.4e-05	170.266000032
1790.0	6.33e-05	170.312999964
1790.0	6.3e-05	170.359999895
1790.0	6.28e-05	170.407000065
1790.0	6.28e-05	170.437999964
1790.0	6.25e-05	170.484999895
1790.0	6.25e-05	170.516000032
1790.0	6.25e-05	170.562999964
1790.0	6.28e-05	170.609999895
1790.0	6.25e-05	170.641000032
1790.0	6.25e-05	170.687999964
1790.0	6.2e-05	170.719000101
1790.0	6.2e-05	170.766000032
1790.0	6.2e-05	170.812999964
1790.0	6.25e-05	170.844000101
1790.0	6.28e-05	170.891000032
1790.0	6.25e-05	170.937999964
1790.0	6.28e-05	170.969000101
1790.0	6.28e-05	171.016000032
1790.0	6.2e-05	171.062999964
1790.0	6.18e-05	171.094000101
1790.0	6.15e-05	171.141000032
1790.0	6.15e-05	171.187999964
1790.0	6.18e-05	171.234999895
1790.0	6.18e-05	171.266000032
1790.0	6.2e-05	171.312999964
1790.0	6.25e-05	171.344000101
1790.0	6.2e-05	171.391000032
1790.0	6.25e-05	171.437999964
1790.0	6.2e-05	171.469000101
1790.0	6.18e-05	171.516000032
1790.0	6.18e-05	171.562999964
1790.0	6.2e-05	171.594000101
1790.0	6.2e-05	171.641000032
1800.0	5.88e-05	171.937999964
1800.0	5.7e-05	171.984999895
1800.0	5.65e-05	172.016000032
1800.0	5.58e-05	172.062999964
1800.0	5.53e-05	172.109999895
1800.0	5.5e-05	172.141000032
1800.0	5.43e-05	172.187999964
1800.0	5.4e-05	172.234999895
1800.0	5.38e-05	172.266000032
1800.0	5.38e-05	172.312999964
1800.0	5.33e-05	172.344000101
1800.0	5.33e-05	172.391000032
1800.0	5.33e-05	172.437999964
1800.0	5.33e-05	172.469000101
1800.0	5.38e-05	172.516000032
1800.0	5.38e-05	172.562999964
1800.0	5.4e-05	172.594000101
1800.0	5.4e-05	172.641000032
1800.0	5.4e-05	172.671999931
1800.0	5.43e-05	172.719000101
1800.0	5.4e-05	172.766000032
1800.0	5.43e-05	172.812999964
1800.0	5.45e-05	172.844000101
1800.0	5.45e-05	172.891000032
1800.0	5.43e-05	172.921999931
1800.0	5.43e-05	172.969000101
1800.0	5.43e-05	173.016000032
1800.0	5.4e-05	173.046999931
1800.0	5.38e-05	173.094000101
1800.0	5.38e-05	173.141000032
1800.0	5.33e-05	173.171999931
1800.0	5.33e-05	173.219000101
1800.0	5.38e-05	173.25
1800.0	5.38e-05	173.296999931
1800.0	5.38e-05	173.344000101
1800.0	5.38e-05	173.375
1800.0	5.38e-05	173.421999931
