Your edit line - do NOT delete this line
Wavelength [nm], Voltage [V], Elapsed time [s]
800.0	3.47e-05	16.0
800.0	3.4e-05	16.0320000648
800.0	3.37e-05	16.0789999962
800.0	3.33e-05	16.1100001335
800.0	3.31e-05	16.1410000324
800.0	3.26e-05	16.1880002022
800.0	3.26e-05	16.2190001011
800.0	3.27e-05	16.2660000324
800.0	3.31e-05	16.2970001698
800.0	3.31e-05	16.3289999962
800.0	3.26e-05	16.375
800.0	3.22e-05	16.4070000648
800.0	3.2e-05	16.4380002022
800.0	3.2e-05	16.4850001335
800.0	3.25e-05	16.5160000324
800.0	3.25e-05	16.5470001698
800.0	3.25e-05	16.5940001011
800.0	3.27e-05	16.625
800.0	3.27e-05	16.6720001698
800.0	3.31e-05	16.7039999962
800.0	3.35e-05	16.7350001335
800.0	3.35e-05	16.7820000648
800.0	3.33e-05	16.8130002022
800.0	3.33e-05	16.8440001011
800.0	3.32e-05	16.8910000324
800.0	3.35e-05	16.9220001698
800.0	3.37e-05	16.9690001011
800.0	3.37e-05	17.0
800.0	3.35e-05	17.0320000648
800.0	3.33e-05	17.0789999962
800.0	3.31e-05	17.1100001335
800.0	3.25e-05	17.1410000324
800.0	3.21e-05	17.1880002022
800.0	3.18e-05	17.2190001011
800.0	3.15e-05	17.25
800.0	3.15e-05	17.2970001698
800.0	3.16e-05	17.3289999962
800.0	3.15e-05	17.375
800.0	3.18e-05	17.4070000648
800.0	3.22e-05	17.4380002022
800.0	3.25e-05	17.4850001335
810.0	3.25e-05	17.8130002022
810.0	3.22e-05	17.8440001011
810.0	3.26e-05	17.875
810.0	3.28e-05	17.9220001698
810.0	3.32e-05	17.9539999962
810.0	3.35e-05	18.0
810.0	3.37e-05	18.0320000648
810.0	3.37e-05	18.0630002022
810.0	3.35e-05	18.1100001335
810.0	3.35e-05	18.1410000324
810.0	3.37e-05	18.1720001698
810.0	3.38e-05	18.2190001011
810.0	3.4e-05	18.25
810.0	3.4e-05	18.2820000648
810.0	3.43e-05	18.3289999962
810.0	3.45e-05	18.3600001335
810.0	3.51e-05	18.4070000648
810.0	3.51e-05	18.4380002022
810.0	3.51e-05	18.4690001011
810.0	3.5e-05	18.5160000324
810.0	3.5e-05	18.5470001698
810.0	3.47e-05	18.5789999962
810.0	3.45e-05	18.625
810.0	3.43e-05	18.6570000648
810.0	3.4e-05	18.6880002022
810.0	3.4e-05	18.7350001335
810.0	3.41e-05	18.7660000324
810.0	3.41e-05	18.8130002022
810.0	3.4e-05	18.8440001011
810.0	3.37e-05	18.875
810.0	3.37e-05	18.9220001698
810.0	3.35e-05	18.9539999962
810.0	3.35e-05	18.9850001335
810.0	3.35e-05	19.0320000648
810.0	3.38e-05	19.0630002022
810.0	3.38e-05	19.1100001335
810.0	3.37e-05	19.1410000324
810.0	3.35e-05	19.1720001698
810.0	3.33e-05	19.2190001011
810.0	3.31e-05	19.25
810.0	3.31e-05	19.2970001698
820.0	3.56e-05	19.6100001335
820.0	3.6e-05	19.6570000648
820.0	3.65e-05	19.6880002022
820.0	3.7e-05	19.7190001011
820.0	3.7e-05	19.7660000324
820.0	3.66e-05	19.7970001698
820.0	3.65e-05	19.8440001011
820.0	3.65e-05	19.875
820.0	3.62e-05	19.9070000648
820.0	3.62e-05	19.9539999962
820.0	3.6e-05	19.9850001335
820.0	3.58e-05	20.0160000324
820.0	3.6e-05	20.0630002022
820.0	3.63e-05	20.0940001011
820.0	3.65e-05	20.125
820.0	3.68e-05	20.1720001698
820.0	3.71e-05	20.2039999962
820.0	3.75e-05	20.25
820.0	3.76e-05	20.2820000648
820.0	3.78e-05	20.3130002022
820.0	3.76e-05	20.3600001335
820.0	3.75e-05	20.3910000324
820.0	3.76e-05	20.4220001698
820.0	3.76e-05	20.4690001011
820.0	3.71e-05	20.5
820.0	3.71e-05	20.5470001698
820.0	3.66e-05	20.5789999962
820.0	3.66e-05	20.6100001335
820.0	3.68e-05	20.6570000648
820.0	3.7e-05	20.6880002022
820.0	3.68e-05	20.7350001335
820.0	3.7e-05	20.7660000324
820.0	3.68e-05	20.7970001698
820.0	3.65e-05	20.8440001011
820.0	3.66e-05	20.875
820.0	3.71e-05	20.9070000648
820.0	3.72e-05	20.9539999962
820.0	3.76e-05	20.9850001335
820.0	3.77e-05	21.0320000648
820.0	3.76e-05	21.0630002022
820.0	3.78e-05	21.0940001011
830.0	3.91e-05	21.4220001698
830.0	3.91e-05	21.4539999962
830.0	3.93e-05	21.4850001335
830.0	3.96e-05	21.5320000648
830.0	3.93e-05	21.5630002022
830.0	3.9e-05	21.6100001335
830.0	3.87e-05	21.6410000324
830.0	3.83e-05	21.6880002022
830.0	3.83e-05	21.7190001011
830.0	3.83e-05	21.75
830.0	3.85e-05	21.7970001698
830.0	3.85e-05	21.8289999962
830.0	3.88e-05	21.8600001335
830.0	3.95e-05	21.9070000648
830.0	4e-05	21.9380002022
830.0	4.02e-05	21.9850001335
830.0	4.06e-05	22.0160000324
830.0	4.08e-05	22.0470001698
830.0	4.1e-05	22.0940001011
830.0	4.1e-05	22.125
830.0	4.08e-05	22.1570000648
830.0	4.07e-05	22.2039999962
830.0	4.08e-05	22.2350001335
830.0	4.1e-05	22.2820000648
830.0	4.1e-05	22.3130002022
830.0	4.12e-05	22.3440001011
830.0	4.12e-05	22.3910000324
830.0	4.1e-05	22.4220001698
830.0	4.08e-05	22.4539999962
830.0	4.07e-05	22.5
830.0	4.07e-05	22.5320000648
830.0	4.03e-05	22.5789999962
830.0	4.01e-05	22.6100001335
830.0	4.01e-05	22.6410000324
830.0	4.01e-05	22.6880002022
830.0	4.01e-05	22.7190001011
830.0	4.02e-05	22.75
830.0	4.02e-05	22.7970001698
830.0	4.03e-05	22.8289999962
830.0	4.06e-05	22.875
840.0	4.28e-05	23.1880002022
840.0	4.35e-05	23.2190001011
840.0	4.4e-05	23.25
840.0	4.41e-05	23.2970001698
840.0	4.4e-05	23.3289999962
840.0	4.4e-05	23.375
840.0	4.4e-05	23.4070000648
840.0	4.4e-05	23.4539999962
840.0	4.41e-05	23.4850001335
840.0	4.43e-05	23.5160000324
840.0	4.4e-05	23.5630002022
840.0	4.37e-05	23.5940001011
840.0	4.33e-05	23.625
840.0	4.33e-05	23.6720001698
840.0	4.33e-05	23.7039999962
840.0	4.35e-05	23.75
840.0	4.35e-05	23.7820000648
840.0	4.35e-05	23.8130002022
840.0	4.37e-05	23.8600001335
840.0	4.4e-05	23.8910000324
840.0	4.43e-05	23.9380002022
840.0	4.46e-05	23.9690001011
840.0	4.46e-05	24.0
840.0	4.43e-05	24.0470001698
840.0	4.4e-05	24.0789999962
840.0	4.4e-05	24.1100001335
840.0	4.37e-05	24.1570000648
840.0	4.37e-05	24.1880002022
840.0	4.38e-05	24.2350001335
840.0	4.4e-05	24.2660000324
840.0	4.43e-05	24.2970001698
840.0	4.43e-05	24.3440001011
840.0	4.43e-05	24.375
840.0	4.46e-05	24.4070000648
840.0	4.46e-05	24.4539999962
840.0	4.46e-05	24.4850001335
840.0	4.45e-05	24.5320000648
840.0	4.43e-05	24.5630002022
840.0	4.43e-05	24.6100001335
840.0	4.46e-05	24.6410000324
850.0	4.6e-05	24.9539999962
850.0	4.65e-05	24.9850001335
850.0	4.66e-05	25.0320000648
850.0	4.66e-05	25.0630002022
850.0	4.66e-05	25.1100001335
850.0	4.71e-05	25.1410000324
850.0	4.75e-05	25.1720001698
850.0	4.75e-05	25.2190001011
850.0	4.76e-05	25.25
850.0	4.81e-05	25.2970001698
850.0	4.88e-05	25.3289999962
850.0	4.91e-05	25.3600001335
850.0	4.93e-05	25.4070000648
850.0	4.93e-05	25.4380002022
850.0	4.93e-05	25.4690001011
850.0	4.91e-05	25.5160000324
850.0	4.93e-05	25.5470001698
850.0	4.91e-05	25.5940001011
850.0	4.85e-05	25.625
850.0	4.82e-05	25.6570000648
850.0	4.82e-05	25.7039999962
850.0	4.85e-05	25.7350001335
850.0	4.88e-05	25.7660000324
850.0	4.9e-05	25.8130002022
850.0	4.9e-05	25.8440001011
850.0	4.87e-05	25.875
850.0	4.87e-05	25.9220001698
850.0	4.87e-05	25.9539999962
850.0	4.82e-05	26.0
850.0	4.77e-05	26.0320000648
850.0	4.72e-05	26.0630002022
850.0	4.7e-05	26.1100001335
850.0	4.72e-05	26.1410000324
850.0	4.77e-05	26.1720001698
850.0	4.77e-05	26.2190001011
850.0	4.72e-05	26.25
850.0	4.75e-05	26.2820000648
850.0	4.75e-05	26.3289999962
850.0	4.71e-05	26.3600001335
850.0	4.68e-05	26.4070000648
860.0	5.08e-05	26.7190001011
860.0	5.13e-05	26.75
860.0	5.16e-05	26.7820000648
860.0	5.2e-05	26.8289999962
860.0	5.2e-05	26.8600001335
860.0	5.22e-05	26.8910000324
860.0	5.26e-05	26.9380002022
860.0	5.27e-05	26.9690001011
860.0	5.28e-05	27.0
860.0	5.31e-05	27.0470001698
860.0	5.32e-05	27.0789999962
860.0	5.33e-05	27.125
860.0	5.35e-05	27.1570000648
860.0	5.35e-05	27.1880002022
860.0	5.33e-05	27.2350001335
860.0	5.33e-05	27.2660000324
860.0	5.35e-05	27.2970001698
860.0	5.33e-05	27.3440001011
860.0	5.31e-05	27.375
860.0	5.28e-05	27.4220001698
860.0	5.31e-05	27.4539999962
860.0	5.33e-05	27.4850001335
860.0	5.35e-05	27.5320000648
860.0	5.33e-05	27.5630002022
860.0	5.33e-05	27.5940001011
860.0	5.33e-05	27.6410000324
860.0	5.35e-05	27.6720001698
860.0	5.38e-05	27.7039999962
860.0	5.35e-05	27.75
860.0	5.35e-05	27.7820000648
860.0	5.37e-05	27.8289999962
860.0	5.37e-05	27.8600001335
860.0	5.37e-05	27.8910000324
860.0	5.37e-05	27.9380002022
860.0	5.33e-05	27.9690001011
860.0	5.31e-05	28.0
860.0	5.27e-05	28.0470001698
860.0	5.26e-05	28.0789999962
860.0	5.27e-05	28.1100001335
860.0	5.27e-05	28.1570000648
860.0	5.27e-05	28.1880002022
870.0	5.63e-05	28.5
870.0	5.7e-05	28.5320000648
870.0	5.75e-05	28.5789999962
870.0	5.78e-05	28.6100001335
870.0	5.83e-05	28.6570000648
870.0	5.87e-05	28.6880002022
870.0	5.9e-05	28.7190001011
870.0	5.93e-05	28.7660000324
870.0	5.93e-05	28.7970001698
870.0	5.93e-05	28.8289999962
870.0	5.95e-05	28.875
870.0	5.97e-05	28.9220001698
870.0	5.95e-05	28.9690001011
870.0	5.91e-05	29.0
870.0	5.9e-05	29.0470001698
870.0	5.88e-05	29.0789999962
870.0	5.88e-05	29.1100001335
870.0	5.88e-05	29.1570000648
870.0	5.88e-05	29.1880002022
870.0	5.93e-05	29.2190001011
870.0	5.95e-05	29.2660000324
870.0	5.93e-05	29.2970001698
870.0	5.93e-05	29.3440001011
870.0	5.93e-05	29.375
870.0	5.95e-05	29.4070000648
870.0	5.97e-05	29.4539999962
870.0	5.96e-05	29.4850001335
870.0	5.95e-05	29.5160000324
870.0	5.93e-05	29.5630002022
870.0	5.9e-05	29.5940001011
870.0	5.88e-05	29.625
870.0	5.9e-05	29.6720001698
870.0	5.9e-05	29.7039999962
870.0	5.91e-05	29.75
870.0	5.93e-05	29.7820000648
870.0	5.91e-05	29.8130002022
870.0	5.91e-05	29.8600001335
870.0	5.93e-05	29.8910000324
870.0	5.95e-05	29.9220001698
870.0	5.96e-05	29.9690001011
880.0	6.31e-05	30.2660000324
880.0	6.38e-05	30.3130002022
880.0	6.4e-05	30.3440001011
880.0	6.45e-05	30.375
880.0	6.47e-05	30.4220001698
880.0	6.47e-05	30.4539999962
880.0	6.53e-05	30.4850001335
880.0	6.56e-05	30.5320000648
880.0	6.56e-05	30.5630002022
880.0	6.53e-05	30.6100001335
880.0	6.51e-05	30.6410000324
880.0	6.51e-05	30.6720001698
880.0	6.53e-05	30.7190001011
880.0	6.57e-05	30.75
880.0	6.58e-05	30.7820000648
880.0	6.62e-05	30.8289999962
880.0	6.63e-05	30.8600001335
880.0	6.6e-05	30.9070000648
880.0	6.57e-05	30.9380002022
880.0	6.57e-05	30.9690001011
880.0	6.58e-05	31.0160000324
880.0	6.62e-05	31.0470001698
880.0	6.65e-05	31.0789999962
880.0	6.65e-05	31.125
880.0	6.68e-05	31.1570000648
880.0	6.7e-05	31.2039999962
880.0	6.68e-05	31.2350001335
880.0	6.66e-05	31.2820000648
880.0	6.66e-05	31.3130002022
880.0	6.66e-05	31.3440001011
880.0	6.66e-05	31.3910000324
880.0	6.66e-05	31.4220001698
880.0	6.68e-05	31.4690001011
880.0	6.65e-05	31.5
880.0	6.6e-05	31.5320000648
880.0	6.57e-05	31.5789999962
880.0	6.53e-05	31.6100001335
880.0	6.56e-05	31.6570000648
880.0	6.58e-05	31.6880002022
880.0	6.6e-05	31.7350001335
890.0	6.85e-05	32.0320000648
890.0	6.91e-05	32.0630002022
890.0	7e-05	32.1100001335
890.0	7.07e-05	32.1410000324
890.0	7.13e-05	32.1720001698
890.0	7.18e-05	32.2190001011
890.0	7.21e-05	32.25
890.0	7.22e-05	32.2970001698
890.0	7.27e-05	32.3289999962
890.0	7.27e-05	32.3600001335
890.0	7.28e-05	32.4070000648
890.0	7.28e-05	32.4380002022
890.0	7.28e-05	32.4690001011
890.0	7.31e-05	32.5160000324
890.0	7.28e-05	32.5470001698
890.0	7.32e-05	32.5789999962
890.0	7.33e-05	32.625
890.0	7.35e-05	32.6570000648
890.0	7.33e-05	32.7039999962
890.0	7.32e-05	32.7350001335
890.0	7.27e-05	32.7660000324
890.0	7.25e-05	32.8130002022
890.0	7.22e-05	32.8440001011
890.0	7.22e-05	32.875
890.0	7.25e-05	32.9220001698
890.0	7.27e-05	32.9539999962
890.0	7.26e-05	33.0
890.0	7.26e-05	33.0320000648
890.0	7.25e-05	33.0630002022
890.0	7.25e-05	33.1100001335
890.0	7.25e-05	33.1410000324
890.0	7.25e-05	33.1720001698
890.0	7.22e-05	33.2190001011
890.0	7.27e-05	33.25
890.0	7.28e-05	33.2970001698
890.0	7.31e-05	33.3289999962
890.0	7.33e-05	33.3600001335
890.0	7.35e-05	33.4070000648
890.0	7.33e-05	33.4380002022
890.0	7.32e-05	33.4850001335
890.0	7.33e-05	33.5160000324
900.0	7.75e-05	33.8130002022
900.0	7.85e-05	33.8440001011
900.0	7.9e-05	33.8910000324
900.0	7.93e-05	33.9220001698
900.0	7.96e-05	33.9690001011
900.0	8.01e-05	34.0
900.0	8.02e-05	34.0320000648
900.0	8.03e-05	34.0789999962
900.0	8.06e-05	34.1100001335
900.0	8.1e-05	34.1410000324
900.0	8.12e-05	34.1880002022
900.0	8.13e-05	34.2190001011
900.0	8.15e-05	34.25
900.0	8.18e-05	34.2970001698
900.0	8.18e-05	34.3289999962
900.0	8.15e-05	34.375
900.0	8.12e-05	34.4070000648
900.0	8.1e-05	34.4380002022
900.0	8.08e-05	34.4850001335
900.0	8.06e-05	34.5160000324
900.0	8.06e-05	34.5630002022
900.0	8.06e-05	34.5940001011
900.0	8.08e-05	34.625
900.0	8.08e-05	34.6720001698
900.0	8.06e-05	34.7039999962
900.0	8.07e-05	34.7350001335
900.0	8.07e-05	34.7820000648
900.0	8.07e-05	34.8130002022
900.0	8.1e-05	34.8600001335
900.0	8.16e-05	34.8910000324
900.0	8.2e-05	34.9220001698
900.0	8.22e-05	34.9690001011
900.0	8.26e-05	35.0
900.0	8.27e-05	35.0470001698
900.0	8.26e-05	35.0789999962
900.0	8.25e-05	35.1100001335
900.0	8.25e-05	35.1570000648
900.0	8.26e-05	35.1880002022
900.0	8.22e-05	35.2350001335
900.0	8.21e-05	35.2660000324
900.0	8.2e-05	35.2970001698
910.0	8.51e-05	35.5940001011
910.0	8.63e-05	35.6410000324
910.0	8.71e-05	35.6720001698
910.0	8.75e-05	35.7039999962
910.0	8.77e-05	35.75
910.0	8.83e-05	35.7820000648
910.0	8.9e-05	35.8289999962
910.0	8.93e-05	35.8600001335
910.0	8.95e-05	35.8910000324
910.0	8.96e-05	35.9380002022
910.0	8.97e-05	35.9690001011
910.0	8.97e-05	36.0
910.0	8.96e-05	36.0470001698
910.0	8.97e-05	36.0789999962
910.0	9e-05	36.125
910.0	9.02e-05	36.1570000648
910.0	9.02e-05	36.1880002022
910.0	9.03e-05	36.2350001335
910.0	9.07e-05	36.2660000324
910.0	9.1e-05	36.2970001698
910.0	9.1e-05	36.3440001011
910.0	9.1e-05	36.375
910.0	9.08e-05	36.4070000648
910.0	9.08e-05	36.4539999962
910.0	9.08e-05	36.4850001335
910.0	9.08e-05	36.5320000648
910.0	9.08e-05	36.5630002022
910.0	9.08e-05	36.5940001011
910.0	9.07e-05	36.6410000324
910.0	9.08e-05	36.6720001698
910.0	9.1e-05	36.7039999962
910.0	9.08e-05	36.75
910.0	9.12e-05	36.7820000648
910.0	9.12e-05	36.8289999962
910.0	9.1e-05	36.8600001335
910.0	9.07e-05	36.8910000324
910.0	9.03e-05	36.9380002022
910.0	9.03e-05	36.9690001011
910.0	9.06e-05	37.0
910.0	9.06e-05	37.0470001698
910.0	9.06e-05	37.0789999962
920.0	9.45e-05	37.375
920.0	9.53e-05	37.4220001698
920.0	9.63e-05	37.4539999962
920.0	9.72e-05	37.4850001335
920.0	9.81e-05	37.5320000648
920.0	9.88e-05	37.5630002022
920.0	9.95e-05	37.5940001011
920.0	9.97e-05	37.6410000324
920.0	0.0001002	37.6720001698
920.0	0.0001007	37.7190001011
920.0	0.000101	37.7660000324
920.0	0.0001008	37.7970001698
920.0	0.000101	37.8440001011
920.0	0.0001012	37.8910000324
920.0	0.000101	37.9220001698
920.0	0.000101	37.9690001011
920.0	0.0001013	38.0
920.0	0.0001018	38.0470001698
920.0	0.0001018	38.0940001011
920.0	0.0001016	38.125
920.0	0.0001015	38.1720001698
920.0	0.0001015	38.2190001011
920.0	0.0001016	38.25
920.0	0.0001018	38.2970001698
920.0	0.000102	38.3289999962
920.0	0.000102	38.375
920.0	0.0001021	38.4220001698
920.0	0.0001022	38.4539999962
920.0	0.0001025	38.5
920.0	0.0001022	38.5470001698
920.0	0.0001025	38.5789999962
920.0	0.0001026	38.625
920.0	0.0001026	38.6570000648
920.0	0.0001025	38.7039999962
920.0	0.0001021	38.75
920.0	0.0001021	38.7820000648
920.0	0.0001022	38.8289999962
920.0	0.0001025	38.875
930.0	0.0001053	39.1720001698
930.0	0.0001065	39.2190001011
930.0	0.0001078	39.25
930.0	0.0001091	39.2970001698
930.0	0.0001102	39.3440001011
930.0	0.0001112	39.375
930.0	0.0001121	39.4220001698
930.0	0.0001125	39.4539999962
930.0	0.0001127	39.5
930.0	0.0001127	39.5470001698
930.0	0.0001127	39.5789999962
930.0	0.0001127	39.625
930.0	0.0001127	39.6720001698
930.0	0.0001127	39.7039999962
930.0	0.0001128	39.75
930.0	0.0001128	39.7970001698
930.0	0.0001131	39.8289999962
930.0	0.0001128	39.875
930.0	0.0001127	39.9070000648
930.0	0.0001126	39.9539999962
930.0	0.0001125	40.0
930.0	0.0001125	40.0320000648
930.0	0.0001122	40.0789999962
930.0	0.0001131	40.125
930.0	0.0001133	40.1570000648
930.0	0.0001138	40.2039999962
930.0	0.0001141	40.2350001335
930.0	0.0001138	40.2820000648
930.0	0.0001135	40.3289999962
930.0	0.0001131	40.3600001335
930.0	0.0001128	40.4070000648
930.0	0.0001128	40.4539999962
930.0	0.0001127	40.4850001335
930.0	0.0001126	40.5320000648
930.0	0.0001127	40.5630002022
930.0	0.0001131	40.6100001335
930.0	0.0001132	40.6570000648
940.0	0.0001168	40.9539999962
940.0	0.0001185	41.0
940.0	0.0001197	41.0320000648
940.0	0.0001206	41.0789999962
940.0	0.0001208	41.125
940.0	0.0001212	41.1570000648
940.0	0.0001218	41.2039999962
940.0	0.0001227	41.25
940.0	0.0001231	41.2820000648
940.0	0.0001232	41.3289999962
940.0	0.0001233	41.3600001335
940.0	0.0001235	41.4070000648
940.0	0.0001235	41.4539999962
940.0	0.0001237	41.4850001335
940.0	0.0001237	41.5320000648
940.0	0.0001237	41.5789999962
940.0	0.0001237	41.6100001335
940.0	0.0001235	41.6570000648
940.0	0.0001235	41.7039999962
940.0	0.0001235	41.7350001335
940.0	0.0001235	41.7820000648
940.0	0.0001235	41.8130002022
940.0	0.0001232	41.8600001335
940.0	0.0001232	41.9070000648
940.0	0.0001231	41.9380002022
940.0	0.0001232	41.9850001335
940.0	0.0001235	42.0320000648
940.0	0.0001235	42.0630002022
940.0	0.0001233	42.1100001335
940.0	0.0001232	42.1410000324
940.0	0.0001228	42.1880002022
940.0	0.0001225	42.2350001335
940.0	0.0001226	42.2660000324
940.0	0.0001228	42.3130002022
940.0	0.0001232	42.3600001335
940.0	0.0001233	42.3910000324
940.0	0.0001235	42.4380002022
950.0	0.0001288	42.7190001011
950.0	0.0001303	42.7660000324
950.0	0.0001316	42.8130002022
950.0	0.0001326	42.8440001011
950.0	0.0001331	42.8910000324
950.0	0.0001337	42.9380002022
950.0	0.0001345	42.9690001011
950.0	0.0001347	43.0160000324
950.0	0.0001353	43.0470001698
950.0	0.000136	43.0940001011
950.0	0.0001363	43.1410000324
950.0	0.0001365	43.1720001698
950.0	0.0001365	43.2190001011
950.0	0.0001358	43.2660000324
950.0	0.0001356	43.2970001698
950.0	0.0001358	43.3440001011
950.0	0.0001362	43.3910000324
950.0	0.0001365	43.4220001698
950.0	0.0001368	43.4690001011
950.0	0.0001368	43.5
950.0	0.0001362	43.5470001698
950.0	0.0001357	43.5940001011
950.0	0.0001357	43.6410000324
950.0	0.0001358	43.6720001698
950.0	0.000136	43.7190001011
950.0	0.000136	43.75
950.0	0.0001358	43.7970001698
950.0	0.0001358	43.8440001011
950.0	0.000136	43.875
950.0	0.0001363	43.9220001698
950.0	0.0001363	43.9690001011
950.0	0.0001363	44.0
950.0	0.000136	44.0470001698
950.0	0.0001357	44.0789999962
950.0	0.0001357	44.125
950.0	0.0001358	44.1720001698
950.0	0.0001351	44.2039999962
960.0	0.0001395	44.5
960.0	0.0001418	44.5320000648
960.0	0.0001428	44.5789999962
960.0	0.0001438	44.625
960.0	0.0001446	44.6570000648
960.0	0.0001452	44.7039999962
960.0	0.0001458	44.75
960.0	0.0001465	44.7820000648
960.0	0.0001468	44.8289999962
960.0	0.0001471	44.8600001335
960.0	0.0001472	44.9070000648
960.0	0.0001476	44.9539999962
960.0	0.0001477	44.9850001335
960.0	0.0001478	45.0320000648
960.0	0.0001481	45.0789999962
960.0	0.0001481	45.1100001335
960.0	0.0001477	45.1570000648
960.0	0.0001477	45.1880002022
960.0	0.0001477	45.2350001335
960.0	0.0001475	45.2820000648
960.0	0.0001476	45.3130002022
960.0	0.0001476	45.3600001335
960.0	0.0001478	45.4070000648
960.0	0.0001478	45.4380002022
960.0	0.0001475	45.4850001335
960.0	0.0001472	45.5320000648
960.0	0.0001476	45.5630002022
960.0	0.0001481	45.6100001335
960.0	0.0001481	45.6410000324
960.0	0.0001485	45.6880002022
960.0	0.0001491	45.7350001335
960.0	0.0001493	45.7660000324
960.0	0.0001491	45.8130002022
960.0	0.0001491	45.8600001335
960.0	0.0001488	45.8910000324
960.0	0.0001485	45.9380002022
960.0	0.0001483	45.9690001011
970.0	0.0001527	46.2660000324
970.0	0.0001545	46.2970001698
970.0	0.0001556	46.3440001011
970.0	0.000157	46.3910000324
970.0	0.0001577	46.4220001698
970.0	0.0001583	46.4690001011
970.0	0.0001585	46.5160000324
970.0	0.0001591	46.5470001698
970.0	0.0001593	46.5940001011
970.0	0.0001596	46.625
970.0	0.0001597	46.6720001698
970.0	0.00016	46.7190001011
970.0	0.0001601	46.75
970.0	0.0001602	46.7970001698
970.0	0.0001603	46.8440001011
970.0	0.0001607	46.875
970.0	0.0001606	46.9220001698
970.0	0.0001606	46.9539999962
970.0	0.0001606	47.0
970.0	0.0001607	47.0470001698
970.0	0.0001608	47.0789999962
970.0	0.0001606	47.125
970.0	0.0001608	47.1720001698
970.0	0.0001608	47.2039999962
970.0	0.000161	47.25
970.0	0.000161	47.2970001698
970.0	0.0001607	47.3289999962
970.0	0.0001607	47.375
970.0	0.0001607	47.4070000648
970.0	0.0001603	47.4539999962
970.0	0.0001602	47.5
970.0	0.00016	47.5320000648
970.0	0.0001602	47.5789999962
970.0	0.0001603	47.625
970.0	0.0001602	47.6570000648
970.0	0.00016	47.7039999962
970.0	0.0001596	47.7350001335
980.0	0.0001635	48.0320000648
980.0	0.0001653	48.0630002022
980.0	0.0001671	48.1100001335
980.0	0.0001687	48.1410000324
980.0	0.0001696	48.1880002022
980.0	0.00017	48.2350001335
980.0	0.0001706	48.2820000648
980.0	0.0001712	48.3130002022
980.0	0.0001716	48.3600001335
980.0	0.0001716	48.4070000648
980.0	0.0001713	48.4380002022
980.0	0.0001718	48.4850001335
980.0	0.0001722	48.5160000324
980.0	0.0001726	48.5630002022
980.0	0.0001727	48.6100001335
980.0	0.0001728	48.6410000324
980.0	0.0001726	48.6880002022
980.0	0.0001728	48.7350001335
980.0	0.0001735	48.7660000324
980.0	0.0001737	48.8130002022
980.0	0.0001733	48.8440001011
980.0	0.0001732	48.8910000324
980.0	0.0001733	48.9380002022
980.0	0.0001731	48.9690001011
980.0	0.0001728	49.0160000324
980.0	0.0001731	49.0630002022
980.0	0.0001732	49.0940001011
980.0	0.0001732	49.1410000324
980.0	0.0001732	49.1720001698
980.0	0.0001732	49.2190001011
980.0	0.0001733	49.2660000324
980.0	0.0001733	49.2970001698
980.0	0.0001735	49.3440001011
980.0	0.0001735	49.3910000324
980.0	0.0001735	49.4220001698
980.0	0.0001735	49.4690001011
980.0	0.0001733	49.5
990.0	0.0001778	49.7820000648
990.0	0.0001791	49.8289999962
990.0	0.0001802	49.875
990.0	0.000181	49.9070000648
990.0	0.0001813	49.9539999962
990.0	0.0001821	50.0
990.0	0.0001831	50.0320000648
990.0	0.0001835	50.0789999962
990.0	0.0001841	50.1100001335
990.0	0.0001845	50.1570000648
990.0	0.0001846	50.2039999962
990.0	0.0001851	50.2350001335
990.0	0.0001852	50.2820000648
990.0	0.0001856	50.3289999962
990.0	0.0001856	50.3600001335
990.0	0.0001858	50.4070000648
990.0	0.000186	50.4380002022
990.0	0.0001862	50.4850001335
990.0	0.000186	50.5320000648
990.0	0.000186	50.5630002022
990.0	0.0001857	50.6100001335
990.0	0.0001858	50.6570000648
990.0	0.0001858	50.6880002022
990.0	0.0001856	50.7350001335
990.0	0.0001852	50.7660000324
990.0	0.0001852	50.8130002022
990.0	0.0001853	50.8600001335
990.0	0.0001857	50.8910000324
990.0	0.0001863	50.9380002022
990.0	0.0001865	50.9850001335
990.0	0.0001868	51.0160000324
990.0	0.000187	51.0630002022
990.0	0.000187	51.0940001011
990.0	0.0001868	51.1410000324
990.0	0.0001868	51.1880002022
990.0	0.000187	51.2190001011
990.0	0.000187	51.2660000324
1000.0	0.0001907	51.5470001698
1000.0	0.0001925	51.5789999962
1000.0	0.0001938	51.625
1000.0	0.0001952	51.6720001698
1000.0	0.0001963	51.7039999962
1000.0	0.0001971	51.75
1000.0	0.0001977	51.7970001698
1000.0	0.0001982	51.8289999962
1000.0	0.0001985	51.875
1000.0	0.0001988	51.9220001698
1000.0	0.0001988	51.9539999962
1000.0	0.0001991	52.0
1000.0	0.0001995	52.0320000648
1000.0	0.0002	52.0789999962
1000.0	0.0002006	52.125
1000.0	0.0002008	52.1570000648
1000.0	0.0002008	52.2039999962
1000.0	0.0002012	52.25
1000.0	0.0002012	52.2820000648
1000.0	0.000201	52.3289999962
1000.0	0.000201	52.3600001335
1000.0	0.0002015	52.4070000648
1000.0	0.0002016	52.4539999962
1000.0	0.0002012	52.4850001335
1000.0	0.0002008	52.5320000648
1000.0	0.0002008	52.5789999962
1000.0	0.000201	52.6100001335
1000.0	0.000201	52.6570000648
1000.0	0.0002013	52.6880002022
1000.0	0.0002018	52.7350001335
1000.0	0.0002018	52.7820000648
1000.0	0.000202	52.8130002022
1000.0	0.0002021	52.8600001335
1000.0	0.0002021	52.9070000648
1000.0	0.0002026	52.9380002022
1000.0	0.0002026	52.9850001335
1000.0	0.0002022	53.0320000648
1010.0	0.0002052	53.3130002022
1010.0	0.000207	53.3440001011
1010.0	0.000209	53.3910000324
1010.0	0.0002103	53.4220001698
1010.0	0.0002115	53.4690001011
1010.0	0.0002122	53.5160000324
1010.0	0.0002131	53.5470001698
1010.0	0.000214	53.5940001011
1010.0	0.0002146	53.6410000324
1010.0	0.0002147	53.6720001698
1010.0	0.000215	53.7190001011
1010.0	0.0002151	53.7660000324
1010.0	0.0002153	53.7970001698
1010.0	0.0002158	53.8440001011
1010.0	0.0002162	53.875
1010.0	0.0002162	53.9220001698
1010.0	0.0002165	53.9690001011
1010.0	0.0002168	54.0
1010.0	0.0002166	54.0470001698
1010.0	0.0002165	54.0940001011
1010.0	0.0002162	54.125
1010.0	0.000216	54.1720001698
1010.0	0.0002158	54.2039999962
1010.0	0.0002157	54.25
1010.0	0.0002157	54.2970001698
1010.0	0.0002158	54.3289999962
1010.0	0.0002158	54.375
1010.0	0.0002162	54.4220001698
1010.0	0.0002162	54.4539999962
1010.0	0.0002158	54.5
1010.0	0.0002153	54.5320000648
1010.0	0.0002156	54.5789999962
1010.0	0.0002156	54.625
1010.0	0.0002156	54.6570000648
1010.0	0.0002158	54.7039999962
1010.0	0.0002157	54.75
1010.0	0.0002157	54.7820000648
1020.0	0.000222	55.0630002022
1020.0	0.0002241	55.1100001335
1020.0	0.0002253	55.1570000648
1020.0	0.0002268	55.1880002022
1020.0	0.0002282	55.2350001335
1020.0	0.0002291	55.2820000648
1020.0	0.0002295	55.3130002022
1020.0	0.0002302	55.3600001335
1020.0	0.0002308	55.3910000324
1020.0	0.0002312	55.4380002022
1020.0	0.0002313	55.4850001335
1020.0	0.000232	55.5160000324
1020.0	0.0002322	55.5630002022
1020.0	0.0002325	55.6100001335
1020.0	0.0002325	55.6410000324
1020.0	0.0002325	55.6880002022
1020.0	0.0002322	55.7190001011
1020.0	0.0002325	55.7660000324
1020.0	0.0002327	55.8130002022
1020.0	0.0002328	55.8440001011
1020.0	0.0002327	55.8910000324
1020.0	0.0002326	55.9380002022
1020.0	0.000232	55.9690001011
1020.0	0.0002316	56.0160000324
1020.0	0.0002312	56.0470001698
1020.0	0.0002312	56.0940001011
1020.0	0.0002313	56.1410000324
1020.0	0.0002318	56.1720001698
1020.0	0.0002316	56.2190001011
1020.0	0.0002315	56.2660000324
1020.0	0.0002318	56.2970001698
1020.0	0.000232	56.3440001011
1020.0	0.000232	56.375
1020.0	0.000232	56.4220001698
1020.0	0.0002318	56.4690001011
1020.0	0.0002316	56.5
1020.0	0.0002318	56.5470001698
1030.0	0.0002388	56.8289999962
1030.0	0.000241	56.875
1030.0	0.0002428	56.9070000648
1030.0	0.0002445	56.9539999962
1030.0	0.0002456	56.9850001335
1030.0	0.0002466	57.0320000648
1030.0	0.0002475	57.0789999962
1030.0	0.0002477	57.1100001335
1030.0	0.0002483	57.1570000648
1030.0	0.0002485	57.2039999962
1030.0	0.0002487	57.2350001335
1030.0	0.000249	57.2820000648
1030.0	0.0002493	57.3130002022
1030.0	0.0002496	57.3600001335
1030.0	0.0002496	57.4070000648
1030.0	0.0002493	57.4380002022
1030.0	0.000249	57.4850001335
1030.0	0.0002488	57.5320000648
1030.0	0.0002483	57.5630002022
1030.0	0.0002483	57.6100001335
1030.0	0.0002485	57.6410000324
1030.0	0.0002485	57.6880002022
1030.0	0.0002485	57.7350001335
1030.0	0.000249	57.7660000324
1030.0	0.0002488	57.8130002022
1030.0	0.0002488	57.8600001335
1030.0	0.000249	57.8910000324
1030.0	0.0002491	57.9380002022
1030.0	0.0002491	57.9690001011
1030.0	0.0002493	58.0160000324
1030.0	0.000249	58.0630002022
1030.0	0.0002488	58.0940001011
1030.0	0.000249	58.1410000324
1030.0	0.0002493	58.1880002022
1030.0	0.0002495	58.2190001011
1030.0	0.00025	58.2660000324
1030.0	0.0002502	58.2970001698
1040.0	0.0002575	58.5940001011
1040.0	0.0002596	58.625
1040.0	0.0002608	58.6720001698
1040.0	0.0002616	58.7190001011
1040.0	0.0002625	58.75
1040.0	0.0002633	58.7970001698
1040.0	0.000264	58.8289999962
1040.0	0.0002646	58.875
1040.0	0.0002651	58.9220001698
1040.0	0.0002653	58.9539999962
1040.0	0.0002653	59.0
1040.0	0.0002657	59.0470001698
1040.0	0.000266	59.0789999962
1040.0	0.0002665	59.125
1040.0	0.0002668	59.1570000648
1040.0	0.0002668	59.2039999962
1040.0	0.0002665	59.25
1040.0	0.0002666	59.2820000648
1040.0	0.0002665	59.3289999962
1040.0	0.0002662	59.375
1040.0	0.000266	59.4070000648
1040.0	0.0002663	59.4539999962
1040.0	0.0002665	59.4850001335
1040.0	0.0002668	59.5320000648
1040.0	0.0002672	59.5789999962
1040.0	0.0002678	59.6100001335
1040.0	0.0002678	59.6570000648
1040.0	0.0002677	59.7039999962
1040.0	0.0002672	59.7350001335
1040.0	0.0002671	59.7820000648
1040.0	0.000267	59.8289999962
1040.0	0.0002665	59.8600001335
1040.0	0.0002662	59.9070000648
1040.0	0.0002662	59.9380002022
1040.0	0.0002658	59.9850001335
1040.0	0.000266	60.0320000648
1040.0	0.0002663	60.0630002022
1050.0	0.0002735	60.3440001011
1050.0	0.0002757	60.3910000324
1050.0	0.0002775	60.4380002022
1050.0	0.0002793	60.4690001011
1050.0	0.0002806	60.5160000324
1050.0	0.0002815	60.5630002022
1050.0	0.0002825	60.5940001011
1050.0	0.0002828	60.6410000324
1050.0	0.0002833	60.6720001698
1050.0	0.0002845	60.7190001011
1050.0	0.0002852	60.7660000324
1050.0	0.0002856	60.7970001698
1050.0	0.0002857	60.8440001011
1050.0	0.0002857	60.8910000324
1050.0	0.0002856	60.9220001698
1050.0	0.0002856	60.9690001011
1050.0	0.0002857	61.0
1050.0	0.0002857	61.0470001698
1050.0	0.000286	61.0940001011
1050.0	0.0002865	61.125
1050.0	0.0002866	61.1720001698
1050.0	0.0002866	61.2190001011
1050.0	0.0002866	61.25
1050.0	0.0002868	61.2970001698
1050.0	0.0002868	61.3289999962
1050.0	0.0002865	61.375
1050.0	0.0002863	61.4220001698
1050.0	0.0002858	61.4539999962
1050.0	0.0002853	61.5
1050.0	0.0002853	61.5470001698
1050.0	0.0002851	61.5789999962
1050.0	0.000285	61.625
1050.0	0.0002851	61.6720001698
1050.0	0.0002853	61.7039999962
1050.0	0.0002852	61.75
1050.0	0.000285	61.7820000648
1050.0	0.0002846	61.8289999962
1060.0	0.0002918	62.1100001335
1060.0	0.0002941	62.1570000648
1060.0	0.0002962	62.1880002022
1060.0	0.0002982	62.2350001335
1060.0	0.0002996	62.2820000648
1060.0	0.000301	62.3130002022
1060.0	0.000302	62.3600001335
1060.0	0.0003026	62.4070000648
1060.0	0.0003031	62.4380002022
1060.0	0.0003033	62.4850001335
1060.0	0.0003033	62.5160000324
1060.0	0.0003033	62.5630002022
1060.0	0.0003035	62.6100001335
1060.0	0.0003038	62.6410000324
1060.0	0.0003037	62.6880002022
1060.0	0.0003037	62.7350001335
1060.0	0.000304	62.7660000324
1060.0	0.000304	62.8130002022
1060.0	0.0003043	62.8600001335
1060.0	0.0003046	62.8910000324
1060.0	0.0003047	62.9380002022
1060.0	0.0003045	62.9690001011
1060.0	0.0003043	63.0160000324
1060.0	0.000304	63.0630002022
1060.0	0.0003038	63.0940001011
1060.0	0.000304	63.1410000324
1060.0	0.000304	63.1880002022
1060.0	0.0003043	63.2190001011
1060.0	0.0003046	63.2660000324
1060.0	0.0003045	63.2970001698
1060.0	0.0003041	63.3440001011
1060.0	0.000304	63.3910000324
1060.0	0.000304	63.4220001698
1060.0	0.000304	63.4690001011
1060.0	0.0003035	63.5160000324
1060.0	0.0003028	63.5470001698
1060.0	0.0003027	63.5940001011
1070.0	0.0003106	63.875
1070.0	0.0003127	63.9070000648
1070.0	0.0003146	63.9539999962
1070.0	0.0003162	64.0
1070.0	0.0003172	64.0320000648
1070.0	0.0003182	64.0789999962
1070.0	0.0003191	64.1100001335
1070.0	0.0003195	64.1570000648
1070.0	0.0003197	64.2039999962
1070.0	0.0003198	64.2350001335
1070.0	0.00032	64.2820000648
1070.0	0.0003207	64.3289999962
1070.0	0.0003211	64.3600001335
1070.0	0.0003208	64.4070000648
1070.0	0.0003207	64.4539999962
1070.0	0.0003211	64.4850001335
1070.0	0.0003212	64.5320000648
1070.0	0.0003213	64.6410000324
1070.0	0.0003215	64.6880002022
1070.0	0.0003212	64.7190001011
1070.0	0.0003213	64.7660000324
1070.0	0.0003213	64.8130002022
1070.0	0.0003213	64.8440001011
1070.0	0.0003213	64.8910000324
1070.0	0.0003211	64.9220001698
1070.0	0.0003207	64.9690001011
1070.0	0.0003207	65.0160000324
1070.0	0.0003211	65.0470001698
1070.0	0.0003211	65.0940001011
1070.0	0.0003211	65.1410000324
1070.0	0.0003208	65.1720001698
1070.0	0.0003211	65.2190001011
1070.0	0.0003213	65.2660000324
1070.0	0.0003217	65.2970001698
1070.0	0.000322	65.3440001011
1080.0	0.000327	65.625
1080.0	0.000329	65.6570000648
1080.0	0.0003307	65.7039999962
1080.0	0.0003325	65.75
1080.0	0.0003337	65.7820000648
1080.0	0.0003345	65.8289999962
1080.0	0.0003352	65.8600001335
1080.0	0.0003357	65.9070000648
1080.0	0.0003362	65.9539999962
1080.0	0.0003363	65.9850001335
1080.0	0.0003363	66.0320000648
1080.0	0.0003358	66.0789999962
1080.0	0.0003356	66.1100001335
1080.0	0.0003357	66.1570000648
1080.0	0.0003361	66.1880002022
1080.0	0.0003362	66.2350001335
1080.0	0.0003361	66.2820000648
1080.0	0.0003362	66.3130002022
1080.0	0.0003362	66.3600001335
1080.0	0.0003362	66.4070000648
1080.0	0.0003358	66.4380002022
1080.0	0.0003358	66.4850001335
1080.0	0.0003358	66.5320000648
1080.0	0.0003362	66.5630002022
1080.0	0.0003358	66.6100001335
1080.0	0.0003358	66.6410000324
1080.0	0.0003357	66.6880002022
1080.0	0.0003356	66.7350001335
1080.0	0.0003358	66.7820000648
1080.0	0.0003358	66.8130002022
1080.0	0.0003352	66.8600001335
1080.0	0.0003351	66.8910000324
1080.0	0.000335	66.9380002022
1080.0	0.0003345	66.9850001335
1080.0	0.0003345	67.0160000324
1080.0	0.000335	67.0630002022
1080.0	0.0003352	67.1100001335
1090.0	0.0003413	67.375
1090.0	0.0003431	67.4220001698
1090.0	0.0003443	67.4539999962
1090.0	0.0003452	67.5
1090.0	0.0003457	67.5470001698
1090.0	0.0003467	67.5789999962
1090.0	0.0003475	67.625
1090.0	0.0003477	67.6720001698
1090.0	0.0003482	67.7039999962
1090.0	0.0003487	67.75
1090.0	0.0003492	67.7820000648
1090.0	0.0003495	67.8289999962
1090.0	0.0003498	67.875
1090.0	0.00035	67.9070000648
1090.0	0.0003501	67.9539999962
1090.0	0.00035	68.0
1090.0	0.0003502	68.0320000648
1090.0	0.0003505	68.0789999962
1090.0	0.0003505	68.125
1090.0	0.00035	68.1570000648
1090.0	0.0003492	68.2039999962
1090.0	0.0003487	68.2350001335
1090.0	0.0003486	68.2820000648
1090.0	0.0003481	68.3289999962
1090.0	0.0003476	68.3600001335
1090.0	0.000348	68.4070000648
1090.0	0.0003487	68.4539999962
1090.0	0.0003488	68.4850001335
1090.0	0.000349	68.5320000648
1090.0	0.0003488	68.5789999962
1090.0	0.0003486	68.6100001335
1090.0	0.0003482	68.6570000648
1090.0	0.0003481	68.7039999962
1090.0	0.0003481	68.7350001335
1090.0	0.000348	68.7820000648
1090.0	0.000348	68.8130002022
1090.0	0.0003476	68.8600001335
1100.0	0.000352	69.125
1100.0	0.0003536	69.1720001698
1100.0	0.0003551	69.2190001011
1100.0	0.0003561	69.25
1100.0	0.000357	69.2970001698
1100.0	0.0003576	69.3440001011
1100.0	0.0003581	69.375
1100.0	0.0003583	69.4220001698
1100.0	0.0003587	69.4539999962
1100.0	0.0003588	69.5
1100.0	0.0003592	69.5470001698
1100.0	0.0003587	69.5789999962
1100.0	0.0003583	69.625
1100.0	0.0003586	69.6720001698
1100.0	0.0003587	69.7039999962
1100.0	0.0003588	69.75
1100.0	0.0003593	69.7820000648
1100.0	0.0003593	69.8289999962
1100.0	0.0003593	69.875
1100.0	0.0003596	69.9070000648
1100.0	0.00036	69.9539999962
1100.0	0.0003595	70.0
1100.0	0.0003592	70.0320000648
1100.0	0.0003592	70.0789999962
1100.0	0.0003592	70.125
1100.0	0.0003588	70.1570000648
1100.0	0.0003588	70.2039999962
1100.0	0.0003587	70.2350001335
1100.0	0.0003586	70.2820000648
1100.0	0.0003586	70.3289999962
1100.0	0.0003586	70.3600001335
1100.0	0.0003583	70.4070000648
1100.0	0.0003583	70.4539999962
1100.0	0.0003587	70.4850001335
1100.0	0.0003588	70.5320000648
1100.0	0.0003595	70.5630002022
1100.0	0.0003598	70.6100001335
1110.0	0.0003636	70.875
1110.0	0.0003642	70.9220001698
1110.0	0.000365	70.9690001011
1110.0	0.0003656	71.0
1110.0	0.0003661	71.0470001698
1110.0	0.0003662	71.0940001011
1110.0	0.0003667	71.125
1110.0	0.0003667	71.1720001698
1110.0	0.0003665	71.2039999962
1110.0	0.0003667	71.25
1110.0	0.0003667	71.2970001698
1110.0	0.0003667	71.3289999962
1110.0	0.0003665	71.375
1110.0	0.0003665	71.4220001698
1110.0	0.0003665	71.4539999962
1110.0	0.0003663	71.5
1110.0	0.0003667	71.5320000648
1110.0	0.000367	71.5789999962
1110.0	0.0003673	71.625
1110.0	0.0003676	71.6570000648
1110.0	0.0003676	71.7039999962
1110.0	0.0003673	71.75
1110.0	0.000367	71.7820000648
1110.0	0.0003668	71.8289999962
1110.0	0.0003668	71.875
1110.0	0.0003667	71.9070000648
1110.0	0.0003665	71.9539999962
1110.0	0.0003665	72.0
1110.0	0.0003663	72.0320000648
1110.0	0.0003663	72.0789999962
1110.0	0.0003665	72.125
1110.0	0.0003667	72.1570000648
1110.0	0.0003667	72.2039999962
1110.0	0.0003663	72.2350001335
1110.0	0.0003662	72.2820000648
1110.0	0.0003661	72.3289999962
1110.0	0.0003658	72.3600001335
1120.0	0.0003692	72.625
1120.0	0.0003701	72.6720001698
1120.0	0.0003705	72.7190001011
1120.0	0.0003708	72.75
1120.0	0.0003711	72.7970001698
1120.0	0.0003713	72.8289999962
1120.0	0.0003721	72.875
1120.0	0.0003726	72.9220001698
1120.0	0.000373	72.9539999962
1120.0	0.0003731	73.0
1120.0	0.0003731	73.0470001698
1120.0	0.000373	73.0940001011
1120.0	0.0003725	73.125
1120.0	0.000372	73.1720001698
1120.0	0.000372	73.2039999962
1120.0	0.000372	73.25
1120.0	0.0003725	73.2970001698
1120.0	0.000373	73.3289999962
1120.0	0.0003732	73.375
1120.0	0.0003731	73.4220001698
1120.0	0.0003732	73.4539999962
1120.0	0.0003731	73.5
1120.0	0.0003725	73.5320000648
1120.0	0.000372	73.5789999962
1120.0	0.0003721	73.625
1120.0	0.000372	73.6570000648
1120.0	0.000372	73.7039999962
1120.0	0.0003723	73.75
1120.0	0.0003727	73.7820000648
1120.0	0.0003725	73.8289999962
1120.0	0.0003726	73.875
1120.0	0.0003723	73.9070000648
1120.0	0.0003721	73.9539999962
1120.0	0.000372	73.9850001335
1120.0	0.0003723	74.0320000648
1120.0	0.000372	74.0789999962
1120.0	0.0003718	74.1100001335
1130.0	0.0003738	74.375
1130.0	0.0003738	74.4220001698
1130.0	0.0003736	74.4690001011
1130.0	0.0003736	74.5
1130.0	0.0003738	74.5470001698
1130.0	0.0003742	74.5789999962
1130.0	0.0003745	74.625
1130.0	0.0003745	74.6720001698
1130.0	0.0003743	74.7039999962
1130.0	0.0003743	74.75
1130.0	0.0003746	74.7970001698
1130.0	0.0003748	74.8289999962
1130.0	0.0003751	74.875
1130.0	0.0003752	74.9220001698
1130.0	0.0003751	74.9539999962
1130.0	0.0003751	75.0
1130.0	0.0003751	75.0320000648
1130.0	0.0003748	75.0789999962
1130.0	0.0003751	75.125
1130.0	0.0003757	75.1570000648
1130.0	0.0003758	75.2039999962
1130.0	0.0003758	75.25
1130.0	0.0003761	75.2820000648
1130.0	0.0003758	75.3289999962
1130.0	0.0003755	75.3600001335
1130.0	0.0003752	75.4070000648
1130.0	0.0003745	75.4539999962
1130.0	0.0003738	75.4850001335
1130.0	0.0003738	75.5320000648
1130.0	0.0003738	75.5789999962
1130.0	0.0003742	75.6100001335
1130.0	0.0003746	75.6570000648
1130.0	0.0003751	75.7039999962
1130.0	0.0003755	75.7350001335
1130.0	0.0003758	75.7820000648
1130.0	0.0003758	75.8130002022
1130.0	0.0003757	75.8600001335
1140.0	0.0003758	76.125
1140.0	0.0003758	76.1720001698
1140.0	0.0003761	76.2039999962
1140.0	0.0003762	76.25
1140.0	0.0003765	76.2970001698
1140.0	0.0003765	76.3289999962
1140.0	0.0003763	76.375
1140.0	0.0003763	76.4220001698
1140.0	0.0003763	76.4539999962
1140.0	0.0003762	76.5
1140.0	0.0003763	76.5470001698
1140.0	0.0003761	76.5789999962
1140.0	0.0003757	76.625
1140.0	0.0003751	76.6720001698
1140.0	0.0003748	76.7039999962
1140.0	0.0003745	76.75
1140.0	0.0003748	76.7820000648
1140.0	0.0003751	76.8289999962
1140.0	0.0003755	76.875
1140.0	0.0003763	76.9070000648
1140.0	0.000377	76.9539999962
1140.0	0.0003773	77.0
1140.0	0.0003773	77.0320000648
1140.0	0.0003773	77.0789999962
1140.0	0.0003771	77.1100001335
1140.0	0.0003771	77.1570000648
1140.0	0.0003768	77.2039999962
1140.0	0.0003763	77.2350001335
1140.0	0.0003762	77.2820000648
1140.0	0.0003758	77.3289999962
1140.0	0.0003756	77.3600001335
1140.0	0.0003756	77.4070000648
1140.0	0.0003765	77.4380002022
1140.0	0.0003771	77.4850001335
1140.0	0.0003771	77.5320000648
1140.0	0.0003773	77.5630002022
1140.0	0.0003773	77.6100001335
1150.0	0.000377	77.875
1150.0	0.0003771	77.9220001698
1150.0	0.0003773	77.9539999962
1150.0	0.0003771	78.0
1150.0	0.0003768	78.0470001698
1150.0	0.0003765	78.0789999962
1150.0	0.0003763	78.125
1150.0	0.0003763	78.1570000648
1150.0	0.0003763	78.2039999962
1150.0	0.0003762	78.25
1150.0	0.0003761	78.2820000648
1150.0	0.0003762	78.3289999962
1150.0	0.0003762	78.375
1150.0	0.0003763	78.4070000648
1150.0	0.0003765	78.4539999962
1150.0	0.0003767	78.5
1150.0	0.0003768	78.5320000648
1150.0	0.0003768	78.5789999962
1150.0	0.0003767	78.6100001335
1150.0	0.0003765	78.6570000648
1150.0	0.0003767	78.7039999962
1150.0	0.0003768	78.7350001335
1150.0	0.0003767	78.7820000648
1150.0	0.0003768	78.8289999962
1150.0	0.000377	78.8600001335
1150.0	0.000377	78.9070000648
1150.0	0.0003775	78.9539999962
1150.0	0.0003776	78.9850001335
1150.0	0.000377	79.0320000648
1150.0	0.0003768	79.0789999962
1150.0	0.0003763	79.1100001335
1150.0	0.0003761	79.1570000648
1150.0	0.0003761	79.1880002022
1150.0	0.0003763	79.2350001335
1150.0	0.0003763	79.2820000648
1150.0	0.0003765	79.3130002022
1150.0	0.0003765	79.3600001335
1160.0	0.0003775	79.625
1160.0	0.000377	79.6720001698
1160.0	0.0003763	79.7039999962
1160.0	0.0003757	79.75
1160.0	0.0003752	79.7970001698
1160.0	0.0003752	79.8289999962
1160.0	0.0003755	79.875
1160.0	0.0003756	79.9070000648
1160.0	0.0003758	79.9539999962
1160.0	0.0003763	80.0
1160.0	0.0003763	80.0320000648
1160.0	0.0003765	80.0789999962
1160.0	0.0003765	80.125
1160.0	0.0003763	80.1570000648
1160.0	0.0003765	80.2039999962
1160.0	0.000377	80.2350001335
1160.0	0.000377	80.2820000648
1160.0	0.000377	80.3289999962
1160.0	0.0003771	80.3600001335
1160.0	0.0003771	80.4070000648
1160.0	0.0003775	80.4539999962
1160.0	0.0003776	80.4850001335
1160.0	0.0003776	80.5320000648
1160.0	0.0003775	80.5789999962
1160.0	0.0003776	80.6100001335
1160.0	0.0003777	80.6570000648
1160.0	0.000378	80.6880002022
1160.0	0.000378	80.7350001335
1160.0	0.000378	80.7820000648
1160.0	0.0003776	80.8130002022
1160.0	0.000377	80.8600001335
1160.0	0.000377	80.9070000648
1160.0	0.0003771	80.9380002022
1160.0	0.0003767	80.9850001335
1160.0	0.0003765	81.0160000324
1160.0	0.0003765	81.0630002022
1160.0	0.0003768	81.1100001335
1170.0	0.0003763	81.375
1170.0	0.0003758	81.4220001698
1170.0	0.0003762	81.4539999962
1170.0	0.0003767	81.5
1170.0	0.0003767	81.5470001698
1170.0	0.0003768	81.5789999962
1170.0	0.000377	81.625
1170.0	0.000377	81.6570000648
1170.0	0.000377	81.7039999962
1170.0	0.0003773	81.75
1170.0	0.0003776	81.7820000648
1170.0	0.0003776	81.8289999962
1170.0	0.0003775	81.875
1170.0	0.000377	81.9070000648
1170.0	0.0003763	81.9539999962
1170.0	0.0003763	81.9850001335
1170.0	0.0003767	82.0320000648
1170.0	0.000377	82.0789999962
1170.0	0.0003773	82.1100001335
1170.0	0.0003777	82.1570000648
1170.0	0.000378	82.2039999962
1170.0	0.000378	82.2350001335
1170.0	0.000378	82.2820000648
1170.0	0.0003781	82.3289999962
1170.0	0.000378	82.3600001335
1170.0	0.0003782	82.4070000648
1170.0	0.0003783	82.4380002022
1170.0	0.0003783	82.4850001335
1170.0	0.0003786	82.5320000648
1170.0	0.0003783	82.5630002022
1170.0	0.000378	82.6100001335
1170.0	0.0003777	82.6570000648
1170.0	0.0003777	82.6880002022
1170.0	0.0003773	82.7350001335
1170.0	0.0003767	82.7660000324
1170.0	0.0003765	82.8130002022
1170.0	0.0003763	82.8600001335
1180.0	0.0003782	83.125
1180.0	0.0003786	83.1720001698
1180.0	0.0003787	83.2039999962
1180.0	0.0003793	83.25
1180.0	0.0003795	83.2970001698
1180.0	0.0003795	83.3289999962
1180.0	0.0003796	83.375
1180.0	0.0003795	83.4220001698
1180.0	0.0003795	83.4539999962
1180.0	0.0003798	83.5
1180.0	0.0003798	83.5470001698
1180.0	0.0003798	83.5789999962
1180.0	0.0003801	83.625
1180.0	0.00038	83.6570000648
1180.0	0.0003796	83.7039999962
1180.0	0.0003796	83.75
1180.0	0.0003796	83.7820000648
1180.0	0.00038	83.8289999962
1180.0	0.0003802	83.875
1180.0	0.0003806	83.9070000648
1180.0	0.0003805	83.9539999962
1180.0	0.0003801	83.9850001335
1180.0	0.00038	84.0320000648
1180.0	0.0003798	84.0789999962
1180.0	0.00038	84.1100001335
1180.0	0.0003801	84.1570000648
1180.0	0.00038	84.2039999962
1180.0	0.0003798	84.2350001335
1180.0	0.0003795	84.2820000648
1180.0	0.0003795	84.3289999962
1180.0	0.0003795	84.3600001335
1180.0	0.00038	84.4070000648
1180.0	0.0003805	84.4380002022
1180.0	0.0003806	84.4850001335
1180.0	0.0003808	84.5320000648
1180.0	0.0003811	84.5630002022
1180.0	0.0003807	84.6100001335
1190.0	0.0003806	84.875
1190.0	0.0003807	84.9220001698
1190.0	0.0003808	84.9690001011
1190.0	0.0003808	85.0
1190.0	0.0003808	85.0470001698
1190.0	0.0003808	85.0940001011
1190.0	0.0003815	85.1410000324
1190.0	0.000382	85.1720001698
1190.0	0.000382	85.2190001011
1190.0	0.0003821	85.25
1190.0	0.0003823	85.2970001698
1190.0	0.0003826	85.3440001011
1190.0	0.0003827	85.375
1190.0	0.000383	85.4220001698
1190.0	0.0003825	85.4690001011
1190.0	0.0003826	85.5
1190.0	0.0003831	85.5470001698
1190.0	0.0003832	85.5789999962
1190.0	0.0003831	85.625
1190.0	0.0003831	85.6720001698
1190.0	0.0003827	85.7039999962
1190.0	0.0003821	85.75
1190.0	0.000382	85.7970001698
1190.0	0.000382	85.8289999962
1190.0	0.0003821	85.875
1190.0	0.000383	85.9070000648
1190.0	0.000383	85.9539999962
1190.0	0.000383	86.0
1190.0	0.0003827	86.0320000648
1190.0	0.0003827	86.0789999962
1190.0	0.000383	86.125
1190.0	0.000383	86.1570000648
1190.0	0.0003831	86.2039999962
1190.0	0.0003831	86.25
1190.0	0.0003833	86.2820000648
1190.0	0.0003832	86.3289999962
1190.0	0.0003831	86.3600001335
1200.0	0.0003842	86.6410000324
1200.0	0.000385	86.6720001698
1200.0	0.0003855	86.7190001011
1200.0	0.0003857	86.7660000324
1200.0	0.0003861	86.7970001698
1200.0	0.0003861	86.8440001011
1200.0	0.0003861	86.8910000324
1200.0	0.0003858	86.9220001698
1200.0	0.0003857	86.9690001011
1200.0	0.0003858	87.0
1200.0	0.0003858	87.0470001698
1200.0	0.0003858	87.0940001011
1200.0	0.0003861	87.125
1200.0	0.0003863	87.1720001698
1200.0	0.0003867	87.2190001011
1200.0	0.0003868	87.25
1200.0	0.0003873	87.2970001698
1200.0	0.0003875	87.3289999962
1200.0	0.0003873	87.375
1200.0	0.0003873	87.4220001698
1200.0	0.0003873	87.4539999962
1200.0	0.0003875	87.5
1200.0	0.0003877	87.5470001698
1200.0	0.0003881	87.5789999962
1200.0	0.0003881	87.625
1200.0	0.0003882	87.6720001698
1200.0	0.0003881	87.7039999962
1200.0	0.0003873	87.75
1200.0	0.0003868	87.7970001698
1200.0	0.0003867	87.8289999962
1200.0	0.0003867	87.875
1200.0	0.0003863	87.9220001698
1200.0	0.0003858	87.9539999962
1200.0	0.0003852	88.0
1200.0	0.0003851	88.0320000648
1200.0	0.0003857	88.0789999962
1200.0	0.0003862	88.125
1210.0	0.0003892	88.3910000324
1210.0	0.0003901	88.4380002022
1210.0	0.0003906	88.4690001011
1210.0	0.0003912	88.5160000324
1210.0	0.0003915	88.5470001698
1210.0	0.0003917	88.5940001011
1210.0	0.0003918	88.6410000324
1210.0	0.000392	88.6880002022
1210.0	0.0003921	88.7190001011
1210.0	0.0003926	88.7660000324
1210.0	0.0003926	88.8130002022
1210.0	0.0003926	88.8440001011
1210.0	0.0003925	88.8910000324
1210.0	0.0003926	88.9220001698
1210.0	0.0003926	88.9690001011
1210.0	0.0003926	89.0160000324
1210.0	0.0003926	89.0470001698
1210.0	0.0003927	89.0940001011
1210.0	0.0003926	89.1410000324
1210.0	0.0003931	89.1720001698
1210.0	0.0003936	89.2190001011
1210.0	0.0003936	89.25
1210.0	0.0003931	89.2970001698
1210.0	0.000393	89.3440001011
1210.0	0.0003926	89.375
1210.0	0.0003923	89.4220001698
1210.0	0.000392	89.4690001011
1210.0	0.000392	89.5
1210.0	0.0003925	89.5470001698
1210.0	0.000393	89.5789999962
1210.0	0.0003932	89.625
1210.0	0.0003932	89.6720001698
1210.0	0.0003933	89.7039999962
1210.0	0.0003936	89.75
1210.0	0.0003936	89.7970001698
1210.0	0.0003936	89.8289999962
1210.0	0.0003933	89.875
1220.0	0.0003955	90.1410000324
1220.0	0.0003963	90.1880002022
1220.0	0.000397	90.2190001011
1220.0	0.0003975	90.2660000324
1220.0	0.000398	90.2970001698
1220.0	0.000398	90.3440001011
1220.0	0.0003975	90.3910000324
1220.0	0.0003976	90.4380002022
1220.0	0.0003977	90.4690001011
1220.0	0.0003977	90.5160000324
1220.0	0.0003983	90.5630002022
1220.0	0.0003988	90.5940001011
1220.0	0.0003986	90.6410000324
1220.0	0.0003987	90.6880002022
1220.0	0.0003983	90.7190001011
1220.0	0.0003982	90.7660000324
1220.0	0.0003987	90.8130002022
1220.0	0.0003992	90.8440001011
1220.0	0.000399	90.8910000324
1220.0	0.000399	90.9220001698
1220.0	0.0003988	90.9690001011
1220.0	0.0003986	91.0160000324
1220.0	0.0003983	91.0470001698
1220.0	0.0003981	91.0940001011
1220.0	0.0003976	91.1410000324
1220.0	0.0003976	91.1720001698
1220.0	0.000398	91.2190001011
1220.0	0.000398	91.25
1220.0	0.0003976	91.2970001698
1220.0	0.0003976	91.3440001011
1220.0	0.0003981	91.375
1220.0	0.0003983	91.4220001698
1220.0	0.0003987	91.4690001011
1220.0	0.0003988	91.5
1220.0	0.0003988	91.5470001698
1220.0	0.0003988	91.5789999962
1230.0	0.0004018	91.8600001335
1230.0	0.0004026	91.8910000324
1230.0	0.0004037	91.9380002022
1230.0	0.0004048	91.9690001011
1230.0	0.0004052	92.0160000324
1230.0	0.0004057	92.0630002022
1230.0	0.0004061	92.0940001011
1230.0	0.0004062	92.1410000324
1230.0	0.0004062	92.1880002022
1230.0	0.0004058	92.2190001011
1230.0	0.0004056	92.2660000324
1230.0	0.0004052	92.2970001698
1230.0	0.0004048	92.3440001011
1230.0	0.0004045	92.3910000324
1230.0	0.0004042	92.4220001698
1230.0	0.0004045	92.4690001011
1230.0	0.0004048	92.5160000324
1230.0	0.0004045	92.5470001698
1230.0	0.0004045	92.5940001011
1230.0	0.0004048	92.625
1230.0	0.0004045	92.6720001698
1230.0	0.0004042	92.7190001011
1230.0	0.0004045	92.75
1230.0	0.0004045	92.7970001698
1230.0	0.0004048	92.8440001011
1230.0	0.0004051	92.875
1230.0	0.0004055	92.9220001698
1230.0	0.0004056	92.9690001011
1230.0	0.0004058	93.0
1230.0	0.0004057	93.0470001698
1230.0	0.0004056	93.0789999962
1230.0	0.0004056	93.125
1230.0	0.0004056	93.1720001698
1230.0	0.0004056	93.2039999962
1230.0	0.0004057	93.25
1230.0	0.0004061	93.2970001698
1230.0	0.0004063	93.3289999962
1240.0	0.0004076	93.5940001011
1240.0	0.0004082	93.6410000324
1240.0	0.000409	93.6880002022
1240.0	0.00041	93.7190001011
1240.0	0.0004106	93.7660000324
1240.0	0.0004106	93.8130002022
1240.0	0.0004107	93.8440001011
1240.0	0.0004106	93.8910000324
1240.0	0.0004107	93.9380002022
1240.0	0.0004111	93.9690001011
1240.0	0.0004113	94.0160000324
1240.0	0.0004113	94.0470001698
1240.0	0.0004115	94.0940001011
1240.0	0.0004115	94.1410000324
1240.0	0.0004115	94.1720001698
1240.0	0.0004118	94.2190001011
1240.0	0.0004121	94.2660000324
1240.0	0.0004125	94.2970001698
1240.0	0.0004126	94.3440001011
1240.0	0.0004126	94.375
1240.0	0.0004126	94.4220001698
1240.0	0.0004123	94.4690001011
1240.0	0.0004118	94.5
1240.0	0.0004115	94.5470001698
1240.0	0.0004117	94.5940001011
1240.0	0.0004115	94.625
1240.0	0.0004117	94.6720001698
1240.0	0.0004115	94.7190001011
1240.0	0.0004112	94.75
1240.0	0.0004112	94.7970001698
1240.0	0.0004113	94.8289999962
1240.0	0.0004113	94.875
1240.0	0.0004118	94.9220001698
1240.0	0.0004123	94.9539999962
1240.0	0.000412	95.0
1240.0	0.0004121	95.0470001698
1240.0	0.0004123	95.0789999962
1250.0	0.0004142	95.3440001011
1250.0	0.0004148	95.3910000324
1250.0	0.0004152	95.4380002022
1250.0	0.0004156	95.4690001011
1250.0	0.0004158	95.5160000324
1250.0	0.0004158	95.5630002022
1250.0	0.0004161	95.5940001011
1250.0	0.0004167	95.6410000324
1250.0	0.0004175	95.6880002022
1250.0	0.0004176	95.7190001011
1250.0	0.0004175	95.7660000324
1250.0	0.0004171	95.7970001698
1250.0	0.0004168	95.8440001011
1250.0	0.0004168	95.8910000324
1250.0	0.000417	95.9220001698
1250.0	0.0004173	95.9690001011
1250.0	0.0004176	96.0160000324
1250.0	0.0004177	96.0470001698
1250.0	0.0004176	96.0940001011
1250.0	0.0004171	96.125
1250.0	0.0004171	96.1720001698
1250.0	0.0004175	96.2190001011
1250.0	0.0004176	96.25
1250.0	0.0004182	96.2970001698
1250.0	0.0004182	96.3440001011
1250.0	0.0004182	96.375
1250.0	0.0004177	96.4220001698
1250.0	0.0004171	96.4690001011
1250.0	0.0004161	96.5
1250.0	0.0004152	96.5470001698
1250.0	0.0004155	96.5789999962
1250.0	0.0004161	96.625
1250.0	0.0004167	96.6720001698
1250.0	0.0004171	96.7039999962
1250.0	0.0004173	96.75
1250.0	0.0004171	96.7970001698
1250.0	0.0004173	96.8289999962
1260.0	0.0004187	97.0940001011
1260.0	0.0004195	97.1410000324
1260.0	0.0004205	97.1720001698
1260.0	0.0004212	97.2190001011
1260.0	0.0004218	97.2660000324
1260.0	0.0004225	97.2970001698
1260.0	0.0004227	97.3440001011
1260.0	0.0004227	97.3910000324
1260.0	0.0004226	97.4220001698
1260.0	0.0004225	97.4690001011
1260.0	0.0004223	97.5160000324
1260.0	0.0004225	97.5470001698
1260.0	0.0004221	97.5940001011
1260.0	0.0004221	97.625
1260.0	0.0004223	97.6720001698
1260.0	0.0004225	97.7190001011
1260.0	0.0004225	97.75
1260.0	0.0004225	97.7970001698
1260.0	0.0004226	97.8440001011
1260.0	0.0004231	97.875
1260.0	0.0004231	97.9220001698
1260.0	0.0004232	97.9539999962
1260.0	0.0004231	98.0
1260.0	0.0004227	98.0470001698
1260.0	0.0004232	98.0789999962
1260.0	0.0004231	98.125
1260.0	0.0004232	98.1720001698
1260.0	0.0004231	98.2039999962
1260.0	0.0004226	98.25
1260.0	0.0004221	98.2820000648
1260.0	0.000422	98.3289999962
1260.0	0.0004225	98.375
1260.0	0.0004226	98.4070000648
1260.0	0.0004225	98.4539999962
1260.0	0.0004223	98.5
1260.0	0.0004223	98.5320000648
1260.0	0.0004223	98.5789999962
1270.0	0.0004237	98.8440001011
1270.0	0.0004242	98.8910000324
1270.0	0.0004245	98.9220001698
1270.0	0.0004248	98.9690001011
1270.0	0.0004252	99.0
1270.0	0.0004256	99.0470001698
1270.0	0.0004258	99.0940001011
1270.0	0.0004261	99.125
1270.0	0.0004261	99.1720001698
1270.0	0.0004263	99.2190001011
1270.0	0.0004265	99.25
1270.0	0.0004262	99.2970001698
1270.0	0.0004263	99.3289999962
1270.0	0.000427	99.375
1270.0	0.0004273	99.4220001698
1270.0	0.000427	99.4539999962
1270.0	0.0004267	99.5
1270.0	0.0004262	99.5470001698
1270.0	0.0004257	99.5789999962
1270.0	0.0004255	99.625
1270.0	0.0004256	99.6720001698
1270.0	0.0004255	99.7039999962
1270.0	0.0004258	99.75
1270.0	0.0004263	99.7820000648
1270.0	0.0004263	99.8289999962
1270.0	0.0004263	99.875
1270.0	0.0004262	99.9070000648
1270.0	0.0004256	99.9539999962
1270.0	0.0004252	100.0
1270.0	0.0004255	100.032000065
1270.0	0.0004251	100.078999996
1270.0	0.0004252	100.110000134
1270.0	0.0004255	100.157000065
1270.0	0.0004256	100.203999996
1270.0	0.0004251	100.235000134
1270.0	0.0004248	100.282000065
1270.0	0.0004246	100.328999996
1280.0	0.0004255	100.594000101
1280.0	0.0004261	100.625
1280.0	0.0004265	100.67200017
1280.0	0.000427	100.719000101
1280.0	0.0004275	100.75
1280.0	0.0004277	100.79700017
1280.0	0.0004277	100.828999996
1280.0	0.0004277	100.875
1280.0	0.0004277	100.92200017
1280.0	0.0004271	100.953999996
1280.0	0.000427	101.0
1280.0	0.000427	101.04700017
1280.0	0.0004268	101.078999996
1280.0	0.0004267	101.125
1280.0	0.0004265	101.17200017
1280.0	0.0004268	101.203999996
1280.0	0.0004268	101.25
1280.0	0.0004267	101.282000065
1280.0	0.0004267	101.328999996
1280.0	0.0004267	101.375
1280.0	0.0004271	101.407000065
1280.0	0.0004271	101.453999996
1280.0	0.000427	101.5
1280.0	0.000427	101.532000065
1280.0	0.0004267	101.578999996
1280.0	0.0004265	101.610000134
1280.0	0.0004263	101.657000065
1280.0	0.0004263	101.703999996
1280.0	0.0004261	101.735000134
1280.0	0.0004262	101.782000065
1280.0	0.0004262	101.828999996
1280.0	0.0004263	101.860000134
1280.0	0.0004262	101.907000065
1280.0	0.0004263	101.938000202
1280.0	0.0004261	101.985000134
1280.0	0.0004262	102.032000065
1280.0	0.0004263	102.063000202
1290.0	0.0004265	102.328999996
1290.0	0.0004265	102.375
1290.0	0.0004265	102.42200017
1290.0	0.0004258	102.453999996
1290.0	0.0004255	102.5
1290.0	0.0004255	102.54700017
1290.0	0.0004248	102.578999996
1290.0	0.0004245	102.625
1290.0	0.0004246	102.67200017
1290.0	0.0004251	102.703999996
1290.0	0.0004255	102.75
1290.0	0.0004255	102.79700017
1290.0	0.0004251	102.828999996
1290.0	0.0004248	102.875
1290.0	0.000425	102.907000065
1290.0	0.0004248	102.953999996
1290.0	0.0004248	103.0
1290.0	0.000425	103.032000065
1290.0	0.0004258	103.078999996
1290.0	0.0004263	103.125
1290.0	0.0004265	103.157000065
1290.0	0.0004263	103.203999996
1290.0	0.0004261	103.25
1290.0	0.0004256	103.282000065
1290.0	0.0004255	103.328999996
1290.0	0.0004255	103.360000134
1290.0	0.000425	103.407000065
1290.0	0.0004248	103.453999996
1290.0	0.0004248	103.5
1290.0	0.0004251	103.532000065
1290.0	0.0004252	103.578999996
1290.0	0.0004255	103.610000134
1290.0	0.0004255	103.657000065
1290.0	0.0004251	103.703999996
1290.0	0.000425	103.735000134
1290.0	0.0004248	103.782000065
1290.0	0.0004248	103.828999996
1300.0	0.0004238	104.094000101
1300.0	0.0004236	104.125
1300.0	0.0004233	104.17200017
1300.0	0.000423	104.219000101
1300.0	0.0004223	104.25
1300.0	0.0004217	104.29700017
1300.0	0.0004217	104.328999996
1300.0	0.0004215	104.375
1300.0	0.0004213	104.42200017
1300.0	0.0004208	104.453999996
1300.0	0.0004205	104.5
1300.0	0.0004201	104.54700017
1300.0	0.0004205	104.578999996
1300.0	0.0004211	104.625
1300.0	0.0004207	104.657000065
1300.0	0.0004206	104.703999996
1300.0	0.0004205	104.75
1300.0	0.00042	104.782000065
1300.0	0.0004201	104.828999996
1300.0	0.0004206	104.875
1300.0	0.0004211	104.907000065
1300.0	0.0004215	104.953999996
1300.0	0.000422	104.985000134
1300.0	0.0004221	105.032000065
1300.0	0.0004217	105.078999996
1300.0	0.0004215	105.110000134
1300.0	0.0004213	105.157000065
1300.0	0.0004213	105.203999996
1300.0	0.0004215	105.235000134
1300.0	0.0004218	105.282000065
1300.0	0.0004217	105.328999996
1300.0	0.0004212	105.360000134
1300.0	0.0004208	105.407000065
1300.0	0.0004208	105.438000202
1300.0	0.0004208	105.485000134
1300.0	0.0004208	105.532000065
1300.0	0.0004208	105.563000202
1310.0	0.000418	105.844000101
1310.0	0.0004162	105.875
1310.0	0.0004145	105.92200017
1310.0	0.0004132	105.969000101
1310.0	0.0004123	106.0
1310.0	0.0004117	106.04700017
1310.0	0.0004113	106.078999996
1310.0	0.0004112	106.125
1310.0	0.0004107	106.17200017
1310.0	0.0004101	106.203999996
1310.0	0.0004098	106.25
1310.0	0.0004096	106.29700017
1310.0	0.0004098	106.328999996
1310.0	0.0004101	106.375
1310.0	0.0004106	106.407000065
1310.0	0.0004106	106.453999996
1310.0	0.0004106	106.5
1310.0	0.0004105	106.532000065
1310.0	0.0004101	106.578999996
1310.0	0.00041	106.625
1310.0	0.0004098	106.657000065
1310.0	0.00041	106.703999996
1310.0	0.0004105	106.735000134
1310.0	0.0004108	106.782000065
1310.0	0.0004111	106.828999996
1310.0	0.0004113	106.860000134
1310.0	0.0004115	106.907000065
1310.0	0.0004108	106.953999996
1310.0	0.0004106	106.985000134
1310.0	0.0004111	107.032000065
1310.0	0.0004112	107.078999996
1310.0	0.0004112	107.110000134
1310.0	0.0004112	107.157000065
1310.0	0.0004112	107.188000202
1310.0	0.0004111	107.235000134
1310.0	0.0004107	107.282000065
1310.0	0.0004105	107.313000202
1320.0	0.0004052	107.594000101
1320.0	0.0004031	107.625
1320.0	0.0004008	107.67200017
1320.0	0.0003992	107.703999996
1320.0	0.0003983	107.75
1320.0	0.0003977	107.79700017
1320.0	0.0003971	107.828999996
1320.0	0.0003968	107.875
1320.0	0.0003967	107.92200017
1320.0	0.0003967	107.953999996
1320.0	0.0003967	108.0
1320.0	0.0003963	108.04700017
1320.0	0.0003963	108.078999996
1320.0	0.0003961	108.125
1320.0	0.0003962	108.157000065
1320.0	0.0003962	108.203999996
1320.0	0.0003965	108.25
1320.0	0.0003967	108.282000065
1320.0	0.000397	108.328999996
1320.0	0.0003975	108.375
1320.0	0.0003976	108.407000065
1320.0	0.0003973	108.453999996
1320.0	0.0003971	108.485000134
1320.0	0.0003973	108.532000065
1320.0	0.0003973	108.578999996
1320.0	0.0003976	108.610000134
1320.0	0.0003973	108.657000065
1320.0	0.000397	108.703999996
1320.0	0.000397	108.735000134
1320.0	0.0003967	108.782000065
1320.0	0.0003967	108.828999996
1320.0	0.0003968	108.860000134
1320.0	0.000397	108.907000065
1320.0	0.0003973	108.938000202
1320.0	0.0003968	108.985000134
1320.0	0.0003968	109.032000065
1320.0	0.0003971	109.063000202
1330.0	0.0003896	109.344000101
1330.0	0.0003873	109.375
1330.0	0.0003852	109.42200017
1330.0	0.0003832	109.453999996
1330.0	0.0003818	109.5
1330.0	0.0003808	109.54700017
1330.0	0.0003798	109.578999996
1330.0	0.0003792	109.625
1330.0	0.0003792	109.67200017
1330.0	0.0003792	109.703999996
1330.0	0.0003792	109.75
1330.0	0.000379	109.79700017
1330.0	0.0003788	109.828999996
1330.0	0.0003783	109.875
1330.0	0.0003783	109.907000065
1330.0	0.0003782	109.953999996
1330.0	0.0003781	110.0
1330.0	0.0003786	110.032000065
1330.0	0.0003782	110.078999996
1330.0	0.000378	110.125
1330.0	0.0003777	110.157000065
1330.0	0.0003776	110.203999996
1330.0	0.0003776	110.235000134
1330.0	0.0003771	110.282000065
1330.0	0.000377	110.328999996
1330.0	0.000377	110.360000134
1330.0	0.0003765	110.407000065
1330.0	0.0003765	110.453999996
1330.0	0.0003768	110.485000134
1330.0	0.0003768	110.532000065
1330.0	0.0003771	110.563000202
1330.0	0.0003771	110.610000134
1330.0	0.0003768	110.657000065
1330.0	0.0003762	110.688000202
1330.0	0.0003761	110.735000134
1330.0	0.0003761	110.782000065
1330.0	0.0003758	110.813000202
1340.0	0.0003671	111.094000101
1340.0	0.000364	111.125
1340.0	0.0003617	111.17200017
1340.0	0.0003595	111.203999996
1340.0	0.0003577	111.25
1340.0	0.0003567	111.29700017
1340.0	0.0003557	111.328999996
1340.0	0.0003551	111.375
1340.0	0.0003545	111.42200017
1340.0	0.000354	111.453999996
1340.0	0.0003536	111.5
1340.0	0.0003532	111.532000065
1340.0	0.0003532	111.578999996
1340.0	0.000353	111.625
1340.0	0.0003523	111.657000065
1340.0	0.0003521	111.703999996
1340.0	0.0003526	111.75
1340.0	0.000353	111.782000065
1340.0	0.0003526	111.828999996
1340.0	0.0003525	111.875
1340.0	0.0003526	111.907000065
1340.0	0.0003527	111.953999996
1340.0	0.000353	111.985000134
1340.0	0.000353	112.032000065
1340.0	0.0003527	112.078999996
1340.0	0.0003527	112.110000134
1340.0	0.0003526	112.157000065
1340.0	0.0003525	112.203999996
1340.0	0.0003526	112.235000134
1340.0	0.0003523	112.282000065
1340.0	0.0003521	112.313000202
1340.0	0.0003521	112.360000134
1340.0	0.0003521	112.407000065
1340.0	0.0003526	112.438000202
1340.0	0.0003526	112.485000134
1340.0	0.000353	112.532000065
1340.0	0.000353	112.563000202
1350.0	0.0003431	112.828999996
1350.0	0.0003395	112.875
1350.0	0.0003367	112.92200017
1350.0	0.000335	112.953999996
1350.0	0.0003332	113.0
1350.0	0.0003317	113.032000065
1350.0	0.0003305	113.078999996
1350.0	0.0003295	113.125
1350.0	0.000329	113.157000065
1350.0	0.0003286	113.203999996
1350.0	0.000328	113.25
1350.0	0.0003275	113.282000065
1350.0	0.0003268	113.328999996
1350.0	0.0003265	113.360000134
1350.0	0.0003263	113.407000065
1350.0	0.0003263	113.453999996
1350.0	0.0003265	113.485000134
1350.0	0.0003267	113.532000065
1350.0	0.000327	113.578999996
1350.0	0.0003271	113.610000134
1350.0	0.0003271	113.657000065
1350.0	0.0003267	113.703999996
1350.0	0.0003262	113.735000134
1350.0	0.0003258	113.782000065
1350.0	0.0003255	113.813000202
1350.0	0.0003252	113.860000134
1350.0	0.0003256	113.907000065
1350.0	0.0003256	113.938000202
1350.0	0.0003255	113.985000134
1350.0	0.0003255	114.032000065
1350.0	0.000325	114.063000202
1350.0	0.0003246	114.110000134
1350.0	0.0003245	114.141000032
1350.0	0.0003248	114.188000202
1350.0	0.0003245	114.235000134
1350.0	0.0003243	114.266000032
1350.0	0.000324	114.313000202
1360.0	0.0003153	114.578999996
1360.0	0.000312	114.625
1360.0	0.0003091	114.657000065
1360.0	0.000307	114.703999996
1360.0	0.0003056	114.75
1360.0	0.0003043	114.782000065
1360.0	0.0003031	114.828999996
1360.0	0.0003026	114.860000134
1360.0	0.0003022	114.907000065
1360.0	0.0003013	114.953999996
1360.0	0.0003007	114.985000134
1360.0	0.000301	115.032000065
1360.0	0.0003008	115.078999996
1360.0	0.000301	115.110000134
1360.0	0.0003012	115.157000065
1360.0	0.0003012	115.188000202
1360.0	0.0003012	115.235000134
1360.0	0.0003016	115.282000065
1360.0	0.0003021	115.313000202
1360.0	0.0003022	115.360000134
1360.0	0.0003021	115.407000065
1360.0	0.0003021	115.438000202
1360.0	0.000302	115.485000134
1360.0	0.0003018	115.516000032
1360.0	0.0003016	115.563000202
1360.0	0.0003015	115.610000134
1360.0	0.0003013	115.641000032
1360.0	0.0003018	115.688000202
1360.0	0.000302	115.735000134
1360.0	0.0003022	115.766000032
1360.0	0.0003026	115.813000202
1360.0	0.0003028	115.844000101
1360.0	0.0003026	115.891000032
1360.0	0.0003025	115.938000202
1360.0	0.0003021	115.969000101
1360.0	0.0003016	116.016000032
1360.0	0.000301	116.063000202
1370.0	0.0002931	116.328999996
1370.0	0.0002901	116.360000134
1370.0	0.0002882	116.407000065
1370.0	0.0002863	116.453999996
1370.0	0.0002846	116.485000134
1370.0	0.0002837	116.532000065
1370.0	0.0002831	116.578999996
1370.0	0.0002821	116.610000134
1370.0	0.0002813	116.657000065
1370.0	0.000281	116.688000202
1370.0	0.0002807	116.735000134
1370.0	0.0002807	116.782000065
1370.0	0.0002806	116.813000202
1370.0	0.0002806	116.860000134
1370.0	0.0002806	116.907000065
1370.0	0.0002803	116.938000202
1370.0	0.0002802	116.985000134
1370.0	0.0002796	117.016000032
1370.0	0.0002797	117.063000202
1370.0	0.0002797	117.110000134
1370.0	0.00028	117.141000032
1370.0	0.0002801	117.188000202
1370.0	0.0002803	117.219000101
1370.0	0.0002807	117.266000032
1370.0	0.0002802	117.313000202
1370.0	0.0002803	117.344000101
1370.0	0.0002807	117.391000032
1370.0	0.0002808	117.438000202
1370.0	0.0002812	117.469000101
1370.0	0.0002812	117.516000032
1370.0	0.0002812	117.563000202
1370.0	0.0002812	117.594000101
1370.0	0.0002813	117.641000032
1370.0	0.0002807	117.67200017
1370.0	0.0002806	117.719000101
1370.0	0.0002806	117.766000032
1370.0	0.0002807	117.79700017
1380.0	0.0002747	118.063000202
1380.0	0.0002726	118.110000134
1380.0	0.0002708	118.157000065
1380.0	0.0002695	118.188000202
1380.0	0.0002681	118.235000134
1380.0	0.0002672	118.282000065
1380.0	0.0002668	118.313000202
1380.0	0.0002662	118.360000134
1380.0	0.0002657	118.391000032
1380.0	0.0002652	118.438000202
1380.0	0.0002651	118.485000134
1380.0	0.0002652	118.516000032
1380.0	0.0002652	118.563000202
1380.0	0.0002651	118.610000134
1380.0	0.0002652	118.641000032
1380.0	0.0002653	118.688000202
1380.0	0.0002656	118.719000101
1380.0	0.0002657	118.766000032
1380.0	0.0002656	118.813000202
1380.0	0.0002653	118.844000101
1380.0	0.0002653	118.891000032
1380.0	0.0002652	118.938000202
1380.0	0.0002647	118.969000101
1380.0	0.0002646	119.016000032
1380.0	0.0002646	119.04700017
1380.0	0.0002646	119.094000101
1380.0	0.0002645	119.141000032
1380.0	0.0002645	119.17200017
1380.0	0.0002646	119.219000101
1380.0	0.000265	119.266000032
1380.0	0.0002652	119.29700017
1380.0	0.0002656	119.344000101
1380.0	0.0002657	119.391000032
1380.0	0.0002653	119.42200017
1380.0	0.000265	119.469000101
1380.0	0.0002646	119.5
1380.0	0.0002645	119.54700017
1390.0	0.000259	119.813000202
1390.0	0.0002577	119.860000134
1390.0	0.0002566	119.891000032
1390.0	0.0002556	119.938000202
1390.0	0.000255	119.985000134
1390.0	0.0002551	120.016000032
1390.0	0.0002553	120.063000202
1390.0	0.0002552	120.110000134
1390.0	0.000255	120.141000032
1390.0	0.0002541	120.188000202
1390.0	0.0002533	120.235000134
1390.0	0.0002532	120.266000032
1390.0	0.0002531	120.313000202
1390.0	0.0002527	120.360000134
1390.0	0.0002531	120.391000032
1390.0	0.0002528	120.438000202
1390.0	0.0002526	120.469000101
1390.0	0.0002526	120.516000032
1390.0	0.0002527	120.563000202
1390.0	0.0002528	120.594000101
1390.0	0.0002532	120.641000032
1390.0	0.0002537	120.688000202
1390.0	0.0002537	120.719000101
1390.0	0.0002535	120.766000032
1390.0	0.0002535	120.79700017
1390.0	0.0002537	120.844000101
1390.0	0.0002537	120.891000032
1390.0	0.0002535	120.92200017
1390.0	0.0002533	120.969000101
1390.0	0.0002531	121.016000032
1390.0	0.0002525	121.04700017
1390.0	0.0002525	121.094000101
1390.0	0.0002522	121.141000032
1390.0	0.0002528	121.17200017
1390.0	0.0002532	121.219000101
1390.0	0.0002531	121.25
1390.0	0.0002531	121.29700017
1400.0	0.0002508	121.563000202
1400.0	0.0002496	121.610000134
1400.0	0.0002485	121.641000032
1400.0	0.0002477	121.688000202
1400.0	0.0002471	121.735000134
1400.0	0.0002465	121.766000032
1400.0	0.000246	121.813000202
1400.0	0.0002457	121.860000134
1400.0	0.0002452	121.891000032
1400.0	0.0002453	121.938000202
1400.0	0.0002456	121.985000134
1400.0	0.0002456	122.016000032
1400.0	0.0002456	122.063000202
1400.0	0.0002452	122.110000134
1400.0	0.0002452	122.141000032
1400.0	0.0002452	122.188000202
1400.0	0.0002453	122.219000101
1400.0	0.0002456	122.266000032
1400.0	0.0002456	122.313000202
1400.0	0.0002458	122.344000101
1400.0	0.000246	122.391000032
1400.0	0.0002463	122.438000202
1400.0	0.0002466	122.469000101
1400.0	0.0002468	122.516000032
1400.0	0.0002472	122.54700017
1400.0	0.0002472	122.594000101
1400.0	0.0002475	122.641000032
1400.0	0.0002477	122.67200017
1400.0	0.0002477	122.719000101
1400.0	0.0002475	122.766000032
1400.0	0.0002468	122.79700017
1400.0	0.0002466	122.844000101
1400.0	0.0002465	122.875
1400.0	0.0002463	122.92200017
1400.0	0.0002466	122.969000101
1400.0	0.0002468	123.0
1400.0	0.0002465	123.04700017
1410.0	0.0002453	123.313000202
1410.0	0.000245	123.360000134
1410.0	0.0002447	123.391000032
1410.0	0.0002446	123.438000202
1410.0	0.0002443	123.485000134
1410.0	0.0002443	123.516000032
1410.0	0.000244	123.563000202
1410.0	0.000244	123.610000134
1410.0	0.0002446	123.641000032
1410.0	0.0002451	123.688000202
1410.0	0.0002451	123.735000134
1410.0	0.0002447	123.782000065
1410.0	0.0002446	123.813000202
1410.0	0.0002445	123.860000134
1410.0	0.0002443	123.891000032
1410.0	0.0002441	123.938000202
1410.0	0.000244	123.985000134
1410.0	0.0002437	124.016000032
1410.0	0.0002433	124.063000202
1410.0	0.0002433	124.110000134
1410.0	0.0002433	124.141000032
1410.0	0.0002433	124.188000202
1410.0	0.0002432	124.235000134
1410.0	0.0002432	124.266000032
1410.0	0.0002435	124.313000202
1410.0	0.0002437	124.360000134
1410.0	0.0002437	124.391000032
1410.0	0.0002438	124.438000202
1410.0	0.0002438	124.469000101
1410.0	0.000244	124.516000032
1410.0	0.000244	124.563000202
1410.0	0.000244	124.594000101
1410.0	0.000244	124.641000032
1410.0	0.0002441	124.688000202
1410.0	0.0002443	124.719000101
1410.0	0.0002443	124.766000032
1420.0	0.0002431	125.032000065
1420.0	0.0002435	125.078999996
1420.0	0.0002441	125.110000134
1420.0	0.0002443	125.157000065
1420.0	0.0002443	125.188000202
1420.0	0.0002445	125.235000134
1420.0	0.0002446	125.282000065
1420.0	0.0002446	125.313000202
1420.0	0.0002446	125.360000134
1420.0	0.0002446	125.407000065
1420.0	0.0002447	125.438000202
1420.0	0.0002452	125.485000134
1420.0	0.0002451	125.532000065
1420.0	0.0002453	125.563000202
1420.0	0.0002457	125.610000134
1420.0	0.0002453	125.641000032
1420.0	0.000245	125.688000202
1420.0	0.0002447	125.735000134
1420.0	0.0002446	125.766000032
1420.0	0.000245	125.813000202
1420.0	0.0002452	125.860000134
1420.0	0.000245	125.891000032
1420.0	0.0002445	125.938000202
1420.0	0.0002445	125.969000101
1420.0	0.0002446	126.016000032
1420.0	0.000245	126.063000202
1420.0	0.0002452	126.094000101
1420.0	0.0002452	126.141000032
1420.0	0.0002453	126.188000202
1420.0	0.0002451	126.219000101
1420.0	0.000245	126.266000032
1420.0	0.0002446	126.29700017
1420.0	0.0002443	126.344000101
1420.0	0.0002441	126.391000032
1420.0	0.0002445	126.42200017
1420.0	0.0002451	126.469000101
1420.0	0.0002452	126.516000032
1430.0	0.0002475	126.782000065
1430.0	0.0002476	126.813000202
1430.0	0.0002482	126.860000134
1430.0	0.0002483	126.907000065
1430.0	0.0002487	126.938000202
1430.0	0.000249	126.985000134
1430.0	0.0002488	127.032000065
1430.0	0.000249	127.063000202
1430.0	0.000249	127.110000134
1430.0	0.000249	127.141000032
1430.0	0.000249	127.188000202
1430.0	0.0002491	127.235000134
1430.0	0.0002496	127.266000032
1430.0	0.0002501	127.313000202
1430.0	0.0002508	127.344000101
1430.0	0.000251	127.391000032
1430.0	0.0002508	127.438000202
1430.0	0.0002503	127.469000101
1430.0	0.0002501	127.516000032
1430.0	0.0002495	127.563000202
1430.0	0.0002491	127.594000101
1430.0	0.0002495	127.641000032
1430.0	0.0002496	127.688000202
1430.0	0.0002496	127.719000101
1430.0	0.0002495	127.766000032
1430.0	0.00025	127.79700017
1430.0	0.0002497	127.844000101
1430.0	0.0002495	127.891000032
1430.0	0.0002493	127.92200017
1430.0	0.0002488	127.969000101
1430.0	0.0002491	128.016000032
1430.0	0.0002491	128.04700017
1430.0	0.000249	128.094000101
1430.0	0.0002488	128.125
1430.0	0.0002491	128.17200017
1430.0	0.0002491	128.219000101
1430.0	0.000249	128.25
1440.0	0.0002506	128.516000032
1440.0	0.0002515	128.563000202
1440.0	0.000252	128.610000134
1440.0	0.0002525	128.641000032
1440.0	0.0002528	128.688000202
1440.0	0.0002532	128.735000134
1440.0	0.0002533	128.766000032
1440.0	0.0002532	128.813000202
1440.0	0.0002533	128.844000101
1440.0	0.0002538	128.891000032
1440.0	0.000254	128.938000202
1440.0	0.000254	128.969000101
1440.0	0.000254	129.016000032
1440.0	0.000254	129.063000202
1440.0	0.0002537	129.094000101
1440.0	0.0002537	129.141000032
1440.0	0.000254	129.17200017
1440.0	0.000254	129.219000101
1440.0	0.000254	129.266000032
1440.0	0.0002537	129.29700017
1440.0	0.0002537	129.344000101
1440.0	0.0002535	129.391000032
1440.0	0.0002535	129.42200017
1440.0	0.0002537	129.469000101
1440.0	0.0002537	129.5
1440.0	0.000254	129.54700017
1440.0	0.0002543	129.594000101
1440.0	0.0002543	129.625
1440.0	0.0002545	129.67200017
1440.0	0.0002547	129.719000101
1440.0	0.0002551	129.75
1440.0	0.0002551	129.79700017
1440.0	0.0002552	129.844000101
1440.0	0.0002553	129.875
1440.0	0.0002551	129.92200017
1440.0	0.000255	129.953999996
1440.0	0.0002545	130.0
1450.0	0.0002566	130.266000032
1450.0	0.0002578	130.313000202
1450.0	0.0002588	130.344000101
1450.0	0.0002597	130.391000032
1450.0	0.0002602	130.438000202
1450.0	0.0002606	130.469000101
1450.0	0.0002607	130.516000032
1450.0	0.0002608	130.563000202
1450.0	0.0002613	130.594000101
1450.0	0.0002613	130.641000032
1450.0	0.0002615	130.67200017
1450.0	0.0002613	130.719000101
1450.0	0.000261	130.766000032
1450.0	0.000261	130.79700017
1450.0	0.0002612	130.844000101
1450.0	0.0002613	130.891000032
1450.0	0.0002613	130.92200017
1450.0	0.0002616	130.969000101
1450.0	0.0002615	131.0
1450.0	0.0002615	131.04700017
1450.0	0.0002616	131.094000101
1450.0	0.0002615	131.125
1450.0	0.0002616	131.17200017
1450.0	0.0002616	131.219000101
1450.0	0.0002616	131.25
1450.0	0.0002615	131.29700017
1450.0	0.0002615	131.328999996
1450.0	0.0002616	131.375
1450.0	0.0002613	131.42200017
1450.0	0.0002615	131.453999996
1450.0	0.000262	131.5
1450.0	0.0002621	131.54700017
1450.0	0.0002622	131.578999996
1450.0	0.0002622	131.625
1450.0	0.000262	131.67200017
1450.0	0.0002615	131.703999996
1450.0	0.0002613	131.75
1460.0	0.0002627	132.016000032
1460.0	0.0002632	132.04700017
1460.0	0.0002637	132.094000101
1460.0	0.0002643	132.141000032
1460.0	0.0002646	132.17200017
1460.0	0.000265	132.219000101
1460.0	0.0002653	132.266000032
1460.0	0.0002653	132.29700017
1460.0	0.0002653	132.344000101
1460.0	0.0002658	132.375
1460.0	0.0002665	132.42200017
1460.0	0.0002671	132.469000101
1460.0	0.0002671	132.5
1460.0	0.000267	132.54700017
1460.0	0.0002668	132.594000101
1460.0	0.0002668	132.625
1460.0	0.0002666	132.67200017
1460.0	0.0002665	132.719000101
1460.0	0.0002663	132.75
1460.0	0.0002658	132.79700017
1460.0	0.0002656	132.844000101
1460.0	0.0002656	132.875
1460.0	0.0002656	132.92200017
1460.0	0.0002657	132.969000101
1460.0	0.0002657	133.0
1460.0	0.0002658	133.04700017
1460.0	0.000266	133.078999996
1460.0	0.000266	133.125
1460.0	0.0002657	133.17200017
1460.0	0.0002657	133.203999996
1460.0	0.0002657	133.25
1460.0	0.000266	133.29700017
1460.0	0.0002658	133.328999996
1460.0	0.0002657	133.375
1460.0	0.0002656	133.42200017
1460.0	0.0002656	133.453999996
1460.0	0.000266	133.5
1470.0	0.0002695	133.766000032
1470.0	0.0002695	133.813000202
1470.0	0.0002695	133.860000134
1470.0	0.0002696	133.891000032
1470.0	0.0002695	133.938000202
1470.0	0.0002696	133.969000101
1470.0	0.0002696	134.016000032
1470.0	0.0002695	134.063000202
1470.0	0.0002696	134.094000101
1470.0	0.0002697	134.141000032
1470.0	0.0002706	134.188000202
1470.0	0.0002708	134.219000101
1470.0	0.000271	134.266000032
1470.0	0.000271	134.313000202
1470.0	0.0002708	134.344000101
1470.0	0.0002707	134.391000032
1470.0	0.0002703	134.42200017
1470.0	0.0002701	134.469000101
1470.0	0.0002701	134.516000032
1470.0	0.0002701	134.54700017
1470.0	0.0002702	134.594000101
1470.0	0.0002702	134.641000032
1470.0	0.0002702	134.67200017
1470.0	0.0002702	134.719000101
1470.0	0.0002696	134.75
1470.0	0.0002695	134.79700017
1470.0	0.0002691	134.844000101
1470.0	0.0002691	134.875
1470.0	0.0002693	134.92200017
1470.0	0.0002693	134.969000101
1470.0	0.000269	135.0
1470.0	0.0002687	135.04700017
1470.0	0.0002685	135.078999996
1470.0	0.0002685	135.125
1470.0	0.0002685	135.17200017
1470.0	0.0002687	135.203999996
1470.0	0.000269	135.25
1480.0	0.000272	135.516000032
1480.0	0.0002726	135.563000202
1480.0	0.0002728	135.594000101
1480.0	0.0002731	135.641000032
1480.0	0.0002733	135.688000202
1480.0	0.0002732	135.719000101
1480.0	0.0002731	135.766000032
1480.0	0.0002731	135.79700017
1480.0	0.0002731	135.844000101
1480.0	0.0002731	135.891000032
1480.0	0.0002728	135.92200017
1480.0	0.0002727	135.969000101
1480.0	0.0002725	136.016000032
1480.0	0.0002725	136.04700017
1480.0	0.0002722	136.094000101
1480.0	0.0002721	136.125
1480.0	0.0002722	136.17200017
1480.0	0.0002721	136.219000101
1480.0	0.0002721	136.25
1480.0	0.0002721	136.29700017
1480.0	0.0002721	136.344000101
1480.0	0.0002718	136.375
1480.0	0.0002721	136.42200017
1480.0	0.0002725	136.469000101
1480.0	0.0002725	136.5
1480.0	0.0002727	136.54700017
1480.0	0.0002731	136.578999996
1480.0	0.0002728	136.625
1480.0	0.0002726	136.67200017
1480.0	0.0002722	136.703999996
1480.0	0.0002722	136.75
1480.0	0.0002725	136.79700017
1480.0	0.0002728	136.828999996
1480.0	0.0002727	136.875
1480.0	0.0002725	136.92200017
1480.0	0.0002721	136.953999996
1480.0	0.0002722	137.0
1490.0	0.000274	137.266000032
1490.0	0.0002743	137.313000202
1490.0	0.0002746	137.360000134
1490.0	0.0002751	137.391000032
1490.0	0.0002756	137.438000202
1490.0	0.0002757	137.469000101
1490.0	0.000276	137.516000032
1490.0	0.0002763	137.563000202
1490.0	0.0002763	137.594000101
1490.0	0.0002763	137.641000032
1490.0	0.0002766	137.688000202
1490.0	0.0002763	137.719000101
1490.0	0.0002758	137.766000032
1490.0	0.0002758	137.79700017
1490.0	0.0002753	137.844000101
1490.0	0.000275	137.891000032
1490.0	0.000275	137.92200017
1490.0	0.000275	137.969000101
1490.0	0.000275	138.016000032
1490.0	0.000275	138.04700017
1490.0	0.0002751	138.094000101
1490.0	0.000275	138.125
1490.0	0.000275	138.17200017
1490.0	0.000275	138.219000101
1490.0	0.0002751	138.25
1490.0	0.0002752	138.29700017
1490.0	0.0002756	138.344000101
1490.0	0.0002756	138.375
1490.0	0.0002756	138.42200017
1490.0	0.0002758	138.469000101
1490.0	0.0002757	138.5
1490.0	0.0002756	138.54700017
1490.0	0.0002756	138.578999996
1490.0	0.0002753	138.625
1490.0	0.0002751	138.67200017
1490.0	0.0002751	138.703999996
1490.0	0.0002752	138.75
1500.0	0.0002765	139.032000065
1500.0	0.0002765	139.063000202
1500.0	0.0002762	139.110000134
1500.0	0.0002758	139.141000032
1500.0	0.0002758	139.188000202
1500.0	0.0002757	139.235000134
1500.0	0.0002757	139.266000032
1500.0	0.0002758	139.313000202
1500.0	0.0002758	139.360000134
1500.0	0.0002758	139.407000065
1500.0	0.0002758	139.438000202
1500.0	0.0002758	139.485000134
1500.0	0.000276	139.516000032
1500.0	0.0002763	139.563000202
1500.0	0.0002765	139.610000134
1500.0	0.0002766	139.641000032
1500.0	0.0002763	139.688000202
1500.0	0.0002758	139.735000134
1500.0	0.0002756	139.766000032
1500.0	0.0002756	139.813000202
1500.0	0.0002753	139.860000134
1500.0	0.0002753	139.891000032
1500.0	0.0002756	139.938000202
1500.0	0.0002756	139.985000134
1500.0	0.0002752	140.016000032
1500.0	0.0002752	140.063000202
1500.0	0.0002751	140.094000101
1500.0	0.000275	140.141000032
1500.0	0.0002747	140.188000202
1500.0	0.000275	140.219000101
1500.0	0.0002752	140.266000032
1500.0	0.0002756	140.313000202
1500.0	0.0002758	140.344000101
1500.0	0.000276	140.391000032
1500.0	0.0002762	140.42200017
1500.0	0.0002763	140.469000101
1500.0	0.0002763	140.516000032
1510.0	0.0002771	140.782000065
1510.0	0.0002768	140.828999996
1510.0	0.0002762	140.875
1510.0	0.0002763	140.907000065
1510.0	0.0002765	140.953999996
1510.0	0.0002765	140.985000134
1510.0	0.0002763	141.032000065
1510.0	0.0002763	141.078999996
1510.0	0.000276	141.110000134
1510.0	0.000276	141.157000065
1510.0	0.0002762	141.203999996
1510.0	0.0002762	141.235000134
1510.0	0.0002758	141.282000065
1510.0	0.0002757	141.313000202
1510.0	0.0002758	141.360000134
1510.0	0.000276	141.407000065
1510.0	0.0002762	141.438000202
1510.0	0.000276	141.485000134
1510.0	0.0002762	141.532000065
1510.0	0.0002768	141.563000202
1510.0	0.0002772	141.610000134
1510.0	0.0002775	141.657000065
1510.0	0.0002777	141.688000202
1510.0	0.0002778	141.735000134
1510.0	0.0002777	141.766000032
1510.0	0.0002777	141.813000202
1510.0	0.0002775	141.860000134
1510.0	0.0002775	141.891000032
1510.0	0.000277	141.938000202
1510.0	0.0002766	141.985000134
1510.0	0.0002766	142.016000032
1510.0	0.0002766	142.063000202
1510.0	0.0002772	142.094000101
1510.0	0.0002776	142.141000032
1510.0	0.0002776	142.188000202
1510.0	0.0002776	142.219000101
1510.0	0.0002776	142.266000032
1520.0	0.0002762	142.54700017
1520.0	0.0002762	142.578999996
1520.0	0.000276	142.625
1520.0	0.0002762	142.657000065
1520.0	0.0002758	142.703999996
1520.0	0.0002757	142.75
1520.0	0.0002758	142.782000065
1520.0	0.0002757	142.828999996
1520.0	0.0002753	142.875
1520.0	0.0002752	142.907000065
1520.0	0.0002753	142.953999996
1520.0	0.0002753	143.0
1520.0	0.0002756	143.032000065
1520.0	0.0002757	143.078999996
1520.0	0.000276	143.110000134
1520.0	0.0002762	143.157000065
1520.0	0.0002765	143.203999996
1520.0	0.0002766	143.235000134
1520.0	0.0002762	143.282000065
1520.0	0.0002762	143.328999996
1520.0	0.000276	143.360000134
1520.0	0.0002756	143.407000065
1520.0	0.0002757	143.438000202
1520.0	0.0002758	143.485000134
1520.0	0.0002758	143.532000065
1520.0	0.0002757	143.563000202
1520.0	0.0002758	143.610000134
1520.0	0.0002757	143.657000065
1520.0	0.0002753	143.688000202
1520.0	0.0002756	143.735000134
1520.0	0.0002753	143.766000032
1520.0	0.0002751	143.813000202
1520.0	0.0002751	143.860000134
1520.0	0.0002752	143.891000032
1520.0	0.0002757	143.938000202
1520.0	0.0002758	143.985000134
1520.0	0.000276	144.016000032
1530.0	0.0002746	144.29700017
1530.0	0.0002741	144.328999996
1530.0	0.0002733	144.375
1530.0	0.0002731	144.42200017
1530.0	0.0002727	144.453999996
1530.0	0.0002727	144.5
1530.0	0.0002727	144.54700017
1530.0	0.0002731	144.578999996
1530.0	0.0002733	144.625
1530.0	0.0002735	144.657000065
1530.0	0.0002737	144.703999996
1530.0	0.0002737	144.75
1530.0	0.0002735	144.782000065
1530.0	0.0002733	144.828999996
1530.0	0.0002733	144.875
1530.0	0.0002732	144.907000065
1530.0	0.0002727	144.953999996
1530.0	0.0002727	144.985000134
1530.0	0.0002727	145.032000065
1530.0	0.0002728	145.078999996
1530.0	0.0002731	145.110000134
1530.0	0.0002731	145.157000065
1530.0	0.0002731	145.203999996
1530.0	0.0002731	145.235000134
1530.0	0.0002731	145.282000065
1530.0	0.0002732	145.328999996
1530.0	0.0002732	145.360000134
1530.0	0.0002735	145.407000065
1530.0	0.0002733	145.438000202
1530.0	0.0002735	145.485000134
1530.0	0.0002737	145.532000065
1530.0	0.0002738	145.563000202
1530.0	0.000274	145.610000134
1530.0	0.000274	145.657000065
1530.0	0.0002738	145.688000202
1530.0	0.0002735	145.735000134
1530.0	0.0002737	145.766000032
1540.0	0.000272	146.04700017
1540.0	0.0002715	146.094000101
1540.0	0.000271	146.125
1540.0	0.0002706	146.17200017
1540.0	0.0002703	146.219000101
1540.0	0.0002702	146.25
1540.0	0.0002702	146.29700017
1540.0	0.0002702	146.344000101
1540.0	0.0002702	146.375
1540.0	0.00027	146.42200017
1540.0	0.0002696	146.469000101
1540.0	0.0002695	146.5
1540.0	0.000269	146.54700017
1540.0	0.0002687	146.578999996
1540.0	0.0002683	146.625
1540.0	0.0002681	146.67200017
1540.0	0.0002681	146.703999996
1540.0	0.0002682	146.75
1540.0	0.0002683	146.79700017
1540.0	0.0002683	146.828999996
1540.0	0.0002687	146.875
1540.0	0.0002688	146.92200017
1540.0	0.000269	146.953999996
1540.0	0.0002693	147.0
1540.0	0.0002695	147.032000065
1540.0	0.0002693	147.078999996
1540.0	0.0002691	147.125
1540.0	0.0002693	147.157000065
1540.0	0.0002695	147.203999996
1540.0	0.00027	147.25
1540.0	0.0002702	147.282000065
1540.0	0.0002701	147.328999996
1540.0	0.0002702	147.360000134
1540.0	0.0002702	147.407000065
1540.0	0.0002702	147.453999996
1540.0	0.0002697	147.485000134
1540.0	0.0002696	147.532000065
1550.0	0.0002676	147.813000202
1550.0	0.0002668	147.844000101
1550.0	0.0002662	147.891000032
1550.0	0.0002652	147.92200017
1550.0	0.0002647	147.969000101
1550.0	0.0002643	148.016000032
1550.0	0.0002638	148.04700017
1550.0	0.0002635	148.094000101
1550.0	0.0002631	148.141000032
1550.0	0.0002627	148.17200017
1550.0	0.0002628	148.219000101
1550.0	0.0002633	148.266000032
1550.0	0.0002633	148.29700017
1550.0	0.0002633	148.344000101
1550.0	0.0002633	148.391000032
1550.0	0.0002631	148.42200017
1550.0	0.0002627	148.469000101
1550.0	0.0002625	148.5
1550.0	0.0002618	148.54700017
1550.0	0.0002618	148.594000101
1550.0	0.000262	148.625
1550.0	0.000262	148.67200017
1550.0	0.000262	148.719000101
1550.0	0.0002621	148.75
1550.0	0.0002622	148.79700017
1550.0	0.0002626	148.844000101
1550.0	0.0002627	148.875
1550.0	0.0002626	148.92200017
1550.0	0.0002622	148.969000101
1550.0	0.0002622	149.0
1550.0	0.0002622	149.04700017
1550.0	0.0002625	149.094000101
1550.0	0.0002628	149.125
1550.0	0.0002633	149.17200017
1550.0	0.0002635	149.203999996
1550.0	0.0002637	149.25
1550.0	0.0002635	149.29700017
1560.0	0.0002587	149.563000202
1560.0	0.0002572	149.610000134
1560.0	0.0002562	149.657000065
1560.0	0.0002556	149.688000202
1560.0	0.0002547	149.735000134
1560.0	0.0002541	149.766000032
1560.0	0.0002535	149.813000202
1560.0	0.0002533	149.860000134
1560.0	0.0002533	149.891000032
1560.0	0.0002532	149.938000202
1560.0	0.0002538	149.985000134
1560.0	0.0002538	150.016000032
1560.0	0.0002537	150.063000202
1560.0	0.0002535	150.094000101
1560.0	0.0002533	150.141000032
1560.0	0.0002533	150.188000202
1560.0	0.0002537	150.219000101
1560.0	0.0002537	150.266000032
1560.0	0.0002533	150.313000202
1560.0	0.0002528	150.344000101
1560.0	0.0002525	150.391000032
1560.0	0.0002521	150.438000202
1560.0	0.0002518	150.469000101
1560.0	0.0002521	150.516000032
1560.0	0.0002521	150.54700017
1560.0	0.0002518	150.594000101
1560.0	0.0002521	150.641000032
1560.0	0.0002521	150.67200017
1560.0	0.0002521	150.719000101
1560.0	0.0002521	150.766000032
1560.0	0.0002526	150.79700017
1560.0	0.0002528	150.844000101
1560.0	0.0002531	150.875
1560.0	0.0002532	150.92200017
1560.0	0.0002531	150.969000101
1560.0	0.0002528	151.0
1560.0	0.0002526	151.04700017
1570.0	0.0002483	151.328999996
1570.0	0.0002466	151.360000134
1570.0	0.0002451	151.407000065
1570.0	0.000244	151.438000202
1570.0	0.0002433	151.485000134
1570.0	0.0002426	151.532000065
1570.0	0.0002422	151.563000202
1570.0	0.0002421	151.610000134
1570.0	0.0002422	151.657000065
1570.0	0.0002425	151.688000202
1570.0	0.0002425	151.735000134
1570.0	0.0002426	151.782000065
1570.0	0.0002422	151.813000202
1570.0	0.000242	151.860000134
1570.0	0.0002418	151.891000032
1570.0	0.0002415	151.938000202
1570.0	0.000241	151.985000134
1570.0	0.0002406	152.016000032
1570.0	0.0002406	152.063000202
1570.0	0.0002408	152.094000101
1570.0	0.000241	152.141000032
1570.0	0.000241	152.188000202
1570.0	0.0002413	152.219000101
1570.0	0.0002418	152.266000032
1570.0	0.0002421	152.313000202
1570.0	0.0002421	152.344000101
1570.0	0.000242	152.391000032
1570.0	0.0002418	152.438000202
1570.0	0.0002416	152.469000101
1570.0	0.0002415	152.516000032
1570.0	0.0002413	152.54700017
1570.0	0.0002415	152.594000101
1570.0	0.0002416	152.641000032
1570.0	0.000242	152.67200017
1570.0	0.0002421	152.719000101
1570.0	0.000242	152.766000032
1570.0	0.0002416	152.79700017
1580.0	0.0002351	153.078999996
1580.0	0.0002333	153.110000134
1580.0	0.0002322	153.157000065
1580.0	0.0002313	153.203999996
1580.0	0.0002303	153.235000134
1580.0	0.00023	153.282000065
1580.0	0.0002296	153.328999996
1580.0	0.0002293	153.360000134
1580.0	0.000229	153.407000065
1580.0	0.0002283	153.438000202
1580.0	0.0002278	153.485000134
1580.0	0.0002277	153.532000065
1580.0	0.0002277	153.563000202
1580.0	0.0002281	153.610000134
1580.0	0.0002282	153.657000065
1580.0	0.0002281	153.688000202
1580.0	0.0002277	153.735000134
1580.0	0.0002277	153.782000065
1580.0	0.0002276	153.813000202
1580.0	0.0002271	153.860000134
1580.0	0.000227	153.891000032
1580.0	0.0002268	153.938000202
1580.0	0.0002265	153.985000134
1580.0	0.0002266	154.016000032
1580.0	0.0002266	154.063000202
1580.0	0.0002266	154.094000101
1580.0	0.0002265	154.141000032
1580.0	0.0002263	154.188000202
1580.0	0.000226	154.219000101
1580.0	0.0002258	154.266000032
1580.0	0.000226	154.313000202
1580.0	0.000226	154.344000101
1580.0	0.0002258	154.391000032
1580.0	0.000226	154.438000202
1580.0	0.0002262	154.469000101
1580.0	0.0002263	154.516000032
1580.0	0.0002263	154.54700017
1590.0	0.0002213	154.828999996
1590.0	0.000219	154.875
1590.0	0.0002171	154.907000065
1590.0	0.0002152	154.953999996
1590.0	0.0002143	155.0
1590.0	0.0002133	155.032000065
1590.0	0.0002128	155.078999996
1590.0	0.0002126	155.110000134
1590.0	0.0002121	155.157000065
1590.0	0.0002116	155.203999996
1590.0	0.0002112	155.235000134
1590.0	0.0002103	155.282000065
1590.0	0.0002101	155.328999996
1590.0	0.00021	155.360000134
1590.0	0.00021	155.407000065
1590.0	0.0002102	155.453999996
1590.0	0.0002103	155.485000134
1590.0	0.0002106	155.532000065
1590.0	0.0002106	155.563000202
1590.0	0.0002106	155.610000134
1590.0	0.0002107	155.657000065
1590.0	0.000211	155.688000202
1590.0	0.0002112	155.735000134
1590.0	0.0002113	155.782000065
1590.0	0.0002116	155.813000202
1590.0	0.0002115	155.860000134
1590.0	0.000211	155.891000032
1590.0	0.000211	155.938000202
1590.0	0.0002112	155.985000134
1590.0	0.0002112	156.016000032
1590.0	0.0002112	156.063000202
1590.0	0.000211	156.110000134
1590.0	0.0002108	156.141000032
1590.0	0.0002107	156.188000202
1590.0	0.0002106	156.219000101
1590.0	0.0002103	156.266000032
1590.0	0.0002107	156.313000202
1600.0	0.0002053	156.578999996
1600.0	0.0002031	156.625
1600.0	0.0002012	156.67200017
1600.0	0.0001996	156.703999996
1600.0	0.0001981	156.75
1600.0	0.000197	156.782000065
1600.0	0.0001962	156.828999996
1600.0	0.0001952	156.875
1600.0	0.0001946	156.907000065
1600.0	0.0001945	156.953999996
1600.0	0.0001943	157.0
1600.0	0.0001941	157.032000065
1600.0	0.0001943	157.078999996
1600.0	0.0001943	157.110000134
1600.0	0.0001946	157.157000065
1600.0	0.0001952	157.203999996
1600.0	0.000195	157.235000134
1600.0	0.0001947	157.282000065
1600.0	0.0001946	157.328999996
1600.0	0.0001946	157.360000134
1600.0	0.0001946	157.407000065
1600.0	0.0001946	157.453999996
1600.0	0.0001943	157.485000134
1600.0	0.000194	157.532000065
1600.0	0.000194	157.563000202
1600.0	0.000194	157.610000134
1600.0	0.0001935	157.657000065
1600.0	0.0001937	157.688000202
1600.0	0.000194	157.735000134
1600.0	0.0001937	157.782000065
1600.0	0.0001932	157.813000202
1600.0	0.0001928	157.860000134
1600.0	0.0001927	157.891000032
1600.0	0.0001927	157.938000202
1600.0	0.0001928	157.985000134
1600.0	0.0001928	158.016000032
1600.0	0.0001927	158.063000202
1610.0	0.0001882	158.344000101
1610.0	0.0001856	158.375
1610.0	0.0001832	158.42200017
1610.0	0.0001813	158.469000101
1610.0	0.0001797	158.5
1610.0	0.0001787	158.54700017
1610.0	0.0001777	158.594000101
1610.0	0.0001771	158.625
1610.0	0.0001771	158.67200017
1610.0	0.0001771	158.703999996
1610.0	0.0001768	158.75
1610.0	0.0001768	158.79700017
1610.0	0.000177	158.828999996
1610.0	0.0001765	158.875
1610.0	0.0001762	158.92200017
1610.0	0.0001762	158.953999996
1610.0	0.0001765	159.0
1610.0	0.0001768	159.04700017
1610.0	0.0001768	159.078999996
1610.0	0.0001765	159.125
1610.0	0.000176	159.17200017
1610.0	0.0001757	159.203999996
1610.0	0.0001757	159.25
1610.0	0.000176	159.29700017
1610.0	0.0001766	159.328999996
1610.0	0.0001768	159.375
1610.0	0.000177	159.407000065
1610.0	0.000177	159.453999996
1610.0	0.0001765	159.5
1610.0	0.0001762	159.532000065
1610.0	0.0001763	159.578999996
1610.0	0.0001766	159.625
1610.0	0.0001768	159.657000065
1610.0	0.0001771	159.703999996
1610.0	0.0001772	159.75
1610.0	0.0001772	159.782000065
1610.0	0.0001772	159.828999996
1620.0	0.0001707	160.110000134
1620.0	0.0001688	160.141000032
1620.0	0.0001668	160.188000202
1620.0	0.0001651	160.235000134
1620.0	0.0001637	160.282000065
1620.0	0.0001622	160.313000202
1620.0	0.0001613	160.360000134
1620.0	0.0001607	160.407000065
1620.0	0.0001606	160.438000202
1620.0	0.0001603	160.485000134
1620.0	0.0001607	160.516000032
1620.0	0.0001603	160.563000202
1620.0	0.0001597	160.610000134
1620.0	0.0001595	160.641000032
1620.0	0.0001593	160.688000202
1620.0	0.000159	160.719000101
1620.0	0.000159	160.766000032
1620.0	0.0001588	160.813000202
1620.0	0.0001588	160.844000101
1620.0	0.0001591	160.891000032
1620.0	0.0001596	160.938000202
1620.0	0.0001597	160.969000101
1620.0	0.0001597	161.016000032
1620.0	0.0001596	161.063000202
1620.0	0.000159	161.094000101
1620.0	0.0001583	161.141000032
1620.0	0.0001576	161.17200017
1620.0	0.0001576	161.219000101
1620.0	0.0001581	161.266000032
1620.0	0.0001583	161.29700017
1620.0	0.000159	161.344000101
1620.0	0.0001593	161.391000032
1620.0	0.0001595	161.42200017
1620.0	0.0001596	161.469000101
1620.0	0.0001596	161.5
1620.0	0.0001597	161.54700017
1620.0	0.0001597	161.594000101
1630.0	0.0001525	161.875
1630.0	0.0001501	161.92200017
1630.0	0.0001481	161.953999996
1630.0	0.0001458	162.0
1630.0	0.0001445	162.032000065
1630.0	0.0001437	162.078999996
1630.0	0.0001431	162.125
1630.0	0.0001426	162.157000065
1630.0	0.0001425	162.203999996
1630.0	0.0001421	162.25
1630.0	0.000142	162.282000065
1630.0	0.0001418	162.328999996
1630.0	0.000142	162.360000134
1630.0	0.0001425	162.407000065
1630.0	0.0001428	162.453999996
1630.0	0.0001428	162.485000134
1630.0	0.0001426	162.532000065
1630.0	0.0001421	162.578999996
1630.0	0.0001418	162.610000134
1630.0	0.000142	162.657000065
1630.0	0.0001421	162.688000202
1630.0	0.0001418	162.735000134
1630.0	0.0001413	162.782000065
1630.0	0.0001413	162.813000202
1630.0	0.0001408	162.860000134
1630.0	0.0001412	162.907000065
1630.0	0.0001416	162.938000202
1630.0	0.000142	162.985000134
1630.0	0.0001421	163.016000032
1630.0	0.0001426	163.063000202
1630.0	0.0001427	163.110000134
1630.0	0.0001427	163.141000032
1630.0	0.0001427	163.188000202
1630.0	0.0001425	163.235000134
1630.0	0.0001422	163.266000032
1630.0	0.0001422	163.313000202
1630.0	0.0001422	163.344000101
1640.0	0.0001357	163.641000032
1640.0	0.0001338	163.67200017
1640.0	0.0001322	163.719000101
1640.0	0.0001306	163.766000032
1640.0	0.0001295	163.79700017
1640.0	0.0001287	163.844000101
1640.0	0.0001278	163.891000032
1640.0	0.0001275	163.92200017
1640.0	0.0001275	163.969000101
1640.0	0.000127	164.016000032
1640.0	0.0001265	164.04700017
1640.0	0.0001265	164.094000101
1640.0	0.0001266	164.125
1640.0	0.0001265	164.17200017
1640.0	0.0001265	164.219000101
1640.0	0.0001268	164.25
1640.0	0.0001265	164.29700017
1640.0	0.0001265	164.344000101
1640.0	0.0001268	164.375
1640.0	0.0001272	164.42200017
1640.0	0.0001275	164.453999996
1640.0	0.0001275	164.5
1640.0	0.0001275	164.54700017
1640.0	0.0001272	164.578999996
1640.0	0.0001268	164.625
1640.0	0.0001271	164.67200017
1640.0	0.000127	164.703999996
1640.0	0.0001268	164.75
1640.0	0.0001263	164.79700017
1640.0	0.0001258	164.828999996
1640.0	0.0001253	164.875
1640.0	0.0001251	164.907000065
1640.0	0.0001251	164.953999996
1640.0	0.0001252	165.0
1640.0	0.0001257	165.032000065
1640.0	0.0001257	165.078999996
1640.0	0.000126	165.125
1650.0	0.0001215	165.407000065
1650.0	0.00012	165.438000202
1650.0	0.0001183	165.485000134
1650.0	0.000117	165.532000065
1650.0	0.0001162	165.563000202
1650.0	0.0001156	165.610000134
1650.0	0.0001146	165.657000065
1650.0	0.000114	165.703999996
1650.0	0.0001138	165.735000134
1650.0	0.0001135	165.782000065
1650.0	0.0001133	165.813000202
1650.0	0.0001132	165.860000134
1650.0	0.0001127	165.907000065
1650.0	0.0001125	165.938000202
1650.0	0.0001122	165.985000134
1650.0	0.000112	166.032000065
1650.0	0.0001118	166.063000202
1650.0	0.0001118	166.110000134
1650.0	0.000112	166.157000065
1650.0	0.0001122	166.188000202
1650.0	0.0001121	166.235000134
1650.0	0.0001116	166.266000032
1650.0	0.0001115	166.313000202
1650.0	0.0001116	166.360000134
1650.0	0.0001121	166.391000032
1650.0	0.0001122	166.438000202
1650.0	0.0001122	166.469000101
1650.0	0.0001121	166.516000032
1650.0	0.0001116	166.563000202
1650.0	0.0001115	166.594000101
1650.0	0.0001118	166.641000032
1650.0	0.0001121	166.688000202
1650.0	0.0001121	166.719000101
1650.0	0.0001122	166.766000032
1650.0	0.0001126	166.813000202
1650.0	0.0001131	166.844000101
1650.0	0.0001128	166.891000032
1660.0	0.0001065	167.17200017
1660.0	0.0001046	167.219000101
1660.0	0.0001027	167.25
1660.0	0.0001016	167.29700017
1660.0	0.000101	167.328999996
1660.0	0.0001003	167.375
1660.0	0.0001003	167.42200017
1660.0	0.0001006	167.453999996
1660.0	0.0001002	167.5
1660.0	0.0001001	167.54700017
1660.0	0.0001	167.578999996
1660.0	9.95e-05	167.625
1660.0	9.93e-05	167.657000065
1660.0	9.96e-05	167.688000202
1660.0	0.0001	167.735000134
1660.0	0.0001001	167.782000065
1660.0	9.97e-05	167.813000202
1660.0	9.96e-05	167.844000101
1660.0	0.0001	167.891000032
1660.0	9.96e-05	167.92200017
1660.0	9.93e-05	167.969000101
1660.0	9.93e-05	168.0
1660.0	9.91e-05	168.032000065
1660.0	9.9e-05	168.078999996
1660.0	9.87e-05	168.110000134
1660.0	9.87e-05	168.157000065
1660.0	9.88e-05	168.188000202
1660.0	9.9e-05	168.219000101
1660.0	9.95e-05	168.266000032
1660.0	9.97e-05	168.29700017
1660.0	0.0001001	168.344000101
1660.0	0.0001002	168.375
1660.0	9.97e-05	168.42200017
1660.0	9.96e-05	168.453999996
1660.0	9.97e-05	168.5
1660.0	0.0001	168.532000065
1660.0	0.0001002	168.578999996
1660.0	0.0001007	168.610000134
1660.0	0.0001006	168.657000065
1670.0	9.66e-05	168.938000202
1670.0	9.5e-05	168.969000101
1670.0	9.37e-05	169.016000032
1670.0	9.26e-05	169.04700017
1670.0	9.18e-05	169.078999996
1670.0	9.1e-05	169.125
1670.0	9.03e-05	169.157000065
1670.0	8.97e-05	169.203999996
1670.0	8.95e-05	169.235000134
1670.0	8.93e-05	169.266000032
1670.0	8.95e-05	169.313000202
1670.0	8.93e-05	169.344000101
1670.0	8.91e-05	169.375
1670.0	8.88e-05	169.42200017
1670.0	8.85e-05	169.453999996
1670.0	8.82e-05	169.5
1670.0	8.82e-05	169.532000065
1670.0	8.83e-05	169.563000202
1670.0	8.83e-05	169.610000134
1670.0	8.82e-05	169.641000032
1670.0	8.85e-05	169.688000202
1670.0	8.87e-05	169.719000101
1670.0	8.88e-05	169.75
1670.0	8.91e-05	169.79700017
1670.0	8.93e-05	169.828999996
1670.0	8.93e-05	169.860000134
1670.0	8.93e-05	169.907000065
1670.0	8.91e-05	169.938000202
1670.0	8.88e-05	169.969000101
1670.0	8.88e-05	170.016000032
1670.0	8.91e-05	170.04700017
1670.0	8.95e-05	170.094000101
1670.0	8.96e-05	170.125
1670.0	8.95e-05	170.157000065
1670.0	8.93e-05	170.203999996
1670.0	8.95e-05	170.235000134
1670.0	8.96e-05	170.266000032
1670.0	8.97e-05	170.313000202
1670.0	9e-05	170.344000101
1670.0	9.02e-05	170.391000032
1670.0	9.06e-05	170.42200017
1680.0	8.56e-05	170.703999996
1680.0	8.4e-05	170.735000134
1680.0	8.28e-05	170.782000065
1680.0	8.22e-05	170.813000202
1680.0	8.18e-05	170.844000101
1680.0	8.13e-05	170.891000032
1680.0	8.08e-05	170.92200017
1680.0	8.02e-05	170.953999996
1680.0	7.96e-05	171.0
1680.0	7.96e-05	171.032000065
1680.0	7.93e-05	171.063000202
1680.0	7.95e-05	171.110000134
1680.0	7.97e-05	171.141000032
1680.0	8e-05	171.17200017
1680.0	7.97e-05	171.219000101
1680.0	8e-05	171.25
1680.0	7.97e-05	171.29700017
1680.0	7.97e-05	171.328999996
1680.0	8.02e-05	171.375
1680.0	8.06e-05	171.407000065
1680.0	8.07e-05	171.438000202
1680.0	8.06e-05	171.485000134
1680.0	8e-05	171.516000032
1680.0	7.96e-05	171.54700017
1680.0	7.93e-05	171.594000101
1680.0	7.93e-05	171.625
1680.0	7.95e-05	171.67200017
1680.0	7.95e-05	171.703999996
1680.0	7.95e-05	171.735000134
1680.0	7.95e-05	171.782000065
1680.0	7.96e-05	171.813000202
1680.0	7.96e-05	171.844000101
1680.0	7.97e-05	171.891000032
1680.0	8.01e-05	171.92200017
1680.0	8.03e-05	171.953999996
1680.0	8.02e-05	172.0
1680.0	8e-05	172.032000065
1680.0	7.96e-05	172.078999996
1680.0	7.93e-05	172.110000134
1680.0	7.9e-05	172.141000032
1680.0	7.87e-05	172.188000202
1690.0	7.58e-05	172.469000101
1690.0	7.47e-05	172.5
1690.0	7.4e-05	172.532000065
1690.0	7.37e-05	172.578999996
1690.0	7.31e-05	172.610000134
1690.0	7.28e-05	172.641000032
1690.0	7.26e-05	172.688000202
1690.0	7.22e-05	172.719000101
1690.0	7.16e-05	172.75
1690.0	7.12e-05	172.79700017
1690.0	7.08e-05	172.828999996
1690.0	7.08e-05	172.875
1690.0	7.1e-05	172.907000065
1690.0	7.12e-05	172.938000202
1690.0	7.13e-05	172.985000134
1690.0	7.12e-05	173.016000032
1690.0	7.08e-05	173.04700017
1690.0	7.07e-05	173.094000101
1690.0	7.06e-05	173.125
1690.0	7.08e-05	173.157000065
1690.0	7.1e-05	173.203999996
1690.0	7.1e-05	173.235000134
1690.0	7.12e-05	173.282000065
1690.0	7.15e-05	173.313000202
1690.0	7.16e-05	173.344000101
1690.0	7.16e-05	173.391000032
1690.0	7.18e-05	173.42200017
1690.0	7.15e-05	173.453999996
1690.0	7.13e-05	173.5
1690.0	7.12e-05	173.532000065
1690.0	7.08e-05	173.578999996
1690.0	7.07e-05	173.610000134
1690.0	7.06e-05	173.641000032
1690.0	7.06e-05	173.688000202
1690.0	7.06e-05	173.719000101
1690.0	7.06e-05	173.75
1690.0	7.03e-05	173.79700017
1690.0	7.01e-05	173.828999996
1690.0	7.02e-05	173.860000134
1690.0	7.03e-05	173.907000065
1690.0	7.02e-05	173.938000202
1700.0	6.78e-05	174.219000101
1700.0	6.7e-05	174.25
1700.0	6.62e-05	174.29700017
1700.0	6.56e-05	174.328999996
1700.0	6.52e-05	174.360000134
1700.0	6.46e-05	174.407000065
1700.0	6.45e-05	174.438000202
1700.0	6.41e-05	174.485000134
1700.0	6.4e-05	174.516000032
1700.0	6.38e-05	174.54700017
1700.0	6.41e-05	174.594000101
1700.0	6.4e-05	174.625
1700.0	6.35e-05	174.657000065
1700.0	6.35e-05	174.703999996
1700.0	6.35e-05	174.735000134
1700.0	6.32e-05	174.782000065
1700.0	6.32e-05	174.813000202
1700.0	6.31e-05	174.844000101
1700.0	6.31e-05	174.891000032
1700.0	6.32e-05	174.92200017
1700.0	6.33e-05	174.953999996
1700.0	6.32e-05	175.0
1700.0	6.32e-05	175.032000065
1700.0	6.33e-05	175.063000202
1700.0	6.33e-05	175.110000134
1700.0	6.32e-05	175.141000032
1700.0	6.33e-05	175.188000202
1700.0	6.33e-05	175.219000101
1700.0	6.33e-05	175.25
1700.0	6.33e-05	175.29700017
1700.0	6.33e-05	175.328999996
1700.0	6.37e-05	175.360000134
1700.0	6.43e-05	175.407000065
1700.0	6.45e-05	175.438000202
1700.0	6.47e-05	175.485000134
1700.0	6.5e-05	175.516000032
1700.0	6.47e-05	175.54700017
1700.0	6.45e-05	175.594000101
1700.0	6.45e-05	175.625
1700.0	6.45e-05	175.67200017
1700.0	6.41e-05	175.703999996
1710.0	6.13e-05	175.985000134
1710.0	6.06e-05	176.016000032
1710.0	6.02e-05	176.063000202
1710.0	5.96e-05	176.094000101
1710.0	5.9e-05	176.141000032
1710.0	5.88e-05	176.17200017
1710.0	5.85e-05	176.203999996
1710.0	5.81e-05	176.25
1710.0	5.75e-05	176.282000065
1710.0	5.71e-05	176.313000202
1710.0	5.72e-05	176.360000134
1710.0	5.72e-05	176.391000032
1710.0	5.72e-05	176.42200017
1710.0	5.71e-05	176.469000101
1710.0	5.71e-05	176.5
1710.0	5.72e-05	176.54700017
1710.0	5.77e-05	176.578999996
1710.0	5.82e-05	176.610000134
1710.0	5.83e-05	176.657000065
1710.0	5.85e-05	176.688000202
1710.0	5.85e-05	176.719000101
1710.0	5.9e-05	176.766000032
1710.0	5.9e-05	176.79700017
1710.0	5.87e-05	176.828999996
1710.0	5.83e-05	176.875
1710.0	5.81e-05	176.907000065
1710.0	5.78e-05	176.953999996
1710.0	5.76e-05	176.985000134
1710.0	5.68e-05	177.016000032
1710.0	5.66e-05	177.063000202
1710.0	5.7e-05	177.094000101
1710.0	5.75e-05	177.125
1710.0	5.78e-05	177.17200017
1710.0	5.81e-05	177.203999996
1710.0	5.83e-05	177.25
1710.0	5.87e-05	177.282000065
1710.0	5.85e-05	177.313000202
1710.0	5.82e-05	177.360000134
1710.0	5.78e-05	177.391000032
1710.0	5.81e-05	177.438000202
1710.0	5.81e-05	177.469000101
1720.0	5.66e-05	177.75
1720.0	5.53e-05	177.782000065
1720.0	5.47e-05	177.828999996
1720.0	5.43e-05	177.860000134
1720.0	5.38e-05	177.891000032
1720.0	5.35e-05	177.938000202
1720.0	5.32e-05	177.969000101
1720.0	5.28e-05	178.0
1720.0	5.27e-05	178.04700017
1720.0	5.27e-05	178.078999996
1720.0	5.27e-05	178.110000134
1720.0	5.28e-05	178.157000065
1720.0	5.27e-05	178.203999996
1720.0	5.27e-05	178.235000134
1720.0	5.31e-05	178.266000032
1720.0	5.32e-05	178.313000202
1720.0	5.33e-05	178.344000101
1720.0	5.35e-05	178.375
1720.0	5.35e-05	178.42200017
1720.0	5.31e-05	178.453999996
1720.0	5.27e-05	178.485000134
1720.0	5.26e-05	178.532000065
1720.0	5.27e-05	178.563000202
1720.0	5.27e-05	178.610000134
1720.0	5.28e-05	178.641000032
1720.0	5.31e-05	178.67200017
1720.0	5.27e-05	178.719000101
1720.0	5.26e-05	178.75
1720.0	5.26e-05	178.782000065
1720.0	5.22e-05	178.828999996
1720.0	5.22e-05	178.860000134
1720.0	5.26e-05	178.891000032
1720.0	5.31e-05	178.938000202
1720.0	5.35e-05	178.969000101
1720.0	5.37e-05	179.016000032
1720.0	5.37e-05	179.04700017
1720.0	5.4e-05	179.078999996
1720.0	5.37e-05	179.125
1720.0	5.33e-05	179.157000065
1720.0	5.32e-05	179.188000202
1720.0	5.31e-05	179.235000134
1730.0	5e-05	179.516000032
1730.0	4.9e-05	179.54700017
1730.0	4.83e-05	179.578999996
1730.0	4.82e-05	179.625
1730.0	4.81e-05	179.657000065
1730.0	4.81e-05	179.688000202
1730.0	4.82e-05	179.735000134
1730.0	4.83e-05	179.766000032
1730.0	4.85e-05	179.813000202
1730.0	4.83e-05	179.844000101
1730.0	4.82e-05	179.875
1730.0	4.82e-05	179.92200017
1730.0	4.83e-05	179.953999996
1730.0	4.82e-05	179.985000134
1730.0	4.82e-05	180.032000065
1730.0	4.82e-05	180.063000202
1730.0	4.81e-05	180.094000101
1730.0	4.81e-05	180.141000032
1730.0	4.78e-05	180.17200017
1730.0	4.77e-05	180.219000101
1730.0	4.77e-05	180.25
1730.0	4.77e-05	180.282000065
1730.0	4.77e-05	180.328999996
1730.0	4.77e-05	180.360000134
1730.0	4.77e-05	180.391000032
1730.0	4.76e-05	180.438000202
1730.0	4.77e-05	180.469000101
1730.0	4.77e-05	180.5
1730.0	4.77e-05	180.54700017
1730.0	4.77e-05	180.578999996
1730.0	4.75e-05	180.625
1730.0	4.72e-05	180.657000065
1730.0	4.72e-05	180.688000202
1730.0	4.72e-05	180.735000134
1730.0	4.75e-05	180.766000032
1730.0	4.75e-05	180.79700017
1730.0	4.71e-05	180.844000101
1730.0	4.65e-05	180.875
1730.0	4.65e-05	180.907000065
1730.0	4.68e-05	180.953999996
1730.0	4.7e-05	180.985000134
1740.0	4.68e-05	181.266000032
1740.0	4.62e-05	181.313000202
1740.0	4.56e-05	181.344000101
1740.0	4.51e-05	181.375
1740.0	4.51e-05	181.42200017
1740.0	4.52e-05	181.453999996
1740.0	4.52e-05	181.5
1740.0	4.53e-05	181.532000065
1740.0	4.53e-05	181.563000202
1740.0	4.52e-05	181.610000134
1740.0	4.47e-05	181.641000032
1740.0	4.51e-05	181.67200017
1740.0	4.52e-05	181.719000101
1740.0	4.57e-05	181.75
1740.0	4.6e-05	181.79700017
1740.0	4.56e-05	181.828999996
1740.0	4.52e-05	181.860000134
1740.0	4.52e-05	181.907000065
1740.0	4.47e-05	181.938000202
1740.0	4.45e-05	181.969000101
1740.0	4.41e-05	182.016000032
1740.0	4.37e-05	182.04700017
1740.0	4.33e-05	182.078999996
1740.0	4.33e-05	182.125
1740.0	4.37e-05	182.157000065
1740.0	4.4e-05	182.203999996
1740.0	4.4e-05	182.235000134
1740.0	4.37e-05	182.266000032
1740.0	4.32e-05	182.313000202
1740.0	4.33e-05	182.344000101
1740.0	4.37e-05	182.391000032
1740.0	4.35e-05	182.42200017
1740.0	4.33e-05	182.453999996
1740.0	4.32e-05	182.5
1740.0	4.31e-05	182.532000065
1740.0	4.32e-05	182.563000202
1740.0	4.37e-05	182.610000134
1740.0	4.37e-05	182.641000032
1740.0	4.35e-05	182.688000202
1740.0	4.35e-05	182.719000101
1740.0	4.32e-05	182.766000032
1750.0	4.1e-05	183.032000065
1750.0	4.06e-05	183.078999996
1750.0	4.02e-05	183.110000134
1750.0	4e-05	183.157000065
1750.0	3.97e-05	183.188000202
1750.0	3.96e-05	183.219000101
1750.0	3.95e-05	183.266000032
1750.0	3.93e-05	183.29700017
1750.0	3.91e-05	183.328999996
1750.0	3.93e-05	183.375
1750.0	3.96e-05	183.407000065
1750.0	3.96e-05	183.438000202
1750.0	3.97e-05	183.485000134
1750.0	3.95e-05	183.516000032
1750.0	3.93e-05	183.563000202
1750.0	3.95e-05	183.594000101
1750.0	3.91e-05	183.625
1750.0	3.9e-05	183.67200017
1750.0	3.91e-05	183.703999996
1750.0	3.95e-05	183.75
1750.0	4.01e-05	183.782000065
1750.0	4.03e-05	183.813000202
1750.0	4.03e-05	183.860000134
1750.0	4.03e-05	183.891000032
1750.0	4.01e-05	183.92200017
1750.0	4.01e-05	183.969000101
1750.0	4e-05	184.0
1750.0	4.01e-05	184.04700017
1750.0	4.01e-05	184.078999996
1750.0	4e-05	184.110000134
1750.0	3.97e-05	184.157000065
1750.0	3.97e-05	184.188000202
1750.0	4e-05	184.219000101
1750.0	4.01e-05	184.266000032
1750.0	4e-05	184.29700017
1750.0	4e-05	184.328999996
1750.0	4.02e-05	184.375
1750.0	4.03e-05	184.407000065
1750.0	4.03e-05	184.453999996
1750.0	4.06e-05	184.485000134
1750.0	4.03e-05	184.532000065
1760.0	3.87e-05	184.79700017
1760.0	3.87e-05	184.844000101
1760.0	3.82e-05	184.875
1760.0	3.78e-05	184.92200017
1760.0	3.75e-05	184.953999996
1760.0	3.68e-05	184.985000134
1760.0	3.65e-05	185.032000065
1760.0	3.62e-05	185.063000202
1760.0	3.6e-05	185.094000101
1760.0	3.58e-05	185.141000032
1760.0	3.57e-05	185.17200017
1760.0	3.57e-05	185.203999996
1760.0	3.58e-05	185.25
1760.0	3.6e-05	185.282000065
1760.0	3.62e-05	185.328999996
1760.0	3.68e-05	185.360000134
1760.0	3.71e-05	185.391000032
1760.0	3.72e-05	185.438000202
1760.0	3.71e-05	185.469000101
1760.0	3.68e-05	185.5
1760.0	3.68e-05	185.54700017
1760.0	3.71e-05	185.578999996
1760.0	3.68e-05	185.610000134
1760.0	3.66e-05	185.657000065
1760.0	3.66e-05	185.688000202
1760.0	3.68e-05	185.735000134
1760.0	3.71e-05	185.766000032
1760.0	3.72e-05	185.813000202
1760.0	3.75e-05	185.844000101
1760.0	3.77e-05	185.875
1760.0	3.76e-05	185.92200017
1760.0	3.76e-05	185.953999996
1760.0	3.72e-05	185.985000134
1760.0	3.71e-05	186.032000065
1760.0	3.68e-05	186.063000202
1760.0	3.66e-05	186.094000101
1760.0	3.62e-05	186.141000032
1760.0	3.63e-05	186.17200017
1760.0	3.66e-05	186.219000101
1760.0	3.68e-05	186.25
1760.0	3.68e-05	186.282000065
1770.0	3.53e-05	186.563000202
1770.0	3.52e-05	186.610000134
1770.0	3.45e-05	186.641000032
1770.0	3.38e-05	186.67200017
1770.0	3.32e-05	186.719000101
1770.0	3.31e-05	186.75
1770.0	3.26e-05	186.782000065
1770.0	3.2e-05	186.828999996
1770.0	3.18e-05	186.860000134
1770.0	3.2e-05	186.907000065
1770.0	3.16e-05	186.938000202
1770.0	3.13e-05	186.969000101
1770.0	3.15e-05	187.016000032
1770.0	3.2e-05	187.04700017
1770.0	3.22e-05	187.078999996
1770.0	3.28e-05	187.125
1770.0	3.31e-05	187.157000065
1770.0	3.27e-05	187.188000202
1770.0	3.28e-05	187.235000134
1770.0	3.31e-05	187.266000032
1770.0	3.32e-05	187.313000202
1770.0	3.33e-05	187.344000101
1770.0	3.32e-05	187.375
1770.0	3.31e-05	187.42200017
1770.0	3.31e-05	187.453999996
1770.0	3.31e-05	187.485000134
1770.0	3.27e-05	187.532000065
1770.0	3.21e-05	187.563000202
1770.0	3.16e-05	187.594000101
1770.0	3.13e-05	187.641000032
1770.0	3.13e-05	187.67200017
1770.0	3.18e-05	187.719000101
1770.0	3.22e-05	187.75
1770.0	3.26e-05	187.782000065
1770.0	3.28e-05	187.828999996
1770.0	3.31e-05	187.860000134
1770.0	3.32e-05	187.891000032
1770.0	3.35e-05	187.938000202
1770.0	3.35e-05	187.969000101
1770.0	3.32e-05	188.0
1770.0	3.31e-05	188.04700017
1780.0	3.15e-05	188.328999996
1780.0	3.1e-05	188.360000134
1780.0	3.07e-05	188.391000032
1780.0	3.06e-05	188.438000202
1780.0	3.03e-05	188.469000101
1780.0	3.06e-05	188.516000032
1780.0	3.06e-05	188.54700017
1780.0	3.06e-05	188.578999996
1780.0	3.07e-05	188.625
1780.0	3.03e-05	188.657000065
1780.0	3.01e-05	188.688000202
1780.0	2.97e-05	188.735000134
1780.0	3e-05	188.766000032
1780.0	2.96e-05	188.79700017
1780.0	2.97e-05	188.844000101
1780.0	2.97e-05	188.875
1780.0	2.95e-05	188.92200017
1780.0	2.91e-05	188.953999996
1780.0	2.91e-05	188.985000134
1780.0	2.9e-05	189.032000065
1780.0	2.91e-05	189.063000202
1780.0	2.93e-05	189.094000101
1780.0	2.91e-05	189.141000032
1780.0	2.9e-05	189.17200017
1780.0	2.9e-05	189.203999996
1780.0	2.87e-05	189.25
1780.0	2.83e-05	189.282000065
1780.0	2.82e-05	189.328999996
1780.0	2.78e-05	189.360000134
1780.0	2.78e-05	189.391000032
1780.0	2.78e-05	189.438000202
1780.0	2.82e-05	189.469000101
1780.0	2.85e-05	189.5
1780.0	2.9e-05	189.54700017
1780.0	2.93e-05	189.578999996
1780.0	2.95e-05	189.625
1780.0	2.95e-05	189.657000065
1780.0	2.93e-05	189.688000202
1780.0	2.93e-05	189.735000134
1780.0	2.93e-05	189.766000032
1780.0	2.97e-05	189.79700017
1790.0	2.82e-05	190.078999996
1790.0	2.78e-05	190.125
1790.0	2.77e-05	190.157000065
1790.0	2.77e-05	190.188000202
1790.0	2.76e-05	190.235000134
1790.0	2.71e-05	190.266000032
1790.0	2.68e-05	190.29700017
1790.0	2.63e-05	190.344000101
1790.0	2.62e-05	190.375
1790.0	2.63e-05	190.42200017
1790.0	2.65e-05	190.453999996
1790.0	2.66e-05	190.485000134
1790.0	2.65e-05	190.532000065
1790.0	2.68e-05	190.563000202
1790.0	2.71e-05	190.594000101
1790.0	2.72e-05	190.641000032
1790.0	2.7e-05	190.67200017
1790.0	2.66e-05	190.703999996
1790.0	2.65e-05	190.75
1790.0	2.65e-05	190.782000065
1790.0	2.65e-05	190.828999996
1790.0	2.65e-05	190.860000134
1790.0	2.65e-05	190.891000032
1790.0	2.65e-05	190.938000202
1790.0	2.65e-05	190.969000101
1790.0	2.66e-05	191.0
1790.0	2.65e-05	191.04700017
1790.0	2.63e-05	191.078999996
1790.0	2.63e-05	191.125
1790.0	2.68e-05	191.157000065
1790.0	2.7e-05	191.188000202
1790.0	2.68e-05	191.235000134
1790.0	2.66e-05	191.266000032
1790.0	2.66e-05	191.313000202
1790.0	2.66e-05	191.344000101
1790.0	2.65e-05	191.375
1790.0	2.62e-05	191.42200017
1790.0	2.58e-05	191.453999996
1790.0	2.58e-05	191.485000134
1790.0	2.62e-05	191.532000065
1790.0	2.65e-05	191.563000202
1800.0	2.41e-05	191.844000101
1800.0	2.38e-05	191.891000032
1800.0	2.37e-05	191.92200017
1800.0	2.37e-05	191.953999996
1800.0	2.38e-05	192.0
1800.0	2.37e-05	192.032000065
1800.0	2.38e-05	192.078999996
1800.0	2.38e-05	192.110000134
1800.0	2.4e-05	192.141000032
1800.0	2.4e-05	192.188000202
1800.0	2.4e-05	192.219000101
1800.0	2.4e-05	192.266000032
1800.0	2.43e-05	192.29700017
1800.0	2.41e-05	192.328999996
1800.0	2.4e-05	192.375
1800.0	2.38e-05	192.407000065
1800.0	2.37e-05	192.438000202
1800.0	2.35e-05	192.485000134
1800.0	2.37e-05	192.516000032
1800.0	2.37e-05	192.54700017
1800.0	2.33e-05	192.594000101
1800.0	2.35e-05	192.625
1800.0	2.35e-05	192.67200017
1800.0	2.33e-05	192.703999996
1800.0	2.32e-05	192.735000134
1800.0	2.33e-05	192.782000065
1800.0	2.37e-05	192.813000202
1800.0	2.4e-05	192.860000134
1800.0	2.41e-05	192.891000032
1800.0	2.4e-05	192.92200017
1800.0	2.4e-05	192.969000101
1800.0	2.4e-05	193.0
1800.0	2.41e-05	193.032000065
1800.0	2.45e-05	193.078999996
1800.0	2.45e-05	193.110000134
1800.0	2.43e-05	193.157000065
1800.0	2.45e-05	193.188000202
1800.0	2.5e-05	193.219000101
1800.0	2.45e-05	193.266000032
1800.0	2.4e-05	193.29700017
1800.0	2.41e-05	193.328999996
