Your edit line - do NOT delete this line
Wavelength [nm], Voltage [V], Elapsed time [s]
900.0	4.05e-05	14.0150001049
900.0	4e-05	14.0470001698
900.0	3.93e-05	14.0930001736
900.0	3.9e-05	14.1400001049
900.0	3.88e-05	14.1720001698
900.0	3.8e-05	14.2180001736
900.0	3.8e-05	14.25
900.0	3.8e-05	14.2970001698
900.0	3.78e-05	14.3430001736
900.0	3.75e-05	14.375
900.0	3.75e-05	14.4220001698
900.0	3.78e-05	14.4680001736
900.0	3.78e-05	14.5
900.0	3.78e-05	14.5470001698
900.0	3.78e-05	14.5780000687
900.0	3.78e-05	14.625
900.0	3.75e-05	14.6720001698
900.0	3.7e-05	14.7030000687
900.0	3.68e-05	14.75
900.0	3.68e-05	14.7970001698
900.0	3.65e-05	14.8280000687
900.0	3.65e-05	14.875
900.0	3.68e-05	14.9060001373
900.0	3.68e-05	14.9530000687
900.0	3.68e-05	15.0
900.0	3.7e-05	15.0310001373
900.0	3.7e-05	15.0780000687
900.0	3.68e-05	15.125
900.0	3.68e-05	15.1560001373
900.0	3.7e-05	15.2030000687
900.0	3.7e-05	15.234000206
900.0	3.75e-05	15.2810001373
900.0	3.8e-05	15.3280000687
900.0	3.8e-05	15.359000206
900.0	3.8e-05	15.4060001373
900.0	3.78e-05	15.4530000687
900.0	3.8e-05	15.5
910.0	3.9e-05	15.7970001698
910.0	3.95e-05	15.8430001736
910.0	4.03e-05	15.8900001049
910.0	4.05e-05	15.9220001698
910.0	4.05e-05	15.9680001736
910.0	4.05e-05	16.0
910.0	4.05e-05	16.0470001698
910.0	4.08e-05	16.0930001736
910.0	4.13e-05	16.125
910.0	4.13e-05	16.1720001698
910.0	4.08e-05	16.2180001736
910.0	4.13e-05	16.25
910.0	4.13e-05	16.2970001698
910.0	4.08e-05	16.3280000687
910.0	4.08e-05	16.375
910.0	4.08e-05	16.4220001698
910.0	4.08e-05	16.4530000687
910.0	4.05e-05	16.5
910.0	4.05e-05	16.5470001698
910.0	4.05e-05	16.5780000687
910.0	4.05e-05	16.625
910.0	4.05e-05	16.6560001373
910.0	4.05e-05	16.7030000687
910.0	4.08e-05	16.75
910.0	4.08e-05	16.7810001373
910.0	4.08e-05	16.8280000687
910.0	4.13e-05	16.875
910.0	4.13e-05	16.9060001373
910.0	4.08e-05	16.9530000687
910.0	4.08e-05	16.984000206
910.0	4.08e-05	17.0310001373
910.0	4.05e-05	17.0780000687
910.0	4.05e-05	17.109000206
910.0	4.05e-05	17.1560001373
910.0	4.03e-05	17.2030000687
910.0	4e-05	17.234000206
910.0	4e-05	17.2810001373
920.0	4.28e-05	17.5930001736
920.0	4.33e-05	17.6400001049
920.0	4.4e-05	17.6720001698
920.0	4.43e-05	17.7180001736
920.0	4.5e-05	17.75
920.0	4.5e-05	17.7970001698
920.0	4.53e-05	17.8430001736
920.0	4.53e-05	17.875
920.0	4.55e-05	17.9220001698
920.0	4.55e-05	17.9680001736
920.0	4.55e-05	18.0
920.0	4.58e-05	18.0470001698
920.0	4.58e-05	18.0780000687
920.0	4.58e-05	18.125
920.0	4.63e-05	18.1720001698
920.0	4.65e-05	18.2030000687
920.0	4.65e-05	18.25
920.0	4.63e-05	18.2970001698
920.0	4.63e-05	18.3280000687
920.0	4.65e-05	18.375
920.0	4.65e-05	18.4220001698
920.0	4.63e-05	18.4530000687
920.0	4.63e-05	18.5
920.0	4.65e-05	18.5470001698
920.0	4.63e-05	18.5780000687
920.0	4.63e-05	18.625
920.0	4.63e-05	18.6560001373
920.0	4.63e-05	18.7030000687
920.0	4.65e-05	18.75
920.0	4.65e-05	18.7970001698
920.0	4.68e-05	18.8280000687
920.0	4.68e-05	18.875
920.0	4.68e-05	18.9060001373
920.0	4.68e-05	18.9530000687
920.0	4.68e-05	19.0
920.0	4.65e-05	19.0310001373
920.0	4.63e-05	19.0780000687
930.0	4.65e-05	19.375
930.0	4.68e-05	19.4220001698
930.0	4.7e-05	19.4680001736
930.0	4.75e-05	19.5
930.0	4.8e-05	19.5470001698
930.0	4.88e-05	19.5930001736
930.0	4.9e-05	19.625
930.0	4.9e-05	19.6720001698
930.0	4.93e-05	19.7180001736
930.0	4.93e-05	19.75
930.0	4.93e-05	19.7970001698
930.0	4.95e-05	19.8280000687
930.0	4.93e-05	19.875
930.0	4.93e-05	19.9220001698
930.0	4.93e-05	19.9530000687
930.0	4.93e-05	20.0
930.0	4.93e-05	20.0470001698
930.0	4.93e-05	20.0780000687
930.0	4.9e-05	20.125
930.0	4.9e-05	20.1560001373
930.0	4.93e-05	20.2030000687
930.0	4.95e-05	20.25
930.0	4.95e-05	20.2810001373
930.0	4.95e-05	20.3280000687
930.0	4.93e-05	20.375
930.0	4.93e-05	20.4060001373
930.0	4.93e-05	20.4530000687
930.0	4.9e-05	20.484000206
930.0	4.9e-05	20.5310001373
930.0	4.88e-05	20.5780000687
930.0	4.83e-05	20.609000206
930.0	4.83e-05	20.6560001373
930.0	4.83e-05	20.7030000687
930.0	4.88e-05	20.734000206
930.0	4.88e-05	20.7810001373
930.0	4.93e-05	20.8120000362
930.0	4.95e-05	20.859000206
940.0	5.2e-05	21.1560001373
940.0	5.28e-05	21.2030000687
940.0	5.33e-05	21.25
940.0	5.38e-05	21.2810001373
940.0	5.4e-05	21.3280000687
940.0	5.4e-05	21.359000206
940.0	5.4e-05	21.4060001373
940.0	5.4e-05	21.4530000687
940.0	5.4e-05	21.484000206
940.0	5.38e-05	21.5310001373
940.0	5.38e-05	21.5780000687
940.0	5.33e-05	21.609000206
940.0	5.33e-05	21.6560001373
940.0	5.33e-05	21.6870000362
940.0	5.33e-05	21.734000206
940.0	5.33e-05	21.7810001373
940.0	5.33e-05	21.8120000362
940.0	5.33e-05	21.859000206
940.0	5.33e-05	21.9060001373
940.0	5.33e-05	21.9370000362
940.0	5.33e-05	21.984000206
940.0	5.38e-05	22.0150001049
940.0	5.38e-05	22.0620000362
940.0	5.33e-05	22.109000206
940.0	5.3e-05	22.1400001049
940.0	5.3e-05	22.1870000362
940.0	5.28e-05	22.234000206
940.0	5.25e-05	22.2650001049
940.0	5.28e-05	22.3120000362
940.0	5.28e-05	22.359000206
940.0	5.25e-05	22.3900001049
940.0	5.25e-05	22.4370000362
940.0	5.25e-05	22.4680001736
940.0	5.28e-05	22.5150001049
940.0	5.25e-05	22.5620000362
940.0	5.28e-05	22.5930001736
940.0	5.33e-05	22.6400001049
950.0	5.58e-05	22.9370000362
950.0	5.68e-05	22.9680001736
950.0	5.75e-05	23.0150001049
950.0	5.78e-05	23.0470001698
950.0	5.8e-05	23.0930001736
950.0	5.83e-05	23.1400001049
950.0	5.88e-05	23.1720001698
950.0	5.9e-05	23.2180001736
950.0	5.93e-05	23.2650001049
950.0	5.93e-05	23.2970001698
950.0	5.9e-05	23.3430001736
950.0	5.88e-05	23.375
950.0	5.88e-05	23.4220001698
950.0	5.88e-05	23.4680001736
950.0	5.83e-05	23.5
950.0	5.83e-05	23.5470001698
950.0	5.88e-05	23.5930001736
950.0	5.88e-05	23.6400001049
950.0	5.88e-05	23.6720001698
950.0	5.88e-05	23.7180001736
950.0	5.83e-05	23.75
950.0	5.83e-05	23.7970001698
950.0	5.88e-05	23.8430001736
950.0	5.88e-05	23.875
950.0	5.9e-05	23.9220001698
950.0	5.9e-05	23.9680001736
950.0	5.9e-05	24.0
950.0	5.9e-05	24.0470001698
950.0	5.93e-05	24.0780000687
950.0	5.95e-05	24.125
950.0	5.93e-05	24.1720001698
950.0	5.9e-05	24.2030000687
950.0	5.88e-05	24.25
950.0	5.83e-05	24.2970001698
950.0	5.8e-05	24.3280000687
950.0	5.83e-05	24.375
950.0	5.8e-05	24.4060001373
960.0	6.05e-05	24.7030000687
960.0	6.08e-05	24.734000206
960.0	6.13e-05	24.7810001373
960.0	6.15e-05	24.8280000687
960.0	6.18e-05	24.859000206
960.0	6.2e-05	24.9060001373
960.0	6.2e-05	24.9530000687
960.0	6.2e-05	24.984000206
960.0	6.2e-05	25.0310001373
960.0	6.2e-05	25.0780000687
960.0	6.2e-05	25.109000206
960.0	6.2e-05	25.1560001373
960.0	6.25e-05	25.2030000687
960.0	6.25e-05	25.234000206
960.0	6.28e-05	25.2810001373
960.0	6.28e-05	25.3280000687
960.0	6.25e-05	25.359000206
960.0	6.25e-05	25.4060001373
960.0	6.2e-05	25.4370000362
960.0	6.18e-05	25.484000206
960.0	6.18e-05	25.5310001373
960.0	6.2e-05	25.5620000362
960.0	6.2e-05	25.609000206
960.0	6.28e-05	25.6560001373
960.0	6.3e-05	25.6870000362
960.0	6.38e-05	25.734000206
960.0	6.38e-05	25.7810001373
960.0	6.38e-05	25.8120000362
960.0	6.38e-05	25.859000206
960.0	6.33e-05	25.9060001373
960.0	6.33e-05	25.9370000362
960.0	6.33e-05	25.984000206
960.0	6.33e-05	26.0150001049
960.0	6.38e-05	26.0620000362
960.0	6.4e-05	26.109000206
960.0	6.4e-05	26.1400001049
960.0	6.4e-05	26.1870000362
970.0	6.63e-05	26.4680001736
970.0	6.68e-05	26.5150001049
970.0	6.7e-05	26.5620000362
970.0	6.75e-05	26.5930001736
970.0	6.78e-05	26.6400001049
970.0	6.8e-05	26.6870000362
970.0	6.8e-05	26.7180001736
970.0	6.8e-05	26.7650001049
970.0	6.8e-05	26.7970001698
970.0	6.8e-05	26.8430001736
970.0	6.83e-05	26.8900001049
970.0	6.83e-05	26.9220001698
970.0	6.83e-05	26.9680001736
970.0	6.83e-05	27.0150001049
970.0	6.8e-05	27.0470001698
970.0	6.8e-05	27.0930001736
970.0	6.8e-05	27.125
970.0	6.83e-05	27.1720001698
970.0	6.83e-05	27.2180001736
970.0	6.83e-05	27.25
970.0	6.83e-05	27.2970001698
970.0	6.83e-05	27.3430001736
970.0	6.83e-05	27.375
970.0	6.88e-05	27.4220001698
970.0	6.83e-05	27.4680001736
970.0	6.8e-05	27.5
970.0	6.8e-05	27.5470001698
970.0	6.8e-05	27.5780000687
970.0	6.8e-05	27.625
970.0	6.8e-05	27.6720001698
970.0	6.75e-05	27.7030000687
970.0	6.75e-05	27.75
970.0	6.75e-05	27.7810001373
970.0	6.75e-05	27.8280000687
970.0	6.78e-05	27.875
970.0	6.78e-05	27.9060001373
970.0	6.78e-05	27.9530000687
980.0	7.08e-05	28.234000206
980.0	7.18e-05	28.2810001373
980.0	7.25e-05	28.3120000362
980.0	7.28e-05	28.359000206
980.0	7.3e-05	28.4060001373
980.0	7.3e-05	28.4370000362
980.0	7.33e-05	28.484000206
980.0	7.3e-05	28.5310001373
980.0	7.33e-05	28.5620000362
980.0	7.38e-05	28.609000206
980.0	7.38e-05	28.6400001049
980.0	7.4e-05	28.6870000362
980.0	7.4e-05	28.734000206
980.0	7.4e-05	28.7650001049
980.0	7.38e-05	28.8120000362
980.0	7.38e-05	28.859000206
980.0	7.38e-05	28.8900001049
980.0	7.38e-05	28.9370000362
980.0	7.38e-05	28.984000206
980.0	7.38e-05	29.0150001049
980.0	7.38e-05	29.0620000362
980.0	7.33e-05	29.0930001736
980.0	7.33e-05	29.1400001049
980.0	7.38e-05	29.1870000362
980.0	7.38e-05	29.2180001736
980.0	7.4e-05	29.2650001049
980.0	7.38e-05	29.3120000362
980.0	7.38e-05	29.3430001736
980.0	7.4e-05	29.3900001049
980.0	7.4e-05	29.4370000362
980.0	7.43e-05	29.4680001736
980.0	7.4e-05	29.5150001049
980.0	7.4e-05	29.5620000362
980.0	7.4e-05	29.5930001736
980.0	7.43e-05	29.6400001049
980.0	7.45e-05	29.6720001698
980.0	7.45e-05	29.7180001736
990.0	7.58e-05	30.0
990.0	7.68e-05	30.0470001698
990.0	7.7e-05	30.0780000687
990.0	7.75e-05	30.125
990.0	7.78e-05	30.1560001373
990.0	7.78e-05	30.2030000687
990.0	7.8e-05	30.25
990.0	7.8e-05	30.2810001373
990.0	7.8e-05	30.3280000687
990.0	7.83e-05	30.375
990.0	7.83e-05	30.4060001373
990.0	7.83e-05	30.4530000687
990.0	7.8e-05	30.484000206
990.0	7.8e-05	30.5310001373
990.0	7.83e-05	30.5780000687
990.0	7.83e-05	30.609000206
990.0	7.83e-05	30.6560001373
990.0	7.83e-05	30.7030000687
990.0	7.8e-05	30.734000206
990.0	7.78e-05	30.7810001373
990.0	7.75e-05	30.8280000687
990.0	7.75e-05	30.859000206
990.0	7.7e-05	30.9060001373
990.0	7.75e-05	30.9370000362
990.0	7.78e-05	30.984000206
990.0	7.8e-05	31.0310001373
990.0	7.78e-05	31.0620000362
990.0	7.78e-05	31.109000206
990.0	7.78e-05	31.1560001373
990.0	7.75e-05	31.1870000362
990.0	7.75e-05	31.234000206
990.0	7.75e-05	31.2650001049
990.0	7.75e-05	31.3120000362
990.0	7.75e-05	31.359000206
990.0	7.75e-05	31.3900001049
990.0	7.75e-05	31.4370000362
990.0	7.75e-05	31.484000206
1000.0	8.08e-05	31.7650001049
1000.0	8.18e-05	31.7970001698
1000.0	8.25e-05	31.8430001736
1000.0	8.33e-05	31.8900001049
1000.0	8.38e-05	31.9220001698
1000.0	8.4e-05	31.9680001736
1000.0	8.43e-05	32.0150001049
1000.0	8.45e-05	32.0470001698
1000.0	8.5e-05	32.0930001736
1000.0	8.5e-05	32.125
1000.0	8.53e-05	32.1720001698
1000.0	8.55e-05	32.2180001736
1000.0	8.55e-05	32.25
1000.0	8.55e-05	32.2970001698
1000.0	8.55e-05	32.3430001736
1000.0	8.55e-05	32.375
1000.0	8.58e-05	32.4220001698
1000.0	8.55e-05	32.4530000687
1000.0	8.53e-05	32.5
1000.0	8.5e-05	32.5470001698
1000.0	8.5e-05	32.5930001736
1000.0	8.5e-05	32.625
1000.0	8.5e-05	32.6720001698
1000.0	8.53e-05	32.7030000687
1000.0	8.53e-05	32.75
1000.0	8.55e-05	32.7970001698
1000.0	8.55e-05	32.8280000687
1000.0	8.55e-05	32.875
1000.0	8.55e-05	32.9220001698
1000.0	8.55e-05	32.9530000687
1000.0	8.55e-05	33.0
1000.0	8.55e-05	33.0310001373
1000.0	8.55e-05	33.0780000687
1000.0	8.53e-05	33.125
1000.0	8.53e-05	33.1560001373
1000.0	8.53e-05	33.2030000687
1000.0	8.53e-05	33.25
1010.0	8.78e-05	33.5310001373
1010.0	8.83e-05	33.5620000362
1010.0	8.9e-05	33.609000206
1010.0	8.93e-05	33.6400001049
1010.0	9e-05	33.6870000362
1010.0	9.05e-05	33.734000206
1010.0	9.08e-05	33.7650001049
1010.0	9.05e-05	33.8120000362
1010.0	9.05e-05	33.859000206
1010.0	9.03e-05	33.8900001049
1010.0	9.05e-05	33.9370000362
1010.0	9.05e-05	33.9680001736
1010.0	9.05e-05	34.0150001049
1010.0	9.05e-05	34.0620000362
1010.0	9.03e-05	34.0930001736
1010.0	9.03e-05	34.1400001049
1010.0	9.03e-05	34.1870000362
1010.0	9e-05	34.2180001736
1010.0	9e-05	34.2650001049
1010.0	9.03e-05	34.3120000362
1010.0	9.05e-05	34.3430001736
1010.0	9.05e-05	34.3900001049
1010.0	9.08e-05	34.4370000362
1010.0	9.05e-05	34.4680001736
1010.0	9.08e-05	34.5150001049
1010.0	9.13e-05	34.5470001698
1010.0	9.13e-05	34.5930001736
1010.0	9.13e-05	34.6400001049
1010.0	9.13e-05	34.6720001698
1010.0	9.13e-05	34.7180001736
1010.0	9.15e-05	34.7650001049
1010.0	9.15e-05	34.7970001698
1010.0	9.18e-05	34.8430001736
1010.0	9.18e-05	34.8900001049
1010.0	9.15e-05	34.9220001698
1010.0	9.15e-05	34.9680001736
1010.0	9.15e-05	35.0
1020.0	9.4e-05	35.2810001373
1020.0	9.5e-05	35.3280000687
1020.0	9.58e-05	35.375
1020.0	9.68e-05	35.4060001373
1020.0	9.75e-05	35.4530000687
1020.0	9.78e-05	35.484000206
1020.0	9.78e-05	35.5310001373
1020.0	9.8e-05	35.5780000687
1020.0	9.83e-05	35.609000206
1020.0	9.88e-05	35.6560001373
1020.0	9.88e-05	35.7030000687
1020.0	9.88e-05	35.734000206
1020.0	9.9e-05	35.7810001373
1020.0	9.95e-05	35.8120000362
1020.0	0.0001	35.859000206
1020.0	9.95e-05	35.9060001373
1020.0	9.95e-05	35.9370000362
1020.0	9.95e-05	35.984000206
1020.0	9.95e-05	36.0310001373
1020.0	9.95e-05	36.0620000362
1020.0	9.93e-05	36.109000206
1020.0	9.93e-05	36.1400001049
1020.0	9.93e-05	36.1870000362
1020.0	9.93e-05	36.234000206
1020.0	9.93e-05	36.2650001049
1020.0	9.9e-05	36.3120000362
1020.0	9.93e-05	36.359000206
1020.0	9.93e-05	36.3900001049
1020.0	0.0001	36.4370000362
1020.0	0.0001	36.484000206
1020.0	0.0001	36.5150001049
1020.0	0.0001	36.5620000362
1020.0	0.0001003	36.5930001736
1020.0	0.0001003	36.6400001049
1020.0	0.0001	36.6870000362
1020.0	0.0001	36.7180001736
1020.0	0.0001	36.7650001049
1030.0	0.0001028	37.0470001698
1030.0	0.0001038	37.0780000687
1030.0	0.0001043	37.125
1030.0	0.0001045	37.1720001698
1030.0	0.0001053	37.2030000687
1030.0	0.0001058	37.25
1030.0	0.0001063	37.2970001698
1030.0	0.0001065	37.3280000687
1030.0	0.0001065	37.375
1030.0	0.0001065	37.4060001373
1030.0	0.0001065	37.4530000687
1030.0	0.0001063	37.5
1030.0	0.0001065	37.5310001373
1030.0	0.0001068	37.5780000687
1030.0	0.0001068	37.625
1030.0	0.000107	37.6560001373
1030.0	0.000107	37.7030000687
1030.0	0.0001075	37.734000206
1030.0	0.0001075	37.7810001373
1030.0	0.0001075	37.8280000687
1030.0	0.0001075	37.859000206
1030.0	0.000107	37.9060001373
1030.0	0.0001075	37.9530000687
1030.0	0.0001075	37.984000206
1030.0	0.0001075	38.0310001373
1030.0	0.0001068	38.0620000362
1030.0	0.0001068	38.109000206
1030.0	0.0001065	38.1560001373
1030.0	0.0001063	38.1870000362
1030.0	0.0001063	38.234000206
1030.0	0.0001063	38.2810001373
1030.0	0.0001065	38.3120000362
1030.0	0.0001065	38.359000206
1030.0	0.0001065	38.4060001373
1030.0	0.0001065	38.4370000362
1030.0	0.0001065	38.484000206
1030.0	0.0001065	38.5150001049
1040.0	0.0001093	38.8120000362
1040.0	0.0001105	38.8430001736
1040.0	0.0001118	38.8900001049
1040.0	0.0001128	38.9220001698
1040.0	0.0001133	38.9680001736
1040.0	0.0001138	39.0150001049
1040.0	0.0001138	39.0470001698
1040.0	0.0001143	39.0930001736
1040.0	0.0001145	39.1400001049
1040.0	0.0001153	39.1720001698
1040.0	0.0001155	39.2180001736
1040.0	0.0001155	39.25
1040.0	0.0001155	39.2970001698
1040.0	0.0001155	39.3430001736
1040.0	0.0001153	39.375
1040.0	0.0001153	39.4220001698
1040.0	0.000115	39.4680001736
1040.0	0.000115	39.5
1040.0	0.0001153	39.5470001698
1040.0	0.000115	39.5930001736
1040.0	0.000115	39.625
1040.0	0.0001153	39.6720001698
1040.0	0.0001153	39.7180001736
1040.0	0.0001153	39.75
1040.0	0.0001155	39.7970001698
1040.0	0.0001155	39.8430001736
1040.0	0.0001155	39.875
1040.0	0.0001158	39.9220001698
1040.0	0.0001158	39.9530000687
1040.0	0.0001163	40.0
1040.0	0.0001163	40.0470001698
1040.0	0.0001165	40.0780000687
1040.0	0.0001165	40.125
1040.0	0.0001165	40.1720001698
1040.0	0.0001163	40.2030000687
1040.0	0.0001163	40.25
1040.0	0.0001163	40.2810001373
1050.0	0.0001208	40.5620000362
1050.0	0.0001218	40.609000206
1050.0	0.000123	40.6560001373
1050.0	0.0001238	40.6870000362
1050.0	0.0001245	40.734000206
1050.0	0.000125	40.7650001049
1050.0	0.0001253	40.8120000362
1050.0	0.0001253	40.859000206
1050.0	0.000125	40.8900001049
1050.0	0.000125	40.9370000362
1050.0	0.0001245	40.984000206
1050.0	0.000125	41.0150001049
1050.0	0.000125	41.0620000362
1050.0	0.000125	41.0930001736
1050.0	0.0001253	41.1400001049
1050.0	0.0001255	41.1870000362
1050.0	0.0001258	41.2180001736
1050.0	0.0001258	41.2650001049
1050.0	0.0001258	41.3120000362
1050.0	0.0001255	41.3430001736
1050.0	0.0001258	41.3900001049
1050.0	0.0001258	41.4370000362
1050.0	0.0001258	41.4680001736
1050.0	0.0001258	41.5150001049
1050.0	0.0001255	41.5470001698
1050.0	0.0001258	41.5930001736
1050.0	0.0001255	41.6400001049
1050.0	0.0001255	41.6720001698
1050.0	0.0001253	41.7180001736
1050.0	0.0001253	41.7650001049
1050.0	0.0001255	41.7970001698
1050.0	0.0001255	41.8430001736
1050.0	0.0001255	41.875
1050.0	0.0001255	41.9220001698
1050.0	0.0001255	41.9680001736
1050.0	0.0001253	42.0
1050.0	0.0001253	42.0470001698
1060.0	0.000129	42.3280000687
1060.0	0.0001303	42.359000206
1060.0	0.0001313	42.4060001373
1060.0	0.0001318	42.4530000687
1060.0	0.0001328	42.5
1060.0	0.0001333	42.5310001373
1060.0	0.0001338	42.5780000687
1060.0	0.0001338	42.609000206
1060.0	0.000134	42.6560001373
1060.0	0.0001343	42.7030000687
1060.0	0.0001345	42.734000206
1060.0	0.000135	42.7810001373
1060.0	0.0001353	42.8280000687
1060.0	0.0001353	42.859000206
1060.0	0.000135	42.9060001373
1060.0	0.000135	42.9530000687
1060.0	0.0001353	42.984000206
1060.0	0.0001355	43.0310001373
1060.0	0.0001358	43.0780000687
1060.0	0.0001358	43.109000206
1060.0	0.0001358	43.1560001373
1060.0	0.0001355	43.2030000687
1060.0	0.0001353	43.234000206
1060.0	0.0001353	43.2810001373
1060.0	0.000135	43.3120000362
1060.0	0.000135	43.359000206
1060.0	0.0001345	43.4060001373
1060.0	0.0001343	43.4370000362
1060.0	0.0001345	43.484000206
1060.0	0.0001345	43.5310001373
1060.0	0.0001343	43.5620000362
1060.0	0.0001343	43.609000206
1060.0	0.0001343	43.6400001049
1060.0	0.0001343	43.6870000362
1060.0	0.0001343	43.734000206
1060.0	0.0001345	43.7650001049
1060.0	0.0001343	43.8120000362
1070.0	0.0001378	44.0930001736
1070.0	0.0001393	44.125
1070.0	0.0001405	44.1720001698
1070.0	0.0001418	44.2180001736
1070.0	0.0001425	44.25
1070.0	0.0001428	44.2970001698
1070.0	0.0001433	44.3430001736
1070.0	0.0001438	44.375
1070.0	0.0001443	44.4220001698
1070.0	0.0001445	44.4680001736
1070.0	0.0001453	44.5
1070.0	0.0001453	44.5470001698
1070.0	0.0001453	44.5780000687
1070.0	0.000145	44.625
1070.0	0.000145	44.6720001698
1070.0	0.0001453	44.7030000687
1070.0	0.0001453	44.75
1070.0	0.0001453	44.7810001373
1070.0	0.0001445	44.8280000687
1070.0	0.0001443	44.875
1070.0	0.0001443	44.9060001373
1070.0	0.0001443	44.9530000687
1070.0	0.0001445	45.0
1070.0	0.0001445	45.0310001373
1070.0	0.000145	45.0780000687
1070.0	0.0001453	45.125
1070.0	0.0001453	45.1560001373
1070.0	0.0001453	45.2030000687
1070.0	0.0001453	45.234000206
1070.0	0.0001453	45.2810001373
1070.0	0.000145	45.3280000687
1070.0	0.0001445	45.375
1070.0	0.0001445	45.4060001373
1070.0	0.0001445	45.4530000687
1070.0	0.0001443	45.5
1070.0	0.0001445	45.5310001373
1070.0	0.000145	45.5780000687
1080.0	0.0001495	45.859000206
1080.0	0.0001508	45.8900001049
1080.0	0.0001518	45.9370000362
1080.0	0.0001528	45.9680001736
1080.0	0.0001538	46.0150001049
1080.0	0.0001545	46.0620000362
1080.0	0.0001555	46.0930001736
1080.0	0.0001558	46.1400001049
1080.0	0.0001563	46.1870000362
1080.0	0.0001563	46.2180001736
1080.0	0.0001563	46.2650001049
1080.0	0.0001563	46.3120000362
1080.0	0.0001563	46.3430001736
1080.0	0.0001563	46.3900001049
1080.0	0.0001563	46.4220001698
1080.0	0.0001565	46.4680001736
1080.0	0.0001565	46.5150001049
1080.0	0.0001565	46.5470001698
1080.0	0.0001563	46.5930001736
1080.0	0.0001565	46.6400001049
1080.0	0.0001568	46.6720001698
1080.0	0.0001568	46.7180001736
1080.0	0.0001565	46.75
1080.0	0.0001568	46.7970001698
1080.0	0.0001568	46.8430001736
1080.0	0.0001568	46.875
1080.0	0.0001568	46.9220001698
1080.0	0.0001568	46.9680001736
1080.0	0.0001568	47.0
1080.0	0.000157	47.0470001698
1080.0	0.000157	47.0780000687
1080.0	0.0001568	47.125
1080.0	0.0001568	47.1720001698
1080.0	0.0001568	47.2030000687
1080.0	0.0001565	47.25
1080.0	0.0001563	47.2970001698
1080.0	0.0001558	47.3280000687
1090.0	0.0001603	47.609000206
1090.0	0.0001615	47.6400001049
1090.0	0.0001625	47.6870000362
1090.0	0.000163	47.734000206
1090.0	0.0001638	47.7650001049
1090.0	0.000164	47.8120000362
1090.0	0.0001645	47.859000206
1090.0	0.0001653	47.8900001049
1090.0	0.0001655	47.9370000362
1090.0	0.0001655	47.9680001736
1090.0	0.0001658	48.0150001049
1090.0	0.0001663	48.0620000362
1090.0	0.0001665	48.0930001736
1090.0	0.0001663	48.1400001049
1090.0	0.0001663	48.1870000362
1090.0	0.0001658	48.2180001736
1090.0	0.0001658	48.2650001049
1090.0	0.0001658	48.3120000362
1090.0	0.0001658	48.3430001736
1090.0	0.0001655	48.3900001049
1090.0	0.0001658	48.4220001698
1090.0	0.0001658	48.4680001736
1090.0	0.0001658	48.5150001049
1090.0	0.0001658	48.5470001698
1090.0	0.0001658	48.5930001736
1090.0	0.0001655	48.6400001049
1090.0	0.0001655	48.6720001698
1090.0	0.0001655	48.7180001736
1090.0	0.0001655	48.75
1090.0	0.0001658	48.7970001698
1090.0	0.0001663	48.8430001736
1090.0	0.0001665	48.875
1090.0	0.0001665	48.9220001698
1090.0	0.0001665	48.9680001736
1090.0	0.0001663	49.0
1090.0	0.0001663	49.0470001698
1090.0	0.0001658	49.0930001736
1100.0	0.0001688	49.359000206
1100.0	0.0001705	49.4060001373
1100.0	0.0001718	49.4370000362
1100.0	0.0001728	49.484000206
1100.0	0.0001738	49.5310001373
1100.0	0.0001738	49.5620000362
1100.0	0.000174	49.609000206
1100.0	0.0001745	49.6560001373
1100.0	0.0001745	49.6870000362
1100.0	0.0001745	49.734000206
1100.0	0.0001745	49.7810001373
1100.0	0.000175	49.8120000362
1100.0	0.000175	49.859000206
1100.0	0.0001753	49.9060001373
1100.0	0.0001753	49.9370000362
1100.0	0.0001755	49.984000206
1100.0	0.0001753	50.0150001049
1100.0	0.0001745	50.0620000362
1100.0	0.0001745	50.109000206
1100.0	0.0001745	50.1400001049
1100.0	0.0001743	50.1870000362
1100.0	0.0001743	50.234000206
1100.0	0.0001745	50.2650001049
1100.0	0.000175	50.3120000362
1100.0	0.000175	50.3430001736
1100.0	0.0001753	50.3900001049
1100.0	0.0001755	50.4370000362
1100.0	0.0001755	50.4680001736
1100.0	0.0001755	50.5150001049
1100.0	0.0001755	50.5620000362
1100.0	0.0001755	50.5930001736
1100.0	0.0001755	50.6400001049
1100.0	0.0001753	50.6720001698
1100.0	0.0001755	50.7180001736
1100.0	0.0001755	50.7650001049
1100.0	0.0001753	50.7970001698
1100.0	0.0001755	50.8430001736
1110.0	0.000179	51.109000206
1110.0	0.0001803	51.1560001373
1110.0	0.0001813	51.2030000687
1110.0	0.000182	51.234000206
1110.0	0.000183	51.2810001373
1110.0	0.0001833	51.3120000362
1110.0	0.0001833	51.359000206
1110.0	0.0001833	51.4060001373
1110.0	0.0001838	51.4370000362
1110.0	0.0001843	51.484000206
1110.0	0.0001843	51.5310001373
1110.0	0.0001843	51.5620000362
1110.0	0.0001843	51.609000206
1110.0	0.0001845	51.6400001049
1110.0	0.0001845	51.6870000362
1110.0	0.0001845	51.734000206
1110.0	0.000185	51.7650001049
1110.0	0.0001853	51.8120000362
1110.0	0.0001853	51.859000206
1110.0	0.0001855	51.8900001049
1110.0	0.0001858	51.9370000362
1110.0	0.0001855	51.984000206
1110.0	0.0001858	52.0150001049
1110.0	0.0001855	52.0620000362
1110.0	0.0001858	52.0930001736
1110.0	0.0001858	52.1400001049
1110.0	0.0001863	52.1870000362
1110.0	0.0001863	52.234000206
1110.0	0.0001863	52.2650001049
1110.0	0.0001863	52.3120000362
1110.0	0.0001863	52.359000206
1110.0	0.0001865	52.3900001049
1110.0	0.0001865	52.4370000362
1110.0	0.0001865	52.484000206
1110.0	0.0001865	52.5150001049
1110.0	0.0001865	52.5620000362
1110.0	0.0001863	52.609000206
1120.0	0.0001888	52.875
1120.0	0.0001895	52.9220001698
1120.0	0.0001913	52.9530000687
1120.0	0.000192	53.0
1120.0	0.000193	53.0310001373
1120.0	0.0001938	53.0780000687
1120.0	0.0001943	53.125
1120.0	0.0001943	53.1560001373
1120.0	0.0001945	53.2030000687
1120.0	0.0001945	53.234000206
1120.0	0.0001945	53.2810001373
1120.0	0.0001945	53.3280000687
1120.0	0.0001945	53.359000206
1120.0	0.0001945	53.4060001373
1120.0	0.0001943	53.4530000687
1120.0	0.0001943	53.484000206
1120.0	0.0001943	53.5310001373
1120.0	0.000194	53.5780000687
1120.0	0.000194	53.609000206
1120.0	0.000194	53.6560001373
1120.0	0.000194	53.7030000687
1120.0	0.0001938	53.734000206
1120.0	0.0001938	53.7810001373
1120.0	0.0001933	53.8280000687
1120.0	0.0001938	53.859000206
1120.0	0.0001938	53.9060001373
1120.0	0.000194	53.9530000687
1120.0	0.000194	53.984000206
1120.0	0.000194	54.0310001373
1120.0	0.0001943	54.0780000687
1120.0	0.0001943	54.109000206
1120.0	0.000194	54.1560001373
1120.0	0.0001938	54.1870000362
1120.0	0.0001938	54.234000206
1120.0	0.0001933	54.2810001373
1120.0	0.0001933	54.3120000362
1120.0	0.0001933	54.359000206
1130.0	0.0001958	54.625
1130.0	0.000197	54.6720001698
1130.0	0.000198	54.7030000687
1130.0	0.000199	54.75
1130.0	0.0001995	54.7970001698
1130.0	0.0002	54.8280000687
1130.0	0.0002003	54.875
1130.0	0.0002003	54.9060001373
1130.0	0.0002003	54.9530000687
1130.0	0.0002005	55.0
1130.0	0.0002008	55.0310001373
1130.0	0.0002013	55.0780000687
1130.0	0.0002015	55.125
1130.0	0.0002018	55.1560001373
1130.0	0.0002018	55.2030000687
1130.0	0.0002018	55.234000206
1130.0	0.0002018	55.2810001373
1130.0	0.0002018	55.3280000687
1130.0	0.0002015	55.359000206
1130.0	0.0002013	55.4060001373
1130.0	0.0002008	55.4530000687
1130.0	0.0002005	55.484000206
1130.0	0.0002003	55.5310001373
1130.0	0.0002003	55.5780000687
1130.0	0.0002003	55.609000206
1130.0	0.0002003	55.6560001373
1130.0	0.0002005	55.6870000362
1130.0	0.0002008	55.734000206
1130.0	0.0002008	55.7810001373
1130.0	0.0002013	55.8120000362
1130.0	0.0002013	55.859000206
1130.0	0.0002013	55.9220001698
1130.0	0.0002013	55.9680001736
1130.0	0.0002013	56.0
1130.0	0.0002013	56.0470001698
1130.0	0.0002013	56.0780000687
1140.0	0.0002033	56.3430001736
1140.0	0.0002043	56.3900001049
1140.0	0.0002053	56.4370000362
1140.0	0.0002063	56.4680001736
1140.0	0.0002068	56.5150001049
1140.0	0.0002075	56.5620000362
1140.0	0.0002078	56.5930001736
1140.0	0.0002083	56.6400001049
1140.0	0.0002088	56.6870000362
1140.0	0.0002088	56.7180001736
1140.0	0.0002088	56.7650001049
1140.0	0.0002083	56.7970001698
1140.0	0.000208	56.8430001736
1140.0	0.000208	56.8900001049
1140.0	0.000208	56.9220001698
1140.0	0.000208	56.9680001736
1140.0	0.000208	57.0150001049
1140.0	0.0002088	57.0470001698
1140.0	0.0002088	57.0930001736
1140.0	0.000209	57.125
1140.0	0.0002093	57.1720001698
1140.0	0.0002093	57.2180001736
1140.0	0.0002093	57.25
1140.0	0.0002093	57.2970001698
1140.0	0.000209	57.3430001736
1140.0	0.0002093	57.375
1140.0	0.0002093	57.4220001698
1140.0	0.0002093	57.4680001736
1140.0	0.0002093	57.5
1140.0	0.0002093	57.5470001698
1140.0	0.000209	57.5780000687
1140.0	0.000209	57.625
1140.0	0.0002088	57.6720001698
1140.0	0.0002088	57.7030000687
1140.0	0.000209	57.75
1140.0	0.0002093	57.7810001373
1140.0	0.0002093	57.8280000687
1150.0	0.0002125	58.0930001736
1150.0	0.0002138	58.1400001049
1150.0	0.0002145	58.1720001698
1150.0	0.0002155	58.2180001736
1150.0	0.0002158	58.2650001049
1150.0	0.0002158	58.2970001698
1150.0	0.0002158	58.3430001736
1150.0	0.0002158	58.3900001049
1150.0	0.0002158	58.4220001698
1150.0	0.0002163	58.4680001736
1150.0	0.0002165	58.5150001049
1150.0	0.0002165	58.5470001698
1150.0	0.0002165	58.5930001736
1150.0	0.0002165	58.6400001049
1150.0	0.0002163	58.6720001698
1150.0	0.0002165	58.7180001736
1150.0	0.0002168	58.7650001049
1150.0	0.0002168	58.7970001698
1150.0	0.000217	58.8430001736
1150.0	0.000217	58.8900001049
1150.0	0.000217	58.9220001698
1150.0	0.0002175	58.9680001736
1150.0	0.0002175	59.0150001049
1150.0	0.0002178	59.0470001698
1150.0	0.0002175	59.0930001736
1150.0	0.0002175	59.1400001049
1150.0	0.0002175	59.1720001698
1150.0	0.0002175	59.2180001736
1150.0	0.0002175	59.2650001049
1150.0	0.0002175	59.2970001698
1150.0	0.0002175	59.3430001736
1150.0	0.0002175	59.375
1150.0	0.0002175	59.4220001698
1150.0	0.0002175	59.4680001736
1150.0	0.0002175	59.5
1150.0	0.0002175	59.5470001698
1160.0	0.0002203	59.8120000362
1160.0	0.0002213	59.859000206
1160.0	0.0002215	59.8900001049
1160.0	0.0002215	59.9370000362
1160.0	0.000222	59.984000206
1160.0	0.0002225	60.0150001049
1160.0	0.000223	60.0620000362
1160.0	0.000223	60.0930001736
1160.0	0.000223	60.1400001049
1160.0	0.0002233	60.1870000362
1160.0	0.0002233	60.2180001736
1160.0	0.0002233	60.2650001049
1160.0	0.0002233	60.3120000362
1160.0	0.0002233	60.3430001736
1160.0	0.0002233	60.3900001049
1160.0	0.0002238	60.4370000362
1160.0	0.000224	60.4680001736
1160.0	0.000224	60.5150001049
1160.0	0.000224	60.5470001698
1160.0	0.000224	60.5930001736
1160.0	0.0002238	60.6400001049
1160.0	0.0002238	60.6720001698
1160.0	0.0002238	60.7180001736
1160.0	0.000224	60.7650001049
1160.0	0.000224	60.7970001698
1160.0	0.000224	60.8430001736
1160.0	0.000224	60.875
1160.0	0.000224	60.9220001698
1160.0	0.0002243	60.9680001736
1160.0	0.0002243	61.0
1160.0	0.0002243	61.0470001698
1160.0	0.0002243	61.0930001736
1160.0	0.0002243	61.125
1160.0	0.000224	61.1720001698
1160.0	0.000224	61.2030000687
1160.0	0.0002238	61.25
1160.0	0.0002238	61.2970001698
1170.0	0.0002265	61.5620000362
1170.0	0.000227	61.609000206
1170.0	0.0002275	61.6560001373
1170.0	0.0002283	61.6870000362
1170.0	0.0002288	61.734000206
1170.0	0.000229	61.7650001049
1170.0	0.000229	61.8120000362
1170.0	0.0002293	61.859000206
1170.0	0.0002295	61.8900001049
1170.0	0.0002295	61.9370000362
1170.0	0.0002295	61.984000206
1170.0	0.0002295	62.0150001049
1170.0	0.00023	62.0620000362
1170.0	0.00023	62.0930001736
1170.0	0.00023	62.1400001049
1170.0	0.0002295	62.1870000362
1170.0	0.0002293	62.2180001736
1170.0	0.0002293	62.2650001049
1170.0	0.0002295	62.3120000362
1170.0	0.0002295	62.3430001736
1170.0	0.00023	62.3900001049
1170.0	0.00023	62.4370000362
1170.0	0.00023	62.4680001736
1170.0	0.00023	62.5150001049
1170.0	0.00023	62.5470001698
1170.0	0.00023	62.5930001736
1170.0	0.0002295	62.6400001049
1170.0	0.0002293	62.6720001698
1170.0	0.0002293	62.7180001736
1170.0	0.0002293	62.7650001049
1170.0	0.00023	62.7970001698
1170.0	0.0002303	62.8430001736
1170.0	0.0002305	62.8900001049
1170.0	0.0002303	62.9220001698
1170.0	0.0002303	62.9680001736
1170.0	0.0002303	63.0150001049
1170.0	0.0002303	63.0470001698
1180.0	0.0002318	63.3280000687
1180.0	0.0002328	63.359000206
1180.0	0.0002338	63.4060001373
1180.0	0.0002343	63.4370000362
1180.0	0.0002345	63.484000206
1180.0	0.0002353	63.5310001373
1180.0	0.0002363	63.5620000362
1180.0	0.0002368	63.609000206
1180.0	0.000237	63.6560001373
1180.0	0.0002375	63.6870000362
1180.0	0.0002375	63.734000206
1180.0	0.000237	63.7650001049
1180.0	0.000237	63.8120000362
1180.0	0.000237	63.859000206
1180.0	0.0002375	63.8900001049
1180.0	0.0002375	63.9370000362
1180.0	0.0002375	63.984000206
1180.0	0.0002375	64.0150001049
1180.0	0.0002375	64.0620000362
1180.0	0.0002375	64.109000206
1180.0	0.0002375	64.1400001049
1180.0	0.0002378	64.1870000362
1180.0	0.0002378	64.2180001736
1180.0	0.0002378	64.2650001049
1180.0	0.0002378	64.3120000362
1180.0	0.0002375	64.3430001736
1180.0	0.0002375	64.3900001049
1180.0	0.000237	64.4370000362
1180.0	0.000237	64.4680001736
1180.0	0.000237	64.5150001049
1180.0	0.000237	64.5470001698
1180.0	0.0002375	64.5930001736
1180.0	0.0002378	64.6400001049
1180.0	0.000238	64.6720001698
1180.0	0.0002383	64.7180001736
1180.0	0.0002383	64.7650001049
1180.0	0.0002383	64.7970001698
1190.0	0.00024	65.0780000687
1190.0	0.0002403	65.109000206
1190.0	0.0002413	65.1560001373
1190.0	0.0002415	65.1870000362
1190.0	0.0002418	65.234000206
1190.0	0.0002428	65.2810001373
1190.0	0.000243	65.3120000362
1190.0	0.0002438	65.359000206
1190.0	0.000244	65.4060001373
1190.0	0.000244	65.4370000362
1190.0	0.0002443	65.484000206
1190.0	0.0002443	65.5150001049
1190.0	0.0002443	65.5620000362
1190.0	0.000245	65.609000206
1190.0	0.000245	65.6400001049
1190.0	0.0002445	65.6870000362
1190.0	0.0002445	65.734000206
1190.0	0.0002443	65.7650001049
1190.0	0.000244	65.8120000362
1190.0	0.0002438	65.8430001736
1190.0	0.0002438	65.8900001049
1190.0	0.0002438	65.9370000362
1190.0	0.0002438	65.9680001736
1190.0	0.0002438	66.0150001049
1190.0	0.0002438	66.0620000362
1190.0	0.000244	66.0930001736
1190.0	0.0002443	66.1400001049
1190.0	0.0002445	66.1870000362
1190.0	0.0002445	66.2180001736
1190.0	0.0002445	66.2650001049
1190.0	0.0002445	66.2970001698
1190.0	0.0002445	66.3430001736
1190.0	0.0002445	66.3900001049
1190.0	0.0002445	66.4220001698
1190.0	0.0002443	66.4680001736
1190.0	0.0002443	66.5150001049
1190.0	0.0002443	66.5470001698
1200.0	0.0002455	66.8280000687
1200.0	0.0002465	66.859000206
1200.0	0.0002468	66.9060001373
1200.0	0.000247	66.9530000687
1200.0	0.0002475	66.984000206
1200.0	0.0002478	67.0310001373
1200.0	0.0002478	67.0780000687
1200.0	0.000248	67.109000206
1200.0	0.0002483	67.1560001373
1200.0	0.0002483	67.1870000362
1200.0	0.0002483	67.234000206
1200.0	0.0002483	67.2810001373
1200.0	0.0002483	67.3120000362
1200.0	0.0002483	67.359000206
1200.0	0.0002488	67.4060001373
1200.0	0.0002488	67.4370000362
1200.0	0.0002488	67.484000206
1200.0	0.000249	67.5150001049
1200.0	0.000249	67.5620000362
1200.0	0.000249	67.609000206
1200.0	0.000249	67.6400001049
1200.0	0.0002493	67.6870000362
1200.0	0.0002493	67.734000206
1200.0	0.0002493	67.7650001049
1200.0	0.000249	67.8120000362
1200.0	0.000249	67.8430001736
1200.0	0.0002493	67.8900001049
1200.0	0.0002493	67.9370000362
1200.0	0.0002493	67.9680001736
1200.0	0.0002493	68.0150001049
1200.0	0.0002493	68.0620000362
1200.0	0.0002495	68.0930001736
1200.0	0.0002493	68.1400001049
1200.0	0.000249	68.1870000362
1200.0	0.0002488	68.2180001736
1200.0	0.0002488	68.2650001049
1200.0	0.000249	68.2970001698
1210.0	0.0002515	68.5780000687
1210.0	0.000252	68.609000206
1210.0	0.0002525	68.6560001373
1210.0	0.000253	68.7030000687
1210.0	0.0002538	68.734000206
1210.0	0.0002543	68.7810001373
1210.0	0.0002545	68.8280000687
1210.0	0.000255	68.859000206
1210.0	0.0002553	68.9060001373
1210.0	0.0002555	68.9370000362
1210.0	0.0002555	68.984000206
1210.0	0.0002553	69.0310001373
1210.0	0.0002553	69.0620000362
1210.0	0.0002555	69.109000206
1210.0	0.0002555	69.1560001373
1210.0	0.0002555	69.1870000362
1210.0	0.0002555	69.234000206
1210.0	0.0002558	69.2650001049
1210.0	0.0002558	69.3120000362
1210.0	0.0002563	69.359000206
1210.0	0.0002563	69.3900001049
1210.0	0.0002565	69.4370000362
1210.0	0.0002563	69.484000206
1210.0	0.0002563	69.5150001049
1210.0	0.0002563	69.5620000362
1210.0	0.0002565	69.5930001736
1210.0	0.000257	69.6400001049
1210.0	0.000257	69.6870000362
1210.0	0.0002575	69.7180001736
1210.0	0.0002575	69.7650001049
1210.0	0.000257	69.8120000362
1210.0	0.0002568	69.8430001736
1210.0	0.000257	69.8900001049
1210.0	0.000257	69.9370000362
1210.0	0.000257	69.9680001736
1210.0	0.000257	70.0150001049
1210.0	0.000257	70.0470001698
1220.0	0.000259	70.3120000362
1220.0	0.00026	70.359000206
1220.0	0.0002605	70.4060001373
1220.0	0.0002615	70.4370000362
1220.0	0.000262	70.484000206
1220.0	0.000262	70.5310001373
1220.0	0.0002618	70.5620000362
1220.0	0.0002618	70.609000206
1220.0	0.000262	70.6400001049
1220.0	0.0002625	70.6870000362
1220.0	0.0002625	70.734000206
1220.0	0.0002625	70.7650001049
1220.0	0.0002628	70.8120000362
1220.0	0.000263	70.859000206
1220.0	0.000263	70.8900001049
1220.0	0.000263	70.9370000362
1220.0	0.0002628	70.984000206
1220.0	0.000263	71.0150001049
1220.0	0.000263	71.0620000362
1220.0	0.0002633	71.0930001736
1220.0	0.0002633	71.1400001049
1220.0	0.0002633	71.1870000362
1220.0	0.0002633	71.2180001736
1220.0	0.0002638	71.2650001049
1220.0	0.0002633	71.3120000362
1220.0	0.0002633	71.3430001736
1220.0	0.0002638	71.3900001049
1220.0	0.0002633	71.4220001698
1220.0	0.0002633	71.4680001736
1220.0	0.000263	71.5150001049
1220.0	0.000263	71.5470001698
1220.0	0.000263	71.5930001736
1220.0	0.0002628	71.6400001049
1220.0	0.0002625	71.6720001698
1220.0	0.0002625	71.7180001736
1220.0	0.0002625	71.7650001049
1220.0	0.0002625	71.7970001698
1230.0	0.0002645	72.0620000362
1230.0	0.0002653	72.109000206
1230.0	0.0002658	72.1560001373
1230.0	0.0002668	72.1870000362
1230.0	0.000267	72.234000206
1230.0	0.0002678	72.2810001373
1230.0	0.000268	72.3120000362
1230.0	0.0002683	72.359000206
1230.0	0.0002683	72.3900001049
1230.0	0.0002683	72.4370000362
1230.0	0.0002683	72.484000206
1230.0	0.0002678	72.5150001049
1230.0	0.0002678	72.5620000362
1230.0	0.0002678	72.609000206
1230.0	0.000268	72.6400001049
1230.0	0.000268	72.6870000362
1230.0	0.000268	72.734000206
1230.0	0.000268	72.7650001049
1230.0	0.000268	72.8120000362
1230.0	0.0002678	72.8430001736
1230.0	0.0002678	72.8900001049
1230.0	0.0002675	72.9370000362
1230.0	0.0002675	72.9680001736
1230.0	0.000267	73.0150001049
1230.0	0.0002668	73.0620000362
1230.0	0.000267	73.0930001736
1230.0	0.0002675	73.1400001049
1230.0	0.0002678	73.1720001698
1230.0	0.0002678	73.2180001736
1230.0	0.0002678	73.2650001049
1230.0	0.0002678	73.2970001698
1230.0	0.0002678	73.3430001736
1230.0	0.0002678	73.3900001049
1230.0	0.0002678	73.4220001698
1230.0	0.0002678	73.4680001736
1230.0	0.000268	73.5
1230.0	0.0002688	73.5470001698
1240.0	0.0002688	73.8120000362
1240.0	0.0002695	73.859000206
1240.0	0.0002703	73.8900001049
1240.0	0.0002708	73.9370000362
1240.0	0.0002715	73.984000206
1240.0	0.000272	74.0150001049
1240.0	0.0002728	74.0620000362
1240.0	0.000273	74.109000206
1240.0	0.0002738	74.1400001049
1240.0	0.0002738	74.1870000362
1240.0	0.0002738	74.2180001736
1240.0	0.000274	74.2650001049
1240.0	0.0002743	74.3120000362
1240.0	0.000274	74.3430001736
1240.0	0.000274	74.3900001049
1240.0	0.000274	74.4370000362
1240.0	0.000274	74.4680001736
1240.0	0.000274	74.5150001049
1240.0	0.000274	74.5620000362
1240.0	0.000274	74.5930001736
1240.0	0.000274	74.6400001049
1240.0	0.000274	74.6720001698
1240.0	0.000274	74.7180001736
1240.0	0.000274	74.7650001049
1240.0	0.000274	74.7970001698
1240.0	0.0002738	74.8430001736
1240.0	0.000274	74.8900001049
1240.0	0.000274	74.9220001698
1240.0	0.000274	74.9680001736
1240.0	0.0002738	75.0
1240.0	0.0002738	75.0470001698
1240.0	0.0002738	75.0930001736
1240.0	0.000274	75.125
1240.0	0.000274	75.1720001698
1240.0	0.000274	75.2180001736
1240.0	0.000274	75.25
1240.0	0.0002738	75.2970001698
1250.0	0.0002755	75.5620000362
1250.0	0.0002765	75.5930001736
1250.0	0.0002765	75.6400001049
1250.0	0.000277	75.6870000362
1250.0	0.0002775	75.7180001736
1250.0	0.0002778	75.7650001049
1250.0	0.000278	75.8120000362
1250.0	0.0002783	75.8430001736
1250.0	0.0002788	75.8900001049
1250.0	0.000279	75.9370000362
1250.0	0.000279	75.9680001736
1250.0	0.0002793	76.0150001049
1250.0	0.0002795	76.0470001698
1250.0	0.0002795	76.0930001736
1250.0	0.00028	76.1400001049
1250.0	0.00028	76.1720001698
1250.0	0.00028	76.2180001736
1250.0	0.0002803	76.2650001049
1250.0	0.0002805	76.2970001698
1250.0	0.0002805	76.3430001736
1250.0	0.0002805	76.375
1250.0	0.0002805	76.4220001698
1250.0	0.0002805	76.4680001736
1250.0	0.0002803	76.5
1250.0	0.00028	76.5470001698
1250.0	0.00028	76.5930001736
1250.0	0.00028	76.625
1250.0	0.0002803	76.6720001698
1250.0	0.0002805	76.7180001736
1250.0	0.0002805	76.75
1250.0	0.00028	76.7970001698
1250.0	0.00028	76.8280000687
1250.0	0.00028	76.875
1250.0	0.0002793	76.9220001698
1250.0	0.000279	76.9680001736
1250.0	0.000279	77.0
1250.0	0.0002793	77.0470001698
1260.0	0.0002825	77.3120000362
1260.0	0.000283	77.359000206
1260.0	0.0002833	77.3900001049
1260.0	0.0002838	77.4370000362
1260.0	0.0002838	77.484000206
1260.0	0.0002838	77.5150001049
1260.0	0.0002838	77.5620000362
1260.0	0.0002843	77.609000206
1260.0	0.0002845	77.6400001049
1260.0	0.0002853	77.6870000362
1260.0	0.0002858	77.7180001736
1260.0	0.0002863	77.7650001049
1260.0	0.0002865	77.8120000362
1260.0	0.0002865	77.8430001736
1260.0	0.0002863	77.8900001049
1260.0	0.0002863	77.9370000362
1260.0	0.0002863	77.9680001736
1260.0	0.0002858	78.0150001049
1260.0	0.0002858	78.0470001698
1260.0	0.0002858	78.0930001736
1260.0	0.0002858	78.1400001049
1260.0	0.0002863	78.1720001698
1260.0	0.0002858	78.2180001736
1260.0	0.0002855	78.2650001049
1260.0	0.0002855	78.2970001698
1260.0	0.0002853	78.3430001736
1260.0	0.0002853	78.375
1260.0	0.0002853	78.4220001698
1260.0	0.0002853	78.4680001736
1260.0	0.000285	78.5
1260.0	0.0002845	78.5470001698
1260.0	0.0002845	78.5930001736
1260.0	0.000285	78.625
1260.0	0.0002845	78.6720001698
1260.0	0.0002845	78.7180001736
1260.0	0.0002843	78.75
1260.0	0.0002843	78.7970001698
1270.0	0.0002863	79.0620000362
1270.0	0.0002868	79.0930001736
1270.0	0.0002868	79.1400001049
1270.0	0.000287	79.1870000362
1270.0	0.000287	79.2180001736
1270.0	0.0002868	79.2650001049
1270.0	0.0002868	79.3120000362
1270.0	0.0002865	79.3430001736
1270.0	0.0002865	79.3900001049
1270.0	0.000287	79.4370000362
1270.0	0.000287	79.4680001736
1270.0	0.000287	79.5150001049
1270.0	0.000287	79.5470001698
1270.0	0.0002875	79.5930001736
1270.0	0.0002875	79.6400001049
1270.0	0.0002875	79.6720001698
1270.0	0.0002878	79.7180001736
1270.0	0.000288	79.7650001049
1270.0	0.000288	79.7970001698
1270.0	0.0002878	79.8430001736
1270.0	0.0002878	79.8900001049
1270.0	0.0002878	79.9220001698
1270.0	0.0002875	79.9680001736
1270.0	0.000287	80.0150001049
1270.0	0.000287	80.0470001698
1270.0	0.0002875	80.0930001736
1270.0	0.0002875	80.125
1270.0	0.0002875	80.1720001698
1270.0	0.0002875	80.2180001736
1270.0	0.0002878	80.25
1270.0	0.000288	80.2970001698
1270.0	0.0002883	80.3430001736
1270.0	0.0002888	80.375
1270.0	0.0002888	80.4220001698
1270.0	0.0002888	80.4530000687
1270.0	0.0002888	80.5
1270.0	0.0002883	80.5470001698
1280.0	0.0002903	80.8120000362
1280.0	0.0002905	80.8430001736
1280.0	0.0002913	80.8900001049
1280.0	0.0002913	80.9370000362
1280.0	0.0002913	80.984000206
1280.0	0.0002915	81.0150001049
1280.0	0.0002918	81.0620000362
1280.0	0.0002918	81.0930001736
1280.0	0.000292	81.1400001049
1280.0	0.0002925	81.1870000362
1280.0	0.0002925	81.2180001736
1280.0	0.0002925	81.2650001049
1280.0	0.000292	81.3120000362
1280.0	0.0002925	81.3430001736
1280.0	0.0002925	81.3900001049
1280.0	0.0002928	81.4370000362
1280.0	0.0002925	81.4680001736
1280.0	0.0002925	81.5150001049
1280.0	0.0002925	81.5470001698
1280.0	0.000293	81.5930001736
1280.0	0.0002933	81.6400001049
1280.0	0.0002938	81.6720001698
1280.0	0.0002938	81.7180001736
1280.0	0.0002943	81.7650001049
1280.0	0.0002943	81.7970001698
1280.0	0.000294	81.8430001736
1280.0	0.000294	81.875
1280.0	0.0002938	81.9220001698
1280.0	0.000293	81.9680001736
1280.0	0.000293	82.0
1280.0	0.000293	82.0470001698
1280.0	0.000293	82.0930001736
1280.0	0.000293	82.125
1280.0	0.000293	82.1720001698
1280.0	0.000293	82.2030000687
1280.0	0.000293	82.25
1280.0	0.0002933	82.2970001698
1290.0	0.0002945	82.5620000362
1290.0	0.0002945	82.5930001736
1290.0	0.0002945	82.6400001049
1290.0	0.000295	82.6870000362
1290.0	0.0002953	82.7180001736
1290.0	0.0002953	82.7650001049
1290.0	0.000295	82.8120000362
1290.0	0.000295	82.8430001736
1290.0	0.000295	82.8900001049
1290.0	0.0002955	82.9220001698
1290.0	0.0002955	82.9680001736
1290.0	0.0002955	83.0150001049
1290.0	0.0002955	83.0470001698
1290.0	0.0002955	83.0930001736
1290.0	0.0002955	83.1400001049
1290.0	0.0002955	83.1720001698
1290.0	0.0002953	83.2180001736
1290.0	0.0002953	83.2650001049
1290.0	0.000295	83.2970001698
1290.0	0.0002945	83.3430001736
1290.0	0.0002945	83.3900001049
1290.0	0.0002945	83.4220001698
1290.0	0.0002945	83.4680001736
1290.0	0.000295	83.5150001049
1290.0	0.0002953	83.5470001698
1290.0	0.0002958	83.5930001736
1290.0	0.0002958	83.625
1290.0	0.0002963	83.6720001698
1290.0	0.0002963	83.7180001736
1290.0	0.0002963	83.75
1290.0	0.0002963	83.7970001698
1290.0	0.0002963	83.8430001736
1290.0	0.0002963	83.875
1290.0	0.0002958	83.9220001698
1290.0	0.0002958	83.9530000687
1290.0	0.0002953	84.0
1290.0	0.0002953	84.0470001698
1300.0	0.0002953	84.3120000362
1300.0	0.0002953	84.3430001736
1300.0	0.0002955	84.3900001049
1300.0	0.0002955	84.4370000362
1300.0	0.0002953	84.4680001736
1300.0	0.0002953	84.5150001049
1300.0	0.000295	84.5620000362
1300.0	0.000295	84.5930001736
1300.0	0.000295	84.6400001049
1300.0	0.0002953	84.6720001698
1300.0	0.0002955	84.7180001736
1300.0	0.0002953	84.7650001049
1300.0	0.0002955	84.7970001698
1300.0	0.0002953	84.8430001736
1300.0	0.0002953	84.8900001049
1300.0	0.0002955	84.9370000362
1300.0	0.0002955	84.9680001736
1300.0	0.0002953	85.0150001049
1300.0	0.0002955	85.0470001698
1300.0	0.0002955	85.0930001736
1300.0	0.0002955	85.1400001049
1300.0	0.0002955	85.1720001698
1300.0	0.0002955	85.2180001736
1300.0	0.0002963	85.2650001049
1300.0	0.0002965	85.2970001698
1300.0	0.0002965	85.3430001736
1300.0	0.0002963	85.375
1300.0	0.0002963	85.4220001698
1300.0	0.0002958	85.4680001736
1300.0	0.0002958	85.5
1300.0	0.0002963	85.5470001698
1300.0	0.0002965	85.5930001736
1300.0	0.0002968	85.625
1300.0	0.000297	85.6720001698
1300.0	0.0002968	85.7180001736
1300.0	0.0002968	85.75
1300.0	0.0002968	85.7970001698
1310.0	0.0002965	86.0620000362
1310.0	0.0002963	86.109000206
1310.0	0.0002963	86.1560001373
1310.0	0.0002963	86.1870000362
1310.0	0.0002963	86.234000206
1310.0	0.0002965	86.2650001049
1310.0	0.0002968	86.3120000362
1310.0	0.0002965	86.359000206
1310.0	0.0002963	86.3900001049
1310.0	0.0002965	86.4370000362
1310.0	0.0002968	86.484000206
1310.0	0.0002968	86.5150001049
1310.0	0.0002968	86.5620000362
1310.0	0.0002965	86.5930001736
1310.0	0.0002963	86.6400001049
1310.0	0.0002963	86.6870000362
1310.0	0.0002963	86.7180001736
1310.0	0.0002963	86.7650001049
1310.0	0.0002963	86.8120000362
1310.0	0.0002965	86.8430001736
1310.0	0.0002968	86.8900001049
1310.0	0.0002968	86.9370000362
1310.0	0.0002968	86.9680001736
1310.0	0.0002968	87.0150001049
1310.0	0.000297	87.0470001698
1310.0	0.0002975	87.0930001736
1310.0	0.0002975	87.1400001049
1310.0	0.0002975	87.1720001698
1310.0	0.000297	87.2180001736
1310.0	0.0002965	87.2650001049
1310.0	0.0002963	87.2970001698
1310.0	0.0002958	87.3430001736
1310.0	0.0002955	87.375
1310.0	0.0002955	87.4220001698
1310.0	0.0002955	87.4680001736
1310.0	0.0002953	87.5
1310.0	0.0002953	87.5470001698
1320.0	0.0002943	87.8120000362
1320.0	0.0002938	87.859000206
1320.0	0.0002933	87.9060001373
1320.0	0.000293	87.9370000362
1320.0	0.0002928	87.984000206
1320.0	0.0002925	88.0150001049
1320.0	0.000292	88.0620000362
1320.0	0.0002918	88.109000206
1320.0	0.0002915	88.1400001049
1320.0	0.0002918	88.1870000362
1320.0	0.000292	88.234000206
1320.0	0.000292	88.2650001049
1320.0	0.0002925	88.3120000362
1320.0	0.0002925	88.3430001736
1320.0	0.0002925	88.3900001049
1320.0	0.0002925	88.4370000362
1320.0	0.0002928	88.4680001736
1320.0	0.0002928	88.5150001049
1320.0	0.0002925	88.5620000362
1320.0	0.0002925	88.5930001736
1320.0	0.000292	88.6400001049
1320.0	0.0002918	88.6870000362
1320.0	0.000292	88.734000206
1320.0	0.0002925	88.7650001049
1320.0	0.0002928	88.8120000362
1320.0	0.000293	88.859000206
1320.0	0.0002933	88.8900001049
1320.0	0.0002933	88.9370000362
1320.0	0.000293	88.9680001736
1320.0	0.000293	89.0150001049
1320.0	0.0002933	89.0620000362
1320.0	0.0002933	89.0930001736
1320.0	0.000293	89.1400001049
1320.0	0.000293	89.1870000362
1320.0	0.000293	89.2180001736
1320.0	0.0002933	89.2650001049
1320.0	0.0002933	89.3120000362
1330.0	0.0002925	89.5780000687
1330.0	0.0002918	89.625
1330.0	0.0002905	89.6560001373
1330.0	0.00029	89.7030000687
1330.0	0.0002895	89.75
1330.0	0.0002893	89.7810001373
1330.0	0.000289	89.8280000687
1330.0	0.0002888	89.859000206
1330.0	0.0002888	89.9060001373
1330.0	0.0002888	89.9530000687
1330.0	0.0002883	90.0
1330.0	0.000288	90.0310001373
1330.0	0.000288	90.0780000687
1330.0	0.0002883	90.109000206
1330.0	0.0002883	90.1560001373
1330.0	0.0002883	90.2030000687
1330.0	0.0002888	90.234000206
1330.0	0.0002888	90.2810001373
1330.0	0.0002888	90.3280000687
1330.0	0.0002888	90.359000206
1330.0	0.0002888	90.4060001373
1330.0	0.0002883	90.4530000687
1330.0	0.0002883	90.484000206
1330.0	0.000288	90.5310001373
1330.0	0.000288	90.5620000362
1330.0	0.0002875	90.609000206
1330.0	0.0002875	90.6560001373
1330.0	0.0002875	90.6870000362
1330.0	0.0002875	90.734000206
1330.0	0.0002875	90.7810001373
1330.0	0.000287	90.8120000362
1330.0	0.000287	90.859000206
1330.0	0.0002875	90.8900001049
1330.0	0.0002875	90.9370000362
1330.0	0.0002875	90.984000206
1330.0	0.0002875	91.0150001049
1330.0	0.000287	91.0620000362
1340.0	0.000283	91.3430001736
1340.0	0.000282	91.375
1340.0	0.0002808	91.4220001698
1340.0	0.0002803	91.4530000687
1340.0	0.0002793	91.5
1340.0	0.0002788	91.5470001698
1340.0	0.0002788	91.5780000687
1340.0	0.0002788	91.625
1340.0	0.0002783	91.6720001698
1340.0	0.000278	91.7030000687
1340.0	0.0002778	91.75
1340.0	0.0002778	91.7810001373
1340.0	0.0002778	91.8280000687
1340.0	0.0002775	91.875
1340.0	0.0002775	91.9060001373
1340.0	0.0002778	91.9530000687
1340.0	0.0002778	92.0
1340.0	0.0002778	92.0310001373
1340.0	0.0002778	92.0780000687
1340.0	0.000278	92.109000206
1340.0	0.000278	92.1560001373
1340.0	0.0002783	92.2030000687
1340.0	0.000278	92.234000206
1340.0	0.000278	92.2810001373
1340.0	0.0002783	92.3280000687
1340.0	0.0002783	92.359000206
1340.0	0.0002783	92.4060001373
1340.0	0.0002783	92.4530000687
1340.0	0.0002788	92.484000206
1340.0	0.0002788	92.5310001373
1340.0	0.0002788	92.5620000362
1340.0	0.0002788	92.609000206
1340.0	0.000279	92.6560001373
1340.0	0.0002793	92.6870000362
1340.0	0.0002795	92.734000206
1340.0	0.0002795	92.7810001373
1340.0	0.0002795	92.8120000362
1350.0	0.0002755	93.0930001736
1350.0	0.0002738	93.125
1350.0	0.000272	93.1720001698
1350.0	0.0002713	93.2180001736
1350.0	0.0002705	93.25
1350.0	0.0002703	93.2970001698
1350.0	0.00027	93.3430001736
1350.0	0.0002693	93.375
1350.0	0.0002693	93.4220001698
1350.0	0.0002693	93.4530000687
1350.0	0.000269	93.5
1350.0	0.000269	93.5470001698
1350.0	0.0002693	93.5780000687
1350.0	0.000269	93.625
1350.0	0.000269	93.6720001698
1350.0	0.0002688	93.7030000687
1350.0	0.0002688	93.75
1350.0	0.0002688	93.7810001373
1350.0	0.0002688	93.8280000687
1350.0	0.0002688	93.875
1350.0	0.0002688	93.9060001373
1350.0	0.0002688	93.9530000687
1350.0	0.0002688	94.0
1350.0	0.0002688	94.0310001373
1350.0	0.0002688	94.0780000687
1350.0	0.0002688	94.109000206
1350.0	0.000268	94.1560001373
1350.0	0.000268	94.2030000687
1350.0	0.000268	94.234000206
1350.0	0.000268	94.2810001373
1350.0	0.0002678	94.3280000687
1350.0	0.0002675	94.359000206
1350.0	0.0002678	94.4060001373
1350.0	0.0002675	94.4370000362
1350.0	0.0002675	94.484000206
1350.0	0.0002675	94.5310001373
1350.0	0.0002675	94.5620000362
1360.0	0.0002633	94.8430001736
1360.0	0.0002618	94.875
1360.0	0.0002608	94.9220001698
1360.0	0.00026	94.9530000687
1360.0	0.000259	95.0
1360.0	0.0002588	95.0470001698
1360.0	0.0002583	95.0780000687
1360.0	0.0002583	95.125
1360.0	0.0002583	95.1720001698
1360.0	0.0002588	95.2030000687
1360.0	0.0002588	95.25
1360.0	0.0002593	95.2970001698
1360.0	0.0002593	95.3280000687
1360.0	0.0002595	95.375
1360.0	0.0002593	95.4220001698
1360.0	0.000259	95.4530000687
1360.0	0.000259	95.5
1360.0	0.0002593	95.5310001373
1360.0	0.000259	95.5780000687
1360.0	0.0002593	95.625
1360.0	0.0002593	95.6560001373
1360.0	0.0002593	95.7030000687
1360.0	0.0002593	95.75
1360.0	0.0002593	95.7810001373
1360.0	0.0002593	95.8280000687
1360.0	0.000259	95.859000206
1360.0	0.000259	95.9060001373
1360.0	0.0002588	95.9530000687
1360.0	0.0002588	95.984000206
1360.0	0.000258	96.0310001373
1360.0	0.000258	96.0780000687
1360.0	0.0002583	96.109000206
1360.0	0.0002588	96.1560001373
1360.0	0.0002588	96.1870000362
1360.0	0.000259	96.234000206
1360.0	0.000259	96.2810001373
1360.0	0.000259	96.3120000362
1370.0	0.0002553	96.5780000687
1370.0	0.0002538	96.625
1370.0	0.0002525	96.6720001698
1370.0	0.0002513	96.7030000687
1370.0	0.0002503	96.75
1370.0	0.0002495	96.7970001698
1370.0	0.0002493	96.8280000687
1370.0	0.000249	96.875
1370.0	0.0002488	96.9060001373
1370.0	0.0002488	96.9530000687
1370.0	0.0002483	97.0
1370.0	0.000248	97.0310001373
1370.0	0.000248	97.0780000687
1370.0	0.0002478	97.125
1370.0	0.0002475	97.1560001373
1370.0	0.0002475	97.2030000687
1370.0	0.0002475	97.25
1370.0	0.000247	97.2810001373
1370.0	0.000247	97.3280000687
1370.0	0.0002475	97.359000206
1370.0	0.0002478	97.4060001373
1370.0	0.0002478	97.4530000687
1370.0	0.0002478	97.484000206
1370.0	0.0002478	97.5310001373
1370.0	0.0002475	97.5780000687
1370.0	0.0002475	97.609000206
1370.0	0.0002475	97.6560001373
1370.0	0.000247	97.6870000362
1370.0	0.000247	97.734000206
1370.0	0.0002468	97.7810001373
1370.0	0.0002468	97.8120000362
1370.0	0.0002468	97.859000206
1370.0	0.000247	97.9060001373
1370.0	0.0002475	97.9370000362
1370.0	0.0002475	97.984000206
1370.0	0.0002475	98.0310001373
1370.0	0.000247	98.0620000362
1380.0	0.0002438	98.3430001736
1380.0	0.0002425	98.375
1380.0	0.0002415	98.4220001698
1380.0	0.0002408	98.4530000687
1380.0	0.00024	98.5
1380.0	0.0002395	98.5470001698
1380.0	0.0002395	98.5780000687
1380.0	0.0002395	98.625
1380.0	0.0002393	98.6560001373
1380.0	0.000239	98.7030000687
1380.0	0.000239	98.75
1380.0	0.000239	98.7810001373
1380.0	0.000239	98.8280000687
1380.0	0.000239	98.875
1380.0	0.000239	98.9060001373
1380.0	0.000239	98.9530000687
1380.0	0.000239	99.0
1380.0	0.0002393	99.0310001373
1380.0	0.0002393	99.0780000687
1380.0	0.0002393	99.109000206
1380.0	0.0002395	99.1560001373
1380.0	0.00024	99.2030000687
1380.0	0.00024	99.234000206
1380.0	0.00024	99.2810001373
1380.0	0.0002393	99.3280000687
1380.0	0.000239	99.359000206
1380.0	0.000239	99.4060001373
1380.0	0.000239	99.4370000362
1380.0	0.000239	99.484000206
1380.0	0.0002393	99.5310001373
1380.0	0.0002393	99.5620000362
1380.0	0.0002393	99.609000206
1380.0	0.000239	99.6560001373
1380.0	0.0002388	99.6870000362
1380.0	0.0002388	99.734000206
1380.0	0.0002388	99.7650001049
1380.0	0.0002388	99.8120000362
1390.0	0.000235	100.078000069
1390.0	0.0002338	100.125
1390.0	0.000233	100.156000137
1390.0	0.0002325	100.203000069
1390.0	0.0002318	100.25
1390.0	0.0002318	100.281000137
1390.0	0.0002315	100.328000069
1390.0	0.0002313	100.375
1390.0	0.0002313	100.406000137
1390.0	0.0002308	100.453000069
1390.0	0.0002305	100.484000206
1390.0	0.0002303	100.531000137
1390.0	0.0002303	100.578000069
1390.0	0.00023	100.609000206
1390.0	0.0002295	100.656000137
1390.0	0.0002295	100.703000069
1390.0	0.00023	100.734000206
1390.0	0.0002295	100.781000137
1390.0	0.0002293	100.812000036
1390.0	0.0002293	100.859000206
1390.0	0.000229	100.906000137
1390.0	0.000229	100.937000036
1390.0	0.0002288	100.984000206
1390.0	0.0002288	101.031000137
1390.0	0.0002288	101.062000036
1390.0	0.0002288	101.109000206
1390.0	0.0002288	101.156000137
1390.0	0.000229	101.187000036
1390.0	0.0002293	101.234000206
1390.0	0.0002293	101.265000105
1390.0	0.0002293	101.312000036
1390.0	0.0002295	101.359000206
1390.0	0.00023	101.390000105
1390.0	0.00023	101.437000036
1390.0	0.00023	101.484000206
1390.0	0.0002295	101.515000105
1390.0	0.0002293	101.562000036
1400.0	0.0002268	101.828000069
1400.0	0.0002265	101.875
1400.0	0.0002258	101.906000137
1400.0	0.0002253	101.953000069
1400.0	0.000225	101.984000206
1400.0	0.0002243	102.031000137
1400.0	0.0002243	102.078000069
1400.0	0.000224	102.109000206
1400.0	0.0002243	102.156000137
1400.0	0.000224	102.203000069
1400.0	0.000224	102.234000206
1400.0	0.0002243	102.281000137
1400.0	0.0002243	102.312000036
1400.0	0.0002243	102.359000206
1400.0	0.0002243	102.406000137
1400.0	0.0002245	102.437000036
1400.0	0.000225	102.484000206
1400.0	0.000225	102.531000137
1400.0	0.000225	102.562000036
1400.0	0.0002253	102.609000206
1400.0	0.0002255	102.640000105
1400.0	0.0002258	102.687000036
1400.0	0.0002258	102.734000206
1400.0	0.0002255	102.765000105
1400.0	0.000225	102.812000036
1400.0	0.000225	102.859000206
1400.0	0.0002245	102.890000105
1400.0	0.0002245	102.937000036
1400.0	0.0002245	102.984000206
1400.0	0.000225	103.015000105
1400.0	0.000225	103.062000036
1400.0	0.0002245	103.093000174
1400.0	0.000225	103.140000105
1400.0	0.000225	103.187000036
1400.0	0.0002253	103.218000174
1400.0	0.0002255	103.265000105
1400.0	0.0002255	103.312000036
1410.0	0.0002238	103.578000069
1410.0	0.000223	103.609000206
1410.0	0.0002228	103.656000137
1410.0	0.0002225	103.687000036
1410.0	0.0002225	103.734000206
1410.0	0.0002228	103.781000137
1410.0	0.0002228	103.812000036
1410.0	0.000223	103.859000206
1410.0	0.0002228	103.906000137
1410.0	0.0002228	103.937000036
1410.0	0.0002225	103.984000206
1410.0	0.0002225	104.031000137
1410.0	0.0002228	104.062000036
1410.0	0.0002225	104.109000206
1410.0	0.0002218	104.140000105
1410.0	0.0002213	104.187000036
1410.0	0.0002213	104.234000206
1410.0	0.0002213	104.265000105
1410.0	0.0002215	104.312000036
1410.0	0.0002215	104.359000206
1410.0	0.0002215	104.390000105
1410.0	0.0002215	104.437000036
1410.0	0.0002215	104.468000174
1410.0	0.0002213	104.515000105
1410.0	0.0002205	104.562000036
1410.0	0.0002205	104.593000174
1410.0	0.0002205	104.640000105
1410.0	0.0002205	104.687000036
1410.0	0.0002205	104.718000174
1410.0	0.0002205	104.765000105
1410.0	0.0002205	104.79700017
1410.0	0.0002208	104.843000174
1410.0	0.0002213	104.890000105
1410.0	0.0002213	104.937000036
1410.0	0.0002215	104.968000174
1410.0	0.0002213	105.015000105
1410.0	0.0002208	105.04700017
1420.0	0.00022	105.328000069
1420.0	0.00022	105.359000206
1420.0	0.00022	105.406000137
1420.0	0.00022	105.437000036
1420.0	0.00022	105.484000206
1420.0	0.0002195	105.531000137
1420.0	0.0002195	105.562000036
1420.0	0.00022	105.609000206
1420.0	0.00022	105.656000137
1420.0	0.00022	105.687000036
1420.0	0.00022	105.734000206
1420.0	0.00022	105.765000105
1420.0	0.00022	105.812000036
1420.0	0.00022	105.859000206
1420.0	0.0002205	105.890000105
1420.0	0.0002208	105.937000036
1420.0	0.0002208	105.984000206
1420.0	0.0002205	106.015000105
1420.0	0.0002205	106.062000036
1420.0	0.0002205	106.109000206
1420.0	0.0002205	106.140000105
1420.0	0.0002203	106.187000036
1420.0	0.00022	106.234000206
1420.0	0.00022	106.265000105
1420.0	0.00022	106.312000036
1420.0	0.0002203	106.359000206
1420.0	0.0002203	106.390000105
1420.0	0.0002205	106.437000036
1420.0	0.0002205	106.484000206
1420.0	0.0002208	106.515000105
1420.0	0.0002213	106.562000036
1420.0	0.0002215	106.609000206
1420.0	0.0002215	106.640000105
1420.0	0.0002215	106.687000036
1420.0	0.0002213	106.734000206
1420.0	0.0002208	106.765000105
1420.0	0.0002208	106.812000036
1430.0	0.0002228	107.078000069
1430.0	0.000223	107.109000206
1430.0	0.0002233	107.156000137
1430.0	0.000223	107.203000069
1430.0	0.000223	107.234000206
1430.0	0.0002233	107.281000137
1430.0	0.0002238	107.328000069
1430.0	0.000224	107.359000206
1430.0	0.000224	107.406000137
1430.0	0.000224	107.437000036
1430.0	0.000224	107.484000206
1430.0	0.000224	107.531000137
1430.0	0.000224	107.562000036
1430.0	0.0002243	107.609000206
1430.0	0.000224	107.656000137
1430.0	0.0002238	107.687000036
1430.0	0.0002238	107.734000206
1430.0	0.0002238	107.781000137
1430.0	0.0002238	107.812000036
1430.0	0.0002238	107.859000206
1430.0	0.0002233	107.890000105
1430.0	0.0002238	107.937000036
1430.0	0.0002238	107.984000206
1430.0	0.0002238	108.015000105
1430.0	0.000224	108.062000036
1430.0	0.0002238	108.109000206
1430.0	0.0002238	108.140000105
1430.0	0.0002238	108.187000036
1430.0	0.0002238	108.218000174
1430.0	0.0002233	108.265000105
1430.0	0.0002233	108.312000036
1430.0	0.0002238	108.343000174
1430.0	0.000223	108.390000105
1430.0	0.000223	108.437000036
1430.0	0.0002233	108.468000174
1430.0	0.0002233	108.515000105
1430.0	0.0002238	108.54700017
1440.0	0.0002258	108.828000069
1440.0	0.0002263	108.859000206
1440.0	0.0002265	108.906000137
1440.0	0.0002268	108.937000036
1440.0	0.000227	108.984000206
1440.0	0.000227	109.031000137
1440.0	0.0002275	109.062000036
1440.0	0.000228	109.109000206
1440.0	0.000228	109.156000137
1440.0	0.0002278	109.187000036
1440.0	0.0002278	109.234000206
1440.0	0.000227	109.265000105
1440.0	0.0002268	109.312000036
1440.0	0.0002268	109.359000206
1440.0	0.0002268	109.390000105
1440.0	0.0002265	109.437000036
1440.0	0.0002268	109.484000206
1440.0	0.0002275	109.515000105
1440.0	0.0002275	109.562000036
1440.0	0.0002275	109.593000174
1440.0	0.0002278	109.640000105
1440.0	0.0002275	109.687000036
1440.0	0.0002275	109.718000174
1440.0	0.0002275	109.765000105
1440.0	0.0002275	109.812000036
1440.0	0.0002275	109.843000174
1440.0	0.0002278	109.890000105
1440.0	0.0002278	109.937000036
1440.0	0.0002275	109.968000174
1440.0	0.0002275	110.015000105
1440.0	0.0002275	110.04700017
1440.0	0.0002278	110.093000174
1440.0	0.0002275	110.140000105
1440.0	0.0002278	110.17200017
1440.0	0.0002275	110.218000174
1440.0	0.000227	110.265000105
1440.0	0.000227	110.29700017
1450.0	0.0002305	110.562000036
1450.0	0.0002315	110.609000206
1450.0	0.0002325	110.656000137
1450.0	0.0002333	110.687000036
1450.0	0.000234	110.734000206
1450.0	0.000235	110.765000105
1450.0	0.0002353	110.812000036
1450.0	0.0002353	110.859000206
1450.0	0.0002355	110.890000105
1450.0	0.0002355	110.937000036
1450.0	0.0002355	110.984000206
1450.0	0.0002353	111.015000105
1450.0	0.0002353	111.062000036
1450.0	0.000235	111.093000174
1450.0	0.000235	111.140000105
1450.0	0.0002353	111.187000036
1450.0	0.0002353	111.218000174
1450.0	0.0002353	111.265000105
1450.0	0.0002353	111.312000036
1450.0	0.0002355	111.343000174
1450.0	0.0002358	111.390000105
1450.0	0.0002358	111.42200017
1450.0	0.0002358	111.468000174
1450.0	0.0002358	111.515000105
1450.0	0.0002358	111.54700017
1450.0	0.0002355	111.593000174
1450.0	0.0002355	111.640000105
1450.0	0.000235	111.67200017
1450.0	0.000235	111.718000174
1450.0	0.0002353	111.765000105
1450.0	0.0002358	111.79700017
1450.0	0.0002358	111.843000174
1450.0	0.0002363	111.875
1450.0	0.0002363	111.92200017
1450.0	0.0002365	111.968000174
1450.0	0.0002365	112.0
1450.0	0.0002363	112.04700017
1460.0	0.0002388	112.312000036
1460.0	0.00024	112.359000206
1460.0	0.0002408	112.390000105
1460.0	0.000242	112.437000036
1460.0	0.0002428	112.468000174
1460.0	0.000243	112.515000105
1460.0	0.000243	112.562000036
1460.0	0.000243	112.593000174
1460.0	0.000243	112.640000105
1460.0	0.000243	112.687000036
1460.0	0.000243	112.718000174
1460.0	0.000243	112.765000105
1460.0	0.000243	112.812000036
1460.0	0.000243	112.843000174
1460.0	0.0002428	112.890000105
1460.0	0.0002428	112.92200017
1460.0	0.000243	112.968000174
1460.0	0.000243	113.015000105
1460.0	0.0002428	113.04700017
1460.0	0.0002428	113.093000174
1460.0	0.0002425	113.140000105
1460.0	0.000242	113.17200017
1460.0	0.0002418	113.218000174
1460.0	0.0002418	113.25
1460.0	0.000242	113.29700017
1460.0	0.000242	113.343000174
1460.0	0.0002425	113.375
1460.0	0.0002425	113.42200017
1460.0	0.0002428	113.468000174
1460.0	0.0002428	113.5
1460.0	0.0002428	113.54700017
1460.0	0.0002428	113.578000069
1460.0	0.0002428	113.625
1460.0	0.0002428	113.67200017
1460.0	0.0002428	113.703000069
1460.0	0.0002428	113.75
1460.0	0.0002425	113.79700017
1470.0	0.0002453	114.062000036
1470.0	0.0002463	114.109000206
1470.0	0.000247	114.140000105
1470.0	0.0002475	114.187000036
1470.0	0.000248	114.218000174
1470.0	0.000249	114.265000105
1470.0	0.0002493	114.312000036
1470.0	0.0002495	114.343000174
1470.0	0.0002495	114.390000105
1470.0	0.00025	114.437000036
1470.0	0.0002503	114.468000174
1470.0	0.0002503	114.515000105
1470.0	0.0002503	114.562000036
1470.0	0.0002505	114.593000174
1470.0	0.0002505	114.640000105
1470.0	0.0002508	114.67200017
1470.0	0.0002513	114.718000174
1470.0	0.0002513	114.765000105
1470.0	0.0002515	114.79700017
1470.0	0.0002515	114.843000174
1470.0	0.0002518	114.890000105
1470.0	0.0002518	114.92200017
1470.0	0.0002518	114.968000174
1470.0	0.000252	115.015000105
1470.0	0.000252	115.04700017
1470.0	0.000252	115.093000174
1470.0	0.000252	115.140000105
1470.0	0.0002525	115.17200017
1470.0	0.000252	115.218000174
1470.0	0.0002525	115.25
1470.0	0.0002525	115.29700017
1470.0	0.0002528	115.343000174
1470.0	0.0002525	115.375
1470.0	0.0002525	115.42200017
1470.0	0.0002525	115.468000174
1470.0	0.0002528	115.5
1470.0	0.0002525	115.54700017
1480.0	0.000254	115.812000036
1480.0	0.000255	115.859000206
1480.0	0.0002558	115.890000105
1480.0	0.0002565	115.937000036
1480.0	0.0002568	115.984000206
1480.0	0.000257	116.015000105
1480.0	0.0002575	116.062000036
1480.0	0.000258	116.109000206
1480.0	0.0002583	116.140000105
1480.0	0.0002583	116.187000036
1480.0	0.000258	116.218000174
1480.0	0.0002583	116.265000105
1480.0	0.000258	116.312000036
1480.0	0.000258	116.343000174
1480.0	0.0002583	116.390000105
1480.0	0.0002588	116.437000036
1480.0	0.0002583	116.468000174
1480.0	0.0002583	116.515000105
1480.0	0.0002583	116.562000036
1480.0	0.0002583	116.593000174
1480.0	0.000258	116.640000105
1480.0	0.0002583	116.67200017
1480.0	0.000258	116.718000174
1480.0	0.0002578	116.765000105
1480.0	0.0002575	116.79700017
1480.0	0.0002578	116.843000174
1480.0	0.0002575	116.890000105
1480.0	0.0002575	116.92200017
1480.0	0.000257	116.968000174
1480.0	0.000257	117.0
1480.0	0.0002568	117.04700017
1480.0	0.0002568	117.093000174
1480.0	0.0002568	117.125
1480.0	0.0002565	117.17200017
1480.0	0.0002565	117.218000174
1480.0	0.0002565	117.25
1480.0	0.0002565	117.29700017
1490.0	0.0002575	117.562000036
1490.0	0.0002583	117.609000206
1490.0	0.0002588	117.640000105
1490.0	0.0002595	117.687000036
1490.0	0.00026	117.734000206
1490.0	0.00026	117.765000105
1490.0	0.0002605	117.812000036
1490.0	0.0002605	117.859000206
1490.0	0.0002603	117.890000105
1490.0	0.0002603	117.937000036
1490.0	0.0002605	117.968000174
1490.0	0.0002603	118.015000105
1490.0	0.0002605	118.062000036
1490.0	0.0002608	118.093000174
1490.0	0.0002608	118.140000105
1490.0	0.0002613	118.187000036
1490.0	0.0002613	118.218000174
1490.0	0.0002613	118.265000105
1490.0	0.0002613	118.312000036
1490.0	0.0002608	118.343000174
1490.0	0.0002608	118.390000105
1490.0	0.0002608	118.42200017
1490.0	0.0002605	118.468000174
1490.0	0.0002605	118.515000105
1490.0	0.0002605	118.54700017
1490.0	0.0002605	118.593000174
1490.0	0.0002613	118.640000105
1490.0	0.0002613	118.67200017
1490.0	0.0002613	118.718000174
1490.0	0.0002615	118.75
1490.0	0.0002613	118.79700017
1490.0	0.0002613	118.843000174
1490.0	0.0002613	118.875
1490.0	0.0002613	118.92200017
1490.0	0.0002613	118.968000174
1490.0	0.0002615	119.0
1490.0	0.0002615	119.04700017
1500.0	0.0002638	119.312000036
1500.0	0.000264	119.359000206
1500.0	0.0002645	119.390000105
1500.0	0.0002653	119.437000036
1500.0	0.0002658	119.484000206
1500.0	0.0002655	119.515000105
1500.0	0.0002655	119.562000036
1500.0	0.0002655	119.609000206
1500.0	0.0002653	119.640000105
1500.0	0.000265	119.687000036
1500.0	0.000265	119.718000174
1500.0	0.000265	119.765000105
1500.0	0.000265	119.812000036
1500.0	0.000265	119.843000174
1500.0	0.000265	119.890000105
1500.0	0.0002645	119.937000036
1500.0	0.000265	119.968000174
1500.0	0.000265	120.015000105
1500.0	0.0002645	120.062000036
1500.0	0.0002645	120.093000174
1500.0	0.000265	120.140000105
1500.0	0.000265	120.17200017
1500.0	0.0002653	120.218000174
1500.0	0.0002653	120.265000105
1500.0	0.000265	120.29700017
1500.0	0.0002653	120.343000174
1500.0	0.0002653	120.390000105
1500.0	0.0002653	120.42200017
1500.0	0.0002653	120.468000174
1500.0	0.0002653	120.515000105
1500.0	0.0002653	120.54700017
1500.0	0.000265	120.593000174
1500.0	0.0002653	120.640000105
1500.0	0.0002655	120.67200017
1500.0	0.0002658	120.718000174
1500.0	0.0002658	120.75
1500.0	0.0002658	120.79700017
1510.0	0.0002655	121.078000069
1510.0	0.0002655	121.125
1510.0	0.0002658	121.156000137
1510.0	0.0002658	121.203000069
1510.0	0.0002658	121.234000206
1510.0	0.0002658	121.281000137
1510.0	0.0002663	121.328000069
1510.0	0.0002665	121.359000206
1510.0	0.0002668	121.406000137
1510.0	0.0002668	121.453000069
1510.0	0.0002668	121.484000206
1510.0	0.0002665	121.531000137
1510.0	0.0002668	121.562000036
1510.0	0.0002665	121.609000206
1510.0	0.0002663	121.656000137
1510.0	0.0002663	121.687000036
1510.0	0.0002663	121.734000206
1510.0	0.0002665	121.781000137
1510.0	0.0002665	121.812000036
1510.0	0.0002668	121.859000206
1510.0	0.0002668	121.906000137
1510.0	0.0002668	121.937000036
1510.0	0.0002665	121.984000206
1510.0	0.0002665	122.015000105
1510.0	0.0002658	122.062000036
1510.0	0.0002655	122.109000206
1510.0	0.0002658	122.140000105
1510.0	0.0002658	122.187000036
1510.0	0.0002658	122.234000206
1510.0	0.0002663	122.265000105
1510.0	0.0002658	122.312000036
1510.0	0.0002663	122.343000174
1510.0	0.0002658	122.390000105
1510.0	0.0002658	122.437000036
1510.0	0.0002658	122.468000174
1510.0	0.0002658	122.515000105
1510.0	0.0002663	122.562000036
1520.0	0.0002665	122.828000069
1520.0	0.0002668	122.875
1520.0	0.000267	122.92200017
1520.0	0.000267	122.953000069
1520.0	0.0002668	123.0
1520.0	0.0002668	123.04700017
1520.0	0.0002668	123.078000069
1520.0	0.0002668	123.125
1520.0	0.000267	123.17200017
1520.0	0.0002675	123.203000069
1520.0	0.0002675	123.25
1520.0	0.000268	123.281000137
1520.0	0.0002688	123.328000069
1520.0	0.0002688	123.375
1520.0	0.0002688	123.406000137
1520.0	0.0002688	123.453000069
1520.0	0.0002683	123.484000206
1520.0	0.0002683	123.531000137
1520.0	0.0002683	123.578000069
1520.0	0.0002678	123.609000206
1520.0	0.0002678	123.656000137
1520.0	0.000268	123.703000069
1520.0	0.000268	123.734000206
1520.0	0.0002683	123.781000137
1520.0	0.0002683	123.812000036
1520.0	0.000268	123.859000206
1520.0	0.000268	123.906000137
1520.0	0.0002683	123.937000036
1520.0	0.0002683	123.984000206
1520.0	0.000268	124.031000137
1520.0	0.0002683	124.062000036
1520.0	0.000268	124.109000206
1520.0	0.0002678	124.156000137
1520.0	0.0002678	124.187000036
1520.0	0.0002678	124.234000206
1520.0	0.0002678	124.281000137
1530.0	0.0002683	124.54700017
1530.0	0.0002683	124.593000174
1530.0	0.000268	124.640000105
1530.0	0.000268	124.67200017
1530.0	0.000268	124.718000174
1530.0	0.000268	124.75
1530.0	0.0002675	124.79700017
1530.0	0.0002675	124.843000174
1530.0	0.000267	124.875
1530.0	0.000267	124.92200017
1530.0	0.000267	124.968000174
1530.0	0.000267	125.0
1530.0	0.0002675	125.04700017
1530.0	0.0002675	125.093000174
1530.0	0.0002675	125.125
1530.0	0.0002675	125.17200017
1530.0	0.0002675	125.203000069
1530.0	0.0002675	125.25
1530.0	0.0002675	125.29700017
1530.0	0.0002675	125.328000069
1530.0	0.0002675	125.375
1530.0	0.0002675	125.406000137
1530.0	0.000267	125.453000069
1530.0	0.000267	125.5
1530.0	0.0002675	125.531000137
1530.0	0.000267	125.578000069
1530.0	0.000267	125.625
1530.0	0.000267	125.656000137
1530.0	0.000267	125.703000069
1530.0	0.000267	125.75
1530.0	0.000267	125.781000137
1530.0	0.000267	125.828000069
1530.0	0.000267	125.859000206
1530.0	0.000267	125.906000137
1530.0	0.0002668	125.953000069
1530.0	0.0002665	125.984000206
1530.0	0.0002663	126.031000137
1540.0	0.000267	126.312000036
1540.0	0.000267	126.343000174
1540.0	0.0002675	126.390000105
1540.0	0.0002675	126.42200017
1540.0	0.0002675	126.468000174
1540.0	0.0002675	126.515000105
1540.0	0.0002675	126.54700017
1540.0	0.0002675	126.593000174
1540.0	0.0002675	126.640000105
1540.0	0.0002675	126.67200017
1540.0	0.0002675	126.718000174
1540.0	0.0002675	126.765000105
1540.0	0.0002678	126.79700017
1540.0	0.000268	126.843000174
1540.0	0.000268	126.875
1540.0	0.0002678	126.92200017
1540.0	0.0002678	126.968000174
1540.0	0.0002678	127.0
1540.0	0.000268	127.04700017
1540.0	0.000268	127.093000174
1540.0	0.000268	127.125
1540.0	0.000268	127.17200017
1540.0	0.0002678	127.203000069
1540.0	0.0002678	127.25
1540.0	0.0002675	127.29700017
1540.0	0.0002675	127.328000069
1540.0	0.000267	127.375
1540.0	0.0002668	127.406000137
1540.0	0.0002668	127.453000069
1540.0	0.0002668	127.5
1540.0	0.000267	127.531000137
1540.0	0.000267	127.578000069
1540.0	0.0002678	127.625
1540.0	0.0002678	127.656000137
1540.0	0.0002675	127.703000069
1540.0	0.0002668	127.75
1540.0	0.0002665	127.781000137
1550.0	0.0002663	128.062000036
1550.0	0.0002658	128.093000174
1550.0	0.0002655	128.140000105
1550.0	0.0002655	128.187000036
1550.0	0.0002653	128.218000174
1550.0	0.000265	128.265000105
1550.0	0.0002643	128.312000036
1550.0	0.0002638	128.343000174
1550.0	0.0002633	128.390000105
1550.0	0.0002633	128.42200017
1550.0	0.0002633	128.468000174
1550.0	0.0002633	128.515000105
1550.0	0.0002633	128.54700017
1550.0	0.0002633	128.593000174
1550.0	0.0002633	128.640000105
1550.0	0.0002633	128.67200017
1550.0	0.000263	128.718000174
1550.0	0.000263	128.765000105
1550.0	0.000263	128.79700017
1550.0	0.000263	128.843000174
1550.0	0.000263	128.875
1550.0	0.0002633	128.92200017
1550.0	0.0002633	128.968000174
1550.0	0.0002633	129.0
1550.0	0.0002633	129.04700017
1550.0	0.0002633	129.093000174
1550.0	0.0002633	129.125
1550.0	0.0002638	129.17200017
1550.0	0.0002638	129.203000069
1550.0	0.0002638	129.25
1550.0	0.0002638	129.29700017
1550.0	0.000264	129.328000069
1550.0	0.000264	129.375
1550.0	0.000264	129.42200017
1550.0	0.000264	129.453000069
1550.0	0.000264	129.5
1550.0	0.000264	129.531000137
1560.0	0.0002625	129.812000036
1560.0	0.0002618	129.859000206
1560.0	0.0002613	129.890000105
1560.0	0.0002605	129.937000036
1560.0	0.0002603	129.984000206
1560.0	0.00026	130.015000105
1560.0	0.0002595	130.062000036
1560.0	0.0002595	130.093000174
1560.0	0.0002595	130.140000105
1560.0	0.00026	130.187000036
1560.0	0.00026	130.218000174
1560.0	0.0002603	130.265000105
1560.0	0.0002605	130.312000036
1560.0	0.0002613	130.343000174
1560.0	0.0002615	130.390000105
1560.0	0.0002615	130.42200017
1560.0	0.0002613	130.468000174
1560.0	0.0002605	130.515000105
1560.0	0.0002603	130.54700017
1560.0	0.0002603	130.593000174
1560.0	0.00026	130.640000105
1560.0	0.00026	130.67200017
1560.0	0.00026	130.718000174
1560.0	0.00026	130.75
1560.0	0.00026	130.79700017
1560.0	0.00026	130.843000174
1560.0	0.00026	130.875
1560.0	0.00026	130.92200017
1560.0	0.0002595	130.968000174
1560.0	0.0002595	131.0
1560.0	0.0002595	131.04700017
1560.0	0.0002595	131.093000174
1560.0	0.0002595	131.125
1560.0	0.0002593	131.17200017
1560.0	0.0002595	131.203000069
1560.0	0.0002595	131.25
1560.0	0.0002593	131.29700017
1570.0	0.000257	131.562000036
1570.0	0.0002563	131.609000206
1570.0	0.0002553	131.656000137
1570.0	0.0002545	131.687000036
1570.0	0.0002543	131.734000206
1570.0	0.000254	131.765000105
1570.0	0.0002533	131.812000036
1570.0	0.000253	131.859000206
1570.0	0.0002525	131.890000105
1570.0	0.0002525	131.937000036
1570.0	0.0002525	131.984000206
1570.0	0.0002525	132.015000105
1570.0	0.000252	132.062000036
1570.0	0.000252	132.093000174
1570.0	0.0002518	132.140000105
1570.0	0.0002518	132.187000036
1570.0	0.0002518	132.218000174
1570.0	0.0002518	132.265000105
1570.0	0.0002518	132.312000036
1570.0	0.0002518	132.343000174
1570.0	0.000252	132.390000105
1570.0	0.000252	132.42200017
1570.0	0.000252	132.468000174
1570.0	0.000252	132.515000105
1570.0	0.000252	132.54700017
1570.0	0.0002518	132.593000174
1570.0	0.0002518	132.640000105
1570.0	0.0002518	132.687000036
1570.0	0.0002518	132.718000174
1570.0	0.000252	132.765000105
1570.0	0.0002525	132.79700017
1570.0	0.0002525	132.843000174
1570.0	0.0002528	132.890000105
1570.0	0.0002525	132.92200017
1570.0	0.0002528	132.968000174
1570.0	0.000253	133.015000105
1570.0	0.000253	133.04700017
1580.0	0.0002488	133.328000069
1580.0	0.0002475	133.359000206
1580.0	0.0002465	133.406000137
1580.0	0.0002455	133.453000069
1580.0	0.0002445	133.484000206
1580.0	0.000244	133.531000137
1580.0	0.0002433	133.578000069
1580.0	0.000243	133.609000206
1580.0	0.000243	133.656000137
1580.0	0.000243	133.703000069
1580.0	0.0002428	133.734000206
1580.0	0.000243	133.781000137
1580.0	0.000243	133.828000069
1580.0	0.000243	133.859000206
1580.0	0.0002428	133.906000137
1580.0	0.0002425	133.937000036
1580.0	0.0002425	133.984000206
1580.0	0.0002425	134.031000137
1580.0	0.0002425	134.062000036
1580.0	0.000242	134.109000206
1580.0	0.000242	134.156000137
1580.0	0.0002418	134.203000069
1580.0	0.0002418	134.234000206
1580.0	0.0002418	134.281000137
1580.0	0.0002418	134.312000036
1580.0	0.0002415	134.359000206
1580.0	0.0002415	134.406000137
1580.0	0.0002415	134.437000036
1580.0	0.0002415	134.484000206
1580.0	0.0002418	134.531000137
1580.0	0.000242	134.562000036
1580.0	0.000242	134.609000206
1580.0	0.000242	134.640000105
1580.0	0.0002425	134.687000036
1580.0	0.0002425	134.734000206
1580.0	0.0002425	134.765000105
1580.0	0.0002425	134.812000036
1590.0	0.000237	135.093000174
1590.0	0.0002355	135.125
1590.0	0.0002343	135.17200017
1590.0	0.0002333	135.203000069
1590.0	0.0002328	135.25
1590.0	0.000232	135.29700017
1590.0	0.0002315	135.343000174
1590.0	0.0002313	135.375
1590.0	0.0002313	135.42200017
1590.0	0.0002308	135.468000174
1590.0	0.0002305	135.5
1590.0	0.0002303	135.54700017
1590.0	0.0002303	135.593000174
1590.0	0.0002303	135.625
1590.0	0.0002303	135.67200017
1590.0	0.0002303	135.718000174
1590.0	0.0002303	135.75
1590.0	0.0002305	135.79700017
1590.0	0.0002308	135.843000174
1590.0	0.0002313	135.875
1590.0	0.0002315	135.92200017
1590.0	0.0002318	135.968000174
1590.0	0.000232	136.0
1590.0	0.0002318	136.04700017
1590.0	0.000232	136.078000069
1590.0	0.000232	136.125
1590.0	0.000232	136.17200017
1590.0	0.0002325	136.203000069
1590.0	0.0002325	136.25
1590.0	0.0002325	136.29700017
1590.0	0.0002325	136.328000069
1590.0	0.0002325	136.375
1590.0	0.000232	136.406000137
1590.0	0.0002318	136.453000069
1590.0	0.0002318	136.5
1590.0	0.0002318	136.531000137
1590.0	0.000232	136.578000069
1600.0	0.0002263	136.859000206
1600.0	0.0002243	136.890000105
1600.0	0.0002228	136.937000036
1600.0	0.0002215	136.984000206
1600.0	0.0002205	137.015000105
1600.0	0.0002195	137.062000036
1600.0	0.0002193	137.109000206
1600.0	0.000219	137.140000105
1600.0	0.0002183	137.187000036
1600.0	0.000218	137.234000206
1600.0	0.0002178	137.265000105
1600.0	0.0002175	137.312000036
1600.0	0.0002175	137.359000206
1600.0	0.0002175	137.390000105
1600.0	0.000217	137.437000036
1600.0	0.0002168	137.484000206
1600.0	0.0002168	137.515000105
1600.0	0.0002168	137.562000036
1600.0	0.0002168	137.593000174
1600.0	0.0002168	137.640000105
1600.0	0.0002168	137.687000036
1600.0	0.0002168	137.718000174
1600.0	0.0002168	137.765000105
1600.0	0.000217	137.812000036
1600.0	0.000217	137.843000174
1600.0	0.0002168	137.890000105
1600.0	0.0002168	137.92200017
1600.0	0.0002165	137.968000174
1600.0	0.0002165	138.015000105
1600.0	0.0002163	138.04700017
1600.0	0.0002163	138.093000174
1600.0	0.0002163	138.140000105
1600.0	0.0002165	138.17200017
1600.0	0.0002168	138.218000174
1600.0	0.000217	138.265000105
1600.0	0.000217	138.29700017
1600.0	0.0002168	138.343000174
1610.0	0.0002115	138.625
1610.0	0.0002093	138.656000137
1610.0	0.0002075	138.703000069
1610.0	0.0002063	138.75
1610.0	0.0002053	138.781000137
1610.0	0.0002043	138.828000069
1610.0	0.0002033	138.875
1610.0	0.0002033	138.92200017
1610.0	0.0002033	138.953000069
1610.0	0.0002038	139.0
1610.0	0.0002038	139.031000137
1610.0	0.0002033	139.078000069
1610.0	0.000203	139.125
1610.0	0.0002028	139.156000137
1610.0	0.000203	139.203000069
1610.0	0.0002033	139.25
1610.0	0.0002033	139.281000137
1610.0	0.0002033	139.328000069
1610.0	0.0002033	139.359000206
1610.0	0.0002038	139.406000137
1610.0	0.0002038	139.453000069
1610.0	0.0002038	139.484000206
1610.0	0.0002038	139.531000137
1610.0	0.000203	139.578000069
1610.0	0.000203	139.609000206
1610.0	0.0002025	139.656000137
1610.0	0.0002025	139.687000036
1610.0	0.0002025	139.734000206
1610.0	0.0002025	139.781000137
1610.0	0.000202	139.812000036
1610.0	0.000202	139.859000206
1610.0	0.0002018	139.906000137
1610.0	0.0002018	139.937000036
1610.0	0.0002018	139.984000206
1610.0	0.000202	140.031000137
1610.0	0.000202	140.062000036
1610.0	0.0002025	140.109000206
1620.0	0.0001963	140.390000105
1620.0	0.0001943	140.437000036
1620.0	0.0001928	140.468000174
1620.0	0.0001915	140.515000105
1620.0	0.0001905	140.54700017
1620.0	0.0001893	140.593000174
1620.0	0.0001888	140.640000105
1620.0	0.000188	140.67200017
1620.0	0.0001875	140.718000174
1620.0	0.0001868	140.765000105
1620.0	0.0001868	140.79700017
1620.0	0.0001865	140.843000174
1620.0	0.0001865	140.875
1620.0	0.0001863	140.92200017
1620.0	0.0001863	140.968000174
1620.0	0.0001855	141.0
1620.0	0.0001855	141.04700017
1620.0	0.0001853	141.093000174
1620.0	0.0001853	141.125
1620.0	0.0001853	141.17200017
1620.0	0.0001855	141.218000174
1620.0	0.0001855	141.25
1620.0	0.0001858	141.29700017
1620.0	0.0001858	141.328000069
1620.0	0.0001855	141.375
1620.0	0.0001853	141.42200017
1620.0	0.0001855	141.453000069
1620.0	0.0001858	141.5
1620.0	0.0001858	141.531000137
1620.0	0.0001855	141.578000069
1620.0	0.0001855	141.625
1620.0	0.0001855	141.656000137
1620.0	0.0001855	141.703000069
1620.0	0.0001858	141.75
1620.0	0.0001858	141.781000137
1620.0	0.0001858	141.828000069
1620.0	0.0001858	141.875
1630.0	0.000179	142.156000137
1630.0	0.0001768	142.187000036
1630.0	0.000175	142.234000206
1630.0	0.0001738	142.281000137
1630.0	0.0001728	142.312000036
1630.0	0.000172	142.359000206
1630.0	0.0001718	142.390000105
1630.0	0.0001708	142.437000036
1630.0	0.0001703	142.484000206
1630.0	0.0001703	142.515000105
1630.0	0.0001703	142.562000036
1630.0	0.0001703	142.609000206
1630.0	0.00017	142.640000105
1630.0	0.00017	142.687000036
1630.0	0.00017	142.734000206
1630.0	0.0001695	142.765000105
1630.0	0.0001703	142.812000036
1630.0	0.0001705	142.843000174
1630.0	0.0001708	142.890000105
1630.0	0.0001708	142.937000036
1630.0	0.0001713	142.984000206
1630.0	0.0001713	143.015000105
1630.0	0.0001708	143.062000036
1630.0	0.0001708	143.093000174
1630.0	0.0001713	143.140000105
1630.0	0.0001715	143.187000036
1630.0	0.0001715	143.218000174
1630.0	0.0001715	143.265000105
1630.0	0.0001715	143.312000036
1630.0	0.0001715	143.343000174
1630.0	0.0001715	143.390000105
1630.0	0.0001713	143.42200017
1630.0	0.0001713	143.468000174
1630.0	0.0001708	143.515000105
1630.0	0.0001708	143.54700017
1630.0	0.0001705	143.593000174
1630.0	0.0001705	143.640000105
1640.0	0.0001638	143.92200017
1640.0	0.0001615	143.953000069
1640.0	0.0001603	144.0
1640.0	0.000159	144.04700017
1640.0	0.0001578	144.078000069
1640.0	0.000157	144.125
1640.0	0.0001563	144.156000137
1640.0	0.0001555	144.203000069
1640.0	0.0001553	144.25
1640.0	0.000155	144.281000137
1640.0	0.000155	144.328000069
1640.0	0.0001543	144.375
1640.0	0.000154	144.406000137
1640.0	0.0001538	144.453000069
1640.0	0.0001538	144.484000206
1640.0	0.0001533	144.531000137
1640.0	0.0001533	144.578000069
1640.0	0.0001528	144.609000206
1640.0	0.0001528	144.656000137
1640.0	0.0001528	144.703000069
1640.0	0.0001528	144.734000206
1640.0	0.0001525	144.781000137
1640.0	0.0001525	144.828000069
1640.0	0.0001525	144.859000206
1640.0	0.000152	144.906000137
1640.0	0.000152	144.937000036
1640.0	0.000152	144.984000206
1640.0	0.0001525	145.031000137
1640.0	0.0001525	145.062000036
1640.0	0.0001528	145.109000206
1640.0	0.0001528	145.156000137
1640.0	0.0001525	145.187000036
1640.0	0.0001525	145.234000206
1640.0	0.0001525	145.265000105
1640.0	0.0001528	145.312000036
1640.0	0.0001528	145.359000206
1640.0	0.0001528	145.390000105
1650.0	0.000147	145.67200017
1650.0	0.000145	145.718000174
1650.0	0.000143	145.765000105
1650.0	0.0001418	145.79700017
1650.0	0.0001408	145.843000174
1650.0	0.0001403	145.890000105
1650.0	0.0001395	145.92200017
1650.0	0.0001393	145.968000174
1650.0	0.000139	146.015000105
1650.0	0.000139	146.04700017
1650.0	0.000139	146.093000174
1650.0	0.000139	146.125
1650.0	0.0001388	146.17200017
1650.0	0.0001383	146.218000174
1650.0	0.0001383	146.25
1650.0	0.000138	146.29700017
1650.0	0.0001383	146.343000174
1650.0	0.000138	146.375
1650.0	0.0001383	146.42200017
1650.0	0.0001388	146.453000069
1650.0	0.0001388	146.5
1650.0	0.0001388	146.54700017
1650.0	0.0001383	146.578000069
1650.0	0.0001383	146.625
1650.0	0.0001388	146.67200017
1650.0	0.0001388	146.703000069
1650.0	0.000139	146.75
1650.0	0.0001393	146.781000137
1650.0	0.0001393	146.828000069
1650.0	0.0001393	146.875
1650.0	0.0001393	146.92200017
1650.0	0.0001395	146.953000069
1650.0	0.00014	147.0
1650.0	0.00014	147.031000137
1650.0	0.00014	147.078000069
1650.0	0.00014	147.125
1650.0	0.0001395	147.156000137
1660.0	0.000133	147.437000036
1660.0	0.0001308	147.484000206
1660.0	0.0001295	147.531000137
1660.0	0.0001288	147.562000036
1660.0	0.0001278	147.609000206
1660.0	0.0001268	147.656000137
1660.0	0.0001268	147.687000036
1660.0	0.0001265	147.734000206
1660.0	0.0001263	147.781000137
1660.0	0.0001258	147.812000036
1660.0	0.0001255	147.859000206
1660.0	0.0001253	147.890000105
1660.0	0.000125	147.937000036
1660.0	0.0001245	147.984000206
1660.0	0.0001243	148.015000105
1660.0	0.000124	148.062000036
1660.0	0.0001238	148.109000206
1660.0	0.0001233	148.140000105
1660.0	0.0001233	148.187000036
1660.0	0.000123	148.234000206
1660.0	0.000123	148.265000105
1660.0	0.000123	148.312000036
1660.0	0.000123	148.359000206
1660.0	0.0001233	148.390000105
1660.0	0.0001233	148.437000036
1660.0	0.0001233	148.468000174
1660.0	0.0001233	148.515000105
1660.0	0.0001233	148.562000036
1660.0	0.0001238	148.593000174
1660.0	0.0001238	148.640000105
1660.0	0.000124	148.687000036
1660.0	0.000124	148.718000174
1660.0	0.0001238	148.765000105
1660.0	0.0001238	148.812000036
1660.0	0.0001238	148.843000174
1660.0	0.000124	148.890000105
1660.0	0.000124	148.92200017
1670.0	0.0001188	149.218000174
1670.0	0.0001175	149.25
1670.0	0.0001165	149.29700017
1670.0	0.0001155	149.328000069
1670.0	0.0001145	149.375
1670.0	0.0001138	149.42200017
1670.0	0.000113	149.453000069
1670.0	0.0001125	149.5
1670.0	0.0001125	149.54700017
1670.0	0.0001125	149.578000069
1670.0	0.0001125	149.625
1670.0	0.0001128	149.656000137
1670.0	0.0001128	149.703000069
1670.0	0.0001128	149.75
1670.0	0.0001128	149.781000137
1670.0	0.0001128	149.828000069
1670.0	0.0001125	149.875
1670.0	0.0001125	149.906000137
1670.0	0.0001125	149.953000069
1670.0	0.0001125	149.984000206
1670.0	0.0001128	150.031000137
1670.0	0.0001125	150.078000069
1670.0	0.000112	150.109000206
1670.0	0.000112	150.156000137
1670.0	0.000112	150.203000069
1670.0	0.000112	150.234000206
1670.0	0.000112	150.281000137
1670.0	0.000112	150.328000069
1670.0	0.0001125	150.359000206
1670.0	0.0001125	150.406000137
1670.0	0.0001125	150.437000036
1670.0	0.0001125	150.484000206
1670.0	0.0001125	150.531000137
1670.0	0.000112	150.562000036
1670.0	0.0001125	150.609000206
1670.0	0.0001128	150.656000137
1670.0	0.000113	150.687000036
1680.0	0.000108	150.968000174
1680.0	0.0001065	151.015000105
1680.0	0.000105	151.062000036
1680.0	0.0001038	151.093000174
1680.0	0.000103	151.140000105
1680.0	0.0001025	151.17200017
1680.0	0.000102	151.218000174
1680.0	0.0001015	151.265000105
1680.0	0.0001013	151.29700017
1680.0	0.0001008	151.343000174
1680.0	0.0001008	151.390000105
1680.0	0.0001008	151.42200017
1680.0	0.0001008	151.468000174
1680.0	0.0001008	151.5
1680.0	0.0001008	151.54700017
1680.0	0.0001005	151.593000174
1680.0	0.0001003	151.625
1680.0	0.0001003	151.67200017
1680.0	0.0001003	151.718000174
1680.0	0.0001003	151.75
1680.0	0.0001003	151.79700017
1680.0	0.0001	151.843000174
1680.0	0.0001	151.875
1680.0	0.0001	151.92200017
1680.0	0.0001003	151.953000069
1680.0	0.0001005	152.0
1680.0	0.0001005	152.04700017
1680.0	0.0001003	152.078000069
1680.0	0.0001003	152.125
1680.0	0.0001003	152.17200017
1680.0	0.0001005	152.203000069
1680.0	0.0001008	152.25
1680.0	0.0001013	152.281000137
1680.0	0.0001013	152.328000069
1680.0	0.0001008	152.375
1680.0	0.0001005	152.406000137
1680.0	0.0001005	152.453000069
1690.0	9.7e-05	152.734000206
1690.0	9.58e-05	152.781000137
1690.0	9.45e-05	152.828000069
1690.0	9.4e-05	152.859000206
1690.0	9.38e-05	152.906000137
1690.0	9.3e-05	152.937000036
1690.0	9.28e-05	152.984000206
1690.0	9.25e-05	153.031000137
1690.0	9.25e-05	153.062000036
1690.0	9.2e-05	153.109000206
1690.0	9.18e-05	153.156000137
1690.0	9.15e-05	153.187000036
1690.0	9.15e-05	153.234000206
1690.0	9.15e-05	153.281000137
1690.0	9.15e-05	153.312000036
1690.0	9.18e-05	153.359000206
1690.0	9.18e-05	153.390000105
1690.0	9.18e-05	153.437000036
1690.0	9.18e-05	153.484000206
1690.0	9.2e-05	153.515000105
1690.0	9.2e-05	153.562000036
1690.0	9.2e-05	153.609000206
1690.0	9.2e-05	153.640000105
1690.0	9.2e-05	153.687000036
1690.0	9.25e-05	153.718000174
1690.0	9.25e-05	153.765000105
1690.0	9.2e-05	153.812000036
1690.0	9.25e-05	153.843000174
1690.0	9.2e-05	153.890000105
1690.0	9.18e-05	153.937000036
1690.0	9.18e-05	153.968000174
1690.0	9.18e-05	154.015000105
1690.0	9.2e-05	154.062000036
1690.0	9.25e-05	154.093000174
1690.0	9.25e-05	154.140000105
1690.0	9.2e-05	154.187000036
1690.0	9.2e-05	154.218000174
1700.0	8.83e-05	154.515000105
1700.0	8.65e-05	154.54700017
1700.0	8.53e-05	154.593000174
1700.0	8.43e-05	154.640000105
1700.0	8.4e-05	154.67200017
1700.0	8.33e-05	154.718000174
1700.0	8.28e-05	154.75
1700.0	8.25e-05	154.79700017
1700.0	8.25e-05	154.843000174
1700.0	8.25e-05	154.875
1700.0	8.2e-05	154.92200017
1700.0	8.2e-05	154.968000174
1700.0	8.18e-05	155.0
1700.0	8.15e-05	155.04700017
1700.0	8.15e-05	155.078000069
1700.0	8.18e-05	155.125
1700.0	8.2e-05	155.17200017
1700.0	8.18e-05	155.203000069
1700.0	8.18e-05	155.25
1700.0	8.15e-05	155.29700017
1700.0	8.13e-05	155.328000069
1700.0	8.08e-05	155.375
1700.0	8.08e-05	155.406000137
1700.0	8.08e-05	155.453000069
1700.0	8.08e-05	155.5
1700.0	8.13e-05	155.531000137
1700.0	8.13e-05	155.578000069
1700.0	8.13e-05	155.625
1700.0	8.13e-05	155.656000137
1700.0	8.13e-05	155.703000069
1700.0	8.13e-05	155.734000206
1700.0	8.15e-05	155.781000137
1700.0	8.15e-05	155.828000069
1700.0	8.18e-05	155.859000206
1700.0	8.18e-05	155.906000137
1700.0	8.18e-05	155.953000069
1700.0	8.18e-05	155.984000206
1710.0	7.88e-05	156.281000137
1710.0	7.78e-05	156.312000036
1710.0	7.68e-05	156.359000206
1710.0	7.65e-05	156.406000137
1710.0	7.63e-05	156.437000036
1710.0	7.58e-05	156.484000206
1710.0	7.55e-05	156.515000105
1710.0	7.55e-05	156.562000036
1710.0	7.5e-05	156.609000206
1710.0	7.5e-05	156.640000105
1710.0	7.5e-05	156.687000036
1710.0	7.45e-05	156.734000206
1710.0	7.45e-05	156.765000105
1710.0	7.43e-05	156.812000036
1710.0	7.45e-05	156.843000174
1710.0	7.45e-05	156.890000105
1710.0	7.5e-05	156.937000036
1710.0	7.5e-05	156.968000174
1710.0	7.45e-05	157.015000105
1710.0	7.45e-05	157.062000036
1710.0	7.5e-05	157.093000174
1710.0	7.53e-05	157.140000105
1710.0	7.53e-05	157.187000036
1710.0	7.53e-05	157.218000174
1710.0	7.5e-05	157.265000105
1710.0	7.5e-05	157.312000036
1710.0	7.5e-05	157.359000206
1710.0	7.5e-05	157.390000105
1710.0	7.5e-05	157.437000036
1710.0	7.5e-05	157.468000174
1710.0	7.5e-05	157.515000105
1710.0	7.5e-05	157.562000036
1710.0	7.5e-05	157.593000174
1710.0	7.5e-05	157.640000105
1710.0	7.5e-05	157.687000036
1710.0	7.53e-05	157.718000174
1710.0	7.55e-05	157.765000105
1720.0	7.28e-05	158.04700017
1720.0	7.18e-05	158.093000174
1720.0	7.13e-05	158.140000105
1720.0	7.05e-05	158.17200017
1720.0	7.03e-05	158.218000174
1720.0	7e-05	158.265000105
1720.0	6.93e-05	158.29700017
1720.0	6.9e-05	158.343000174
1720.0	6.88e-05	158.390000105
1720.0	6.83e-05	158.42200017
1720.0	6.8e-05	158.468000174
1720.0	6.78e-05	158.5
1720.0	6.7e-05	158.54700017
1720.0	6.68e-05	158.593000174
1720.0	6.68e-05	158.625
1720.0	6.68e-05	158.67200017
1720.0	6.68e-05	158.718000174
1720.0	6.68e-05	158.75
1720.0	6.68e-05	158.79700017
1720.0	6.7e-05	158.828000069
1720.0	6.75e-05	158.875
1720.0	6.78e-05	158.92200017
1720.0	6.8e-05	158.953000069
1720.0	6.88e-05	159.0
1720.0	6.88e-05	159.04700017
1720.0	6.83e-05	159.078000069
1720.0	6.8e-05	159.125
1720.0	6.78e-05	159.156000137
1720.0	6.75e-05	159.203000069
1720.0	6.68e-05	159.25
1720.0	6.68e-05	159.281000137
1720.0	6.7e-05	159.328000069
1720.0	6.7e-05	159.375
1720.0	6.7e-05	159.406000137
1720.0	6.7e-05	159.453000069
1720.0	6.75e-05	159.5
1720.0	6.78e-05	159.531000137
1730.0	6.38e-05	159.828000069
1730.0	6.3e-05	159.859000206
1730.0	6.25e-05	159.906000137
1730.0	6.18e-05	159.953000069
1730.0	6.13e-05	159.984000206
1730.0	6.13e-05	160.031000137
1730.0	6.08e-05	160.078000069
1730.0	6.05e-05	160.109000206
1730.0	6.08e-05	160.156000137
1730.0	6.08e-05	160.187000036
1730.0	6.08e-05	160.234000206
1730.0	6.08e-05	160.281000137
1730.0	6.13e-05	160.328000069
1730.0	6.13e-05	160.359000206
1730.0	6.08e-05	160.406000137
1730.0	6.05e-05	160.437000036
1730.0	6.08e-05	160.484000206
1730.0	6.08e-05	160.531000137
1730.0	6.08e-05	160.562000036
1730.0	6.08e-05	160.609000206
1730.0	6.03e-05	160.656000137
1730.0	6.03e-05	160.687000036
1730.0	6.05e-05	160.734000206
1730.0	6.13e-05	160.781000137
1730.0	6.13e-05	160.812000036
1730.0	6.15e-05	160.859000206
1730.0	6.15e-05	160.890000105
1730.0	6.18e-05	160.937000036
1730.0	6.18e-05	160.984000206
1730.0	6.2e-05	161.015000105
1730.0	6.2e-05	161.062000036
1730.0	6.2e-05	161.109000206
1730.0	6.2e-05	161.140000105
1730.0	6.2e-05	161.187000036
1730.0	6.25e-05	161.218000174
1730.0	6.25e-05	161.265000105
1730.0	6.25e-05	161.312000036
1740.0	6.15e-05	161.593000174
1740.0	6.08e-05	161.640000105
1740.0	6.03e-05	161.67200017
1740.0	5.93e-05	161.718000174
1740.0	5.88e-05	161.765000105
1740.0	5.83e-05	161.79700017
1740.0	5.83e-05	161.843000174
1740.0	5.83e-05	161.875
1740.0	5.83e-05	161.92200017
1740.0	5.8e-05	161.968000174
1740.0	5.78e-05	162.0
1740.0	5.75e-05	162.04700017
1740.0	5.75e-05	162.093000174
1740.0	5.7e-05	162.125
1740.0	5.7e-05	162.17200017
1740.0	5.68e-05	162.218000174
1740.0	5.68e-05	162.25
1740.0	5.68e-05	162.29700017
1740.0	5.7e-05	162.328000069
1740.0	5.75e-05	162.375
1740.0	5.75e-05	162.42200017
1740.0	5.78e-05	162.453000069
1740.0	5.8e-05	162.5
1740.0	5.78e-05	162.531000137
1740.0	5.78e-05	162.578000069
1740.0	5.8e-05	162.625
1740.0	5.8e-05	162.656000137
1740.0	5.8e-05	162.703000069
1740.0	5.78e-05	162.75
1740.0	5.75e-05	162.781000137
1740.0	5.7e-05	162.828000069
1740.0	5.7e-05	162.875
1740.0	5.68e-05	162.906000137
1740.0	5.68e-05	162.953000069
1740.0	5.68e-05	162.984000206
1740.0	5.68e-05	163.031000137
1740.0	5.7e-05	163.078000069
1750.0	5.55e-05	163.359000206
1750.0	5.5e-05	163.406000137
1750.0	5.43e-05	163.437000036
1750.0	5.4e-05	163.484000206
1750.0	5.38e-05	163.531000137
1750.0	5.33e-05	163.562000036
1750.0	5.3e-05	163.609000206
1750.0	5.3e-05	163.640000105
1750.0	5.28e-05	163.687000036
1750.0	5.25e-05	163.734000206
1750.0	5.25e-05	163.765000105
1750.0	5.2e-05	163.812000036
1750.0	5.2e-05	163.859000206
1750.0	5.2e-05	163.890000105
1750.0	5.2e-05	163.937000036
1750.0	5.25e-05	163.984000206
1750.0	5.28e-05	164.015000105
1750.0	5.25e-05	164.062000036
1750.0	5.2e-05	164.093000174
1750.0	5.18e-05	164.140000105
1750.0	5.18e-05	164.187000036
1750.0	5.15e-05	164.218000174
1750.0	5.15e-05	164.265000105
1750.0	5.15e-05	164.312000036
1750.0	5.15e-05	164.343000174
1750.0	5.15e-05	164.390000105
1750.0	5.15e-05	164.42200017
1750.0	5.13e-05	164.468000174
1750.0	5.13e-05	164.515000105
1750.0	5.15e-05	164.54700017
1750.0	5.18e-05	164.593000174
1750.0	5.18e-05	164.640000105
1750.0	5.18e-05	164.67200017
1750.0	5.15e-05	164.718000174
1750.0	5.18e-05	164.765000105
1750.0	5.18e-05	164.79700017
1750.0	5.18e-05	164.843000174
1760.0	5e-05	165.125
1760.0	4.93e-05	165.17200017
1760.0	4.9e-05	165.203000069
1760.0	4.83e-05	165.25
1760.0	4.8e-05	165.29700017
1760.0	4.8e-05	165.328000069
1760.0	4.78e-05	165.375
1760.0	4.75e-05	165.42200017
1760.0	4.7e-05	165.453000069
1760.0	4.7e-05	165.5
1760.0	4.75e-05	165.54700017
1760.0	4.7e-05	165.578000069
1760.0	4.7e-05	165.625
1760.0	4.68e-05	165.67200017
1760.0	4.68e-05	165.703000069
1760.0	4.7e-05	165.75
1760.0	4.7e-05	165.781000137
1760.0	4.7e-05	165.828000069
1760.0	4.7e-05	165.875
1760.0	4.7e-05	165.906000137
1760.0	4.7e-05	165.953000069
1760.0	4.75e-05	166.0
1760.0	4.75e-05	166.031000137
1760.0	4.78e-05	166.078000069
1760.0	4.78e-05	166.109000206
1760.0	4.75e-05	166.156000137
1760.0	4.75e-05	166.203000069
1760.0	4.75e-05	166.234000206
1760.0	4.75e-05	166.281000137
1760.0	4.78e-05	166.328000069
1760.0	4.78e-05	166.359000206
1760.0	4.78e-05	166.406000137
1760.0	4.75e-05	166.437000036
1760.0	4.75e-05	166.484000206
1760.0	4.75e-05	166.531000137
1760.0	4.7e-05	166.562000036
1760.0	4.75e-05	166.609000206
1770.0	4.58e-05	166.890000105
1770.0	4.53e-05	166.937000036
1770.0	4.5e-05	166.984000206
1770.0	4.43e-05	167.015000105
1770.0	4.4e-05	167.062000036
1770.0	4.38e-05	167.109000206
1770.0	4.33e-05	167.140000105
1770.0	4.33e-05	167.187000036
1770.0	4.38e-05	167.218000174
1770.0	4.4e-05	167.265000105
1770.0	4.43e-05	167.312000036
1770.0	4.43e-05	167.343000174
1770.0	4.45e-05	167.390000105
1770.0	4.45e-05	167.437000036
1770.0	4.45e-05	167.468000174
1770.0	4.43e-05	167.515000105
1770.0	4.4e-05	167.562000036
1770.0	4.38e-05	167.593000174
1770.0	4.33e-05	167.640000105
1770.0	4.3e-05	167.67200017
1770.0	4.28e-05	167.718000174
1770.0	4.3e-05	167.765000105
1770.0	4.3e-05	167.79700017
1770.0	4.33e-05	167.843000174
1770.0	4.38e-05	167.890000105
1770.0	4.38e-05	167.92200017
1770.0	4.33e-05	167.968000174
1770.0	4.38e-05	168.0
1770.0	4.33e-05	168.04700017
1770.0	4.38e-05	168.093000174
1770.0	4.33e-05	168.125
1770.0	4.3e-05	168.17200017
1770.0	4.3e-05	168.218000174
1770.0	4.3e-05	168.25
1770.0	4.33e-05	168.29700017
1770.0	4.3e-05	168.328000069
1770.0	4.3e-05	168.375
1780.0	4.2e-05	168.656000137
1780.0	4.18e-05	168.703000069
1780.0	4.18e-05	168.75
1780.0	4.18e-05	168.781000137
1780.0	4.15e-05	168.828000069
1780.0	4.08e-05	168.875
1780.0	4.05e-05	168.906000137
1780.0	4.05e-05	168.953000069
1780.0	4.05e-05	168.984000206
1780.0	4.05e-05	169.031000137
1780.0	4e-05	169.078000069
1780.0	3.95e-05	169.109000206
1780.0	3.95e-05	169.156000137
1780.0	4e-05	169.203000069
1780.0	4e-05	169.234000206
1780.0	4e-05	169.281000137
1780.0	4e-05	169.328000069
1780.0	4.03e-05	169.359000206
1780.0	4.03e-05	169.406000137
1780.0	4.03e-05	169.437000036
1780.0	4.03e-05	169.484000206
1780.0	4.03e-05	169.531000137
1780.0	4.03e-05	169.562000036
1780.0	4e-05	169.609000206
1780.0	4e-05	169.656000137
1780.0	4e-05	169.687000036
1780.0	4.03e-05	169.734000206
1780.0	4.05e-05	169.765000105
1780.0	4.03e-05	169.812000036
1780.0	4e-05	169.859000206
1780.0	3.95e-05	169.890000105
1780.0	4e-05	169.937000036
1780.0	4.03e-05	169.984000206
1780.0	4.05e-05	170.015000105
1780.0	4.05e-05	170.062000036
1780.0	4.05e-05	170.093000174
1780.0	4.05e-05	170.140000105
1790.0	3.88e-05	170.437000036
1790.0	3.83e-05	170.468000174
1790.0	3.8e-05	170.515000105
1790.0	3.78e-05	170.54700017
1790.0	3.75e-05	170.593000174
1790.0	3.75e-05	170.640000105
1790.0	3.68e-05	170.67200017
1790.0	3.68e-05	170.718000174
1790.0	3.65e-05	170.765000105
1790.0	3.65e-05	170.79700017
1790.0	3.65e-05	170.843000174
1790.0	3.63e-05	170.875
1790.0	3.58e-05	170.92200017
1790.0	3.63e-05	170.968000174
1790.0	3.63e-05	171.0
1790.0	3.63e-05	171.04700017
1790.0	3.63e-05	171.093000174
1790.0	3.65e-05	171.125
1790.0	3.65e-05	171.17200017
1790.0	3.63e-05	171.203000069
1790.0	3.63e-05	171.25
1790.0	3.63e-05	171.29700017
1790.0	3.58e-05	171.328000069
1790.0	3.58e-05	171.375
1790.0	3.55e-05	171.42200017
1790.0	3.55e-05	171.453000069
1790.0	3.58e-05	171.5
1790.0	3.63e-05	171.531000137
1790.0	3.65e-05	171.578000069
1790.0	3.65e-05	171.625
1790.0	3.65e-05	171.656000137
1790.0	3.68e-05	171.703000069
1790.0	3.65e-05	171.75
1790.0	3.65e-05	171.781000137
1790.0	3.65e-05	171.828000069
1790.0	3.68e-05	171.859000206
1790.0	3.68e-05	171.906000137
1800.0	3.5e-05	172.203000069
1800.0	3.45e-05	172.234000206
1800.0	3.43e-05	172.281000137
1800.0	3.43e-05	172.328000069
1800.0	3.43e-05	172.359000206
1800.0	3.38e-05	172.406000137
1800.0	3.38e-05	172.453000069
1800.0	3.33e-05	172.484000206
1800.0	3.33e-05	172.531000137
1800.0	3.33e-05	172.562000036
1800.0	3.3e-05	172.609000206
1800.0	3.28e-05	172.656000137
1800.0	3.28e-05	172.687000036
1800.0	3.28e-05	172.734000206
1800.0	3.28e-05	172.781000137
1800.0	3.3e-05	172.812000036
1800.0	3.38e-05	172.859000206
1800.0	3.38e-05	172.890000105
1800.0	3.4e-05	172.937000036
1800.0	3.38e-05	172.984000206
1800.0	3.33e-05	173.015000105
1800.0	3.33e-05	173.062000036
1800.0	3.33e-05	173.109000206
1800.0	3.3e-05	173.140000105
1800.0	3.3e-05	173.187000036
1800.0	3.28e-05	173.234000206
1800.0	3.28e-05	173.265000105
1800.0	3.28e-05	173.312000036
1800.0	3.25e-05	173.343000174
1800.0	3.25e-05	173.390000105
1800.0	3.2e-05	173.437000036
1800.0	3.2e-05	173.468000174
1800.0	3.25e-05	173.515000105
1800.0	3.25e-05	173.562000036
1800.0	3.3e-05	173.593000174
1800.0	3.3e-05	173.640000105
1800.0	3.28e-05	173.67200017
