Your edit line - do NOT delete this line
Wavelength [nm], Voltage [V], Elapsed time [s]
900.0	0.00027	14.0160000324
900.0	0.0002645	14.0469999313
900.0	0.0002605	14.0939998627
900.0	0.000257	14.1410000324
900.0	0.0002555	14.1719999313
900.0	0.0002538	14.2189998627
900.0	0.000252	14.25
900.0	0.0002508	14.2969999313
900.0	0.00025	14.3439998627
900.0	0.0002503	14.3910000324
900.0	0.00025	14.4219999313
900.0	0.0002493	14.4689998627
900.0	0.0002483	14.5
900.0	0.000248	14.5469999313
900.0	0.0002488	14.5939998627
900.0	0.0002493	14.625
900.0	0.000249	14.6719999313
900.0	0.0002488	14.7189998627
900.0	0.0002488	14.75
900.0	0.0002493	14.7969999313
900.0	0.000249	14.8280000687
900.0	0.000248	14.875
900.0	0.000248	14.9219999313
900.0	0.0002488	14.9530000687
900.0	0.0002495	15.0
900.0	0.00025	15.0469999313
900.0	0.000249	15.0780000687
900.0	0.0002488	15.125
900.0	0.000248	15.1719999313
900.0	0.0002488	15.2030000687
900.0	0.0002488	15.25
900.0	0.000248	15.2969999313
900.0	0.0002478	15.3439998627
900.0	0.0002478	15.375
900.0	0.000248	15.4219999313
900.0	0.000248	15.4689998627
910.0	0.0002605	15.7660000324
910.0	0.0002633	15.8120000362
910.0	0.0002665	15.8589999676
910.0	0.0002688	15.8910000324
910.0	0.0002693	15.9370000362
910.0	0.0002705	15.9839999676
910.0	0.0002715	16.0160000324
910.0	0.0002728	16.0620000362
910.0	0.0002728	16.0939998627
910.0	0.000273	16.1410000324
910.0	0.0002733	16.1870000362
910.0	0.0002738	16.2189998627
910.0	0.0002745	16.2660000324
910.0	0.000275	16.3120000362
910.0	0.000275	16.3439998627
910.0	0.000275	16.3910000324
910.0	0.0002753	16.4219999313
910.0	0.0002758	16.4689998627
910.0	0.000275	16.5160000324
910.0	0.0002745	16.5469999313
910.0	0.0002743	16.5939998627
910.0	0.000275	16.6410000324
910.0	0.0002755	16.6719999313
910.0	0.000275	16.7189998627
910.0	0.0002745	16.7660000324
910.0	0.0002753	16.7969999313
910.0	0.0002755	16.8439998627
910.0	0.000275	16.875
910.0	0.000275	16.9219999313
910.0	0.0002755	16.9689998627
910.0	0.0002745	17.0160000324
910.0	0.000275	17.0469999313
910.0	0.0002745	17.0939998627
910.0	0.000274	17.125
910.0	0.0002728	17.1719999313
910.0	0.000273	17.2189998627
910.0	0.0002738	17.25
920.0	0.0002868	17.5620000362
920.0	0.0002915	17.5939998627
920.0	0.0002945	17.6410000324
920.0	0.0002968	17.6870000362
920.0	0.0002983	17.7189998627
920.0	0.0003008	17.7660000324
920.0	0.0003025	17.8120000362
920.0	0.0003018	17.8439998627
920.0	0.000302	17.8910000324
920.0	0.000302	17.9219999313
920.0	0.000303	17.9689998627
920.0	0.000304	18.0160000324
920.0	0.0003038	18.0469999313
920.0	0.0003028	18.0939998627
920.0	0.000303	18.1410000324
920.0	0.0003043	18.1719999313
920.0	0.0003038	18.2189998627
920.0	0.0003038	18.25
920.0	0.000303	18.2969999313
920.0	0.0003043	18.3439998627
920.0	0.0003045	18.375
920.0	0.0003038	18.4219999313
920.0	0.0003043	18.4689998627
920.0	0.0003043	18.5
920.0	0.0003045	18.5469999313
920.0	0.0003053	18.5780000687
920.0	0.0003043	18.625
920.0	0.0003038	18.6719999313
920.0	0.0003038	18.7030000687
920.0	0.0003045	18.75
920.0	0.0003053	18.7969999313
920.0	0.0003043	18.8280000687
920.0	0.0003038	18.875
920.0	0.0003045	18.9219999313
920.0	0.0003045	18.9530000687
920.0	0.000304	19.0
920.0	0.0003033	19.0309998989
930.0	0.0003183	19.3439998627
930.0	0.0003213	19.375
930.0	0.0003253	19.4219999313
930.0	0.000329	19.4530000687
930.0	0.0003303	19.5
930.0	0.0003315	19.5469999313
930.0	0.0003325	19.5780000687
930.0	0.0003355	19.625
930.0	0.0003353	19.6719999313
930.0	0.0003355	19.7030000687
930.0	0.0003355	19.75
930.0	0.0003353	19.7809998989
930.0	0.0003365	19.8280000687
930.0	0.0003358	19.875
930.0	0.0003358	19.9059998989
930.0	0.0003363	19.9530000687
930.0	0.000337	20.0
930.0	0.000338	20.0309998989
930.0	0.000337	20.0780000687
930.0	0.0003368	20.1089999676
930.0	0.000337	20.1559998989
930.0	0.000338	20.2030000687
930.0	0.0003378	20.2339999676
930.0	0.000338	20.2809998989
930.0	0.0003375	20.3280000687
930.0	0.000338	20.3589999676
930.0	0.0003383	20.4059998989
930.0	0.000337	20.4530000687
930.0	0.0003368	20.4839999676
930.0	0.0003365	20.5309998989
930.0	0.0003375	20.5620000362
930.0	0.0003375	20.6089999676
930.0	0.0003358	20.6559998989
930.0	0.0003363	20.6870000362
930.0	0.0003358	20.7339999676
930.0	0.0003368	20.7809998989
930.0	0.000337	20.8120000362
940.0	0.0003503	21.1089999676
940.0	0.000355	21.1559998989
940.0	0.000358	21.2030000687
940.0	0.0003618	21.2339999676
940.0	0.000365	21.2809998989
940.0	0.0003653	21.3280000687
940.0	0.0003663	21.3589999676
940.0	0.0003665	21.4059998989
940.0	0.000368	21.4370000362
940.0	0.0003693	21.4839999676
940.0	0.000369	21.5309998989
940.0	0.0003693	21.5620000362
940.0	0.0003693	21.6089999676
940.0	0.0003713	21.6559998989
940.0	0.0003695	21.6870000362
940.0	0.0003708	21.7339999676
940.0	0.0003695	21.7809998989
940.0	0.00037	21.8120000362
940.0	0.0003713	21.8589999676
940.0	0.0003715	21.9059998989
940.0	0.0003705	21.9370000362
940.0	0.00037	21.9839999676
940.0	0.00037	22.0160000324
940.0	0.0003713	22.0620000362
940.0	0.0003715	22.1089999676
940.0	0.0003703	22.1410000324
940.0	0.0003703	22.1870000362
940.0	0.00037	22.2339999676
940.0	0.0003713	22.2660000324
940.0	0.0003713	22.3120000362
940.0	0.00037	22.3589999676
940.0	0.0003695	22.3910000324
940.0	0.0003713	22.4370000362
940.0	0.0003715	22.4689998627
940.0	0.00037	22.5160000324
940.0	0.0003695	22.5620000362
940.0	0.00037	22.5939998627
950.0	0.0003853	22.8910000324
950.0	0.0003905	22.9370000362
950.0	0.000393	22.9689998627
950.0	0.0003958	23.0160000324
950.0	0.0003983	23.0620000362
950.0	0.0004015	23.0939998627
950.0	0.0004028	23.1410000324
950.0	0.000402	23.1870000362
950.0	0.0004028	23.2189998627
950.0	0.0004028	23.2660000324
950.0	0.000405	23.2969999313
950.0	0.0004053	23.3439998627
950.0	0.0004043	23.3910000324
950.0	0.0004045	23.4219999313
950.0	0.0004063	23.4689998627
950.0	0.0004068	23.5160000324
950.0	0.0004053	23.5469999313
950.0	0.000405	23.5939998627
950.0	0.0004053	23.6410000324
950.0	0.000407	23.6719999313
950.0	0.0004075	23.7189998627
950.0	0.0004063	23.75
950.0	0.0004058	23.7969999313
950.0	0.0004055	23.8439998627
950.0	0.0004075	23.875
950.0	0.0004058	23.9219999313
950.0	0.0004055	23.9689998627
950.0	0.000405	24.0
950.0	0.0004065	24.0469999313
950.0	0.0004068	24.0780000687
950.0	0.000405	24.125
950.0	0.000405	24.1719999313
950.0	0.0004045	24.2030000687
950.0	0.0004055	24.25
950.0	0.0004068	24.2969999313
950.0	0.0004055	24.3280000687
950.0	0.0004055	24.375
960.0	0.0004183	24.6559998989
960.0	0.0004233	24.7030000687
960.0	0.0004268	24.7339999676
960.0	0.00043	24.7809998989
960.0	0.0004328	24.8280000687
960.0	0.0004353	24.8589999676
960.0	0.000435	24.9059998989
960.0	0.0004353	24.9530000687
960.0	0.0004358	24.9839999676
960.0	0.000438	25.0309998989
960.0	0.0004375	25.0780000687
960.0	0.0004375	25.1089999676
960.0	0.000438	25.1559998989
960.0	0.0004383	25.2030000687
960.0	0.0004393	25.2339999676
960.0	0.0004405	25.2809998989
960.0	0.00044	25.3280000687
960.0	0.0004393	25.3589999676
960.0	0.0004393	25.4059998989
960.0	0.0004408	25.4370000362
960.0	0.00044	25.4839999676
960.0	0.00044	25.5309998989
960.0	0.0004393	25.5620000362
960.0	0.0004405	25.6089999676
960.0	0.0004413	25.6559998989
960.0	0.0004413	25.6870000362
960.0	0.0004395	25.7339999676
960.0	0.0004393	25.7660000324
960.0	0.00044	25.8120000362
960.0	0.0004413	25.8589999676
960.0	0.00044	25.9059998989
960.0	0.0004403	25.9370000362
960.0	0.0004403	25.9839999676
960.0	0.00044	26.0309998989
960.0	0.0004415	26.0620000362
960.0	0.00044	26.1089999676
960.0	0.00044	26.1410000324
970.0	0.000452	26.4370000362
970.0	0.0004575	26.4689998627
970.0	0.0004605	26.5160000324
970.0	0.0004643	26.5469999313
970.0	0.0004668	26.5939998627
970.0	0.000469	26.6410000324
970.0	0.0004693	26.6719999313
970.0	0.0004703	26.7189998627
970.0	0.0004715	26.7660000324
970.0	0.0004743	26.7969999313
970.0	0.0004725	26.8439998627
970.0	0.0004725	26.875
970.0	0.0004718	26.9219999313
970.0	0.000473	26.9689998627
970.0	0.0004745	27.0
970.0	0.0004733	27.0469999313
970.0	0.0004733	27.0939998627
970.0	0.0004733	27.125
970.0	0.0004753	27.1719999313
970.0	0.0004733	27.2189998627
970.0	0.0004755	27.25
970.0	0.0004738	27.2969999313
970.0	0.0004728	27.3439998627
970.0	0.0004738	27.375
970.0	0.000474	27.4219999313
970.0	0.0004725	27.4689998627
970.0	0.0004725	27.5
970.0	0.0004725	27.5469999313
970.0	0.0004738	27.5780000687
970.0	0.0004743	27.625
970.0	0.000473	27.6719999313
970.0	0.000473	27.7030000687
970.0	0.0004725	27.75
970.0	0.000475	27.7969999313
970.0	0.0004733	27.8280000687
970.0	0.000473	27.875
970.0	0.0004728	27.9059998989
980.0	0.0004865	28.2030000687
980.0	0.00049	28.2339999676
980.0	0.0004955	28.2809998989
980.0	0.0004968	28.3280000687
980.0	0.0005	28.3589999676
980.0	0.0005025	28.4059998989
980.0	0.0005028	28.4530000687
980.0	0.000503	28.4839999676
980.0	0.0005053	28.5309998989
980.0	0.0005058	28.5620000362
980.0	0.000505	28.6089999676
980.0	0.0005043	28.6559998989
980.0	0.0005043	28.6870000362
980.0	0.0005063	28.7339999676
980.0	0.0005068	28.7809998989
980.0	0.0005068	28.8280000687
980.0	0.0005045	28.8589999676
980.0	0.0005045	28.9059998989
980.0	0.0005055	28.9370000362
980.0	0.0005058	28.9839999676
980.0	0.0005065	29.0309998989
980.0	0.0005045	29.0620000362
980.0	0.0005045	29.1089999676
980.0	0.0005063	29.1559998989
980.0	0.0005063	29.1870000362
980.0	0.000505	29.2339999676
980.0	0.000505	29.2660000324
980.0	0.000505	29.3120000362
980.0	0.0005063	29.3589999676
980.0	0.0005068	29.3910000324
980.0	0.0005053	29.4370000362
980.0	0.0005043	29.4839999676
980.0	0.0005043	29.5160000324
980.0	0.0005045	29.5620000362
980.0	0.0005055	29.5939998627
980.0	0.000505	29.6410000324
980.0	0.0005045	29.6870000362
990.0	0.0005203	29.9689998627
990.0	0.0005228	30.0
990.0	0.0005278	30.0469999313
990.0	0.0005308	30.0939998627
990.0	0.0005315	30.125
990.0	0.0005333	30.1719999313
990.0	0.000535	30.2030000687
990.0	0.0005383	30.25
990.0	0.0005378	30.2969999313
990.0	0.0005388	30.3280000687
990.0	0.0005388	30.375
990.0	0.0005403	30.4219999313
990.0	0.0005383	30.4530000687
990.0	0.0005383	30.5
990.0	0.0005388	30.5469999313
990.0	0.0005383	30.5780000687
990.0	0.000538	30.625
990.0	0.0005403	30.6719999313
990.0	0.0005388	30.7030000687
990.0	0.0005383	30.75
990.0	0.000538	30.7809998989
990.0	0.0005405	30.8280000687
990.0	0.0005405	30.875
990.0	0.0005388	30.9059998989
990.0	0.0005383	30.9530000687
990.0	0.0005375	31.0
990.0	0.0005388	31.0309998989
990.0	0.00054	31.0780000687
990.0	0.000539	31.125
990.0	0.0005395	31.1559998989
990.0	0.0005383	31.2030000687
990.0	0.0005393	31.25
990.0	0.0005405	31.2809998989
990.0	0.0005393	31.3280000687
990.0	0.000539	31.3589999676
990.0	0.000539	31.4059998989
990.0	0.0005405	31.4530000687
1000.0	0.000554	31.7339999676
1000.0	0.000559	31.7660000324
1000.0	0.0005608	31.8120000362
1000.0	0.0005645	31.8439998627
1000.0	0.000567	31.8910000324
1000.0	0.0005688	31.9370000362
1000.0	0.0005728	31.9689998627
1000.0	0.0005738	32.0160000324
1000.0	0.000572	32.0620000362
1000.0	0.000572	32.0939998627
1000.0	0.0005745	32.1410000324
1000.0	0.0005753	32.1870000362
1000.0	0.0005738	32.2189998627
1000.0	0.0005738	32.2660000324
1000.0	0.0005738	32.2969999313
1000.0	0.0005758	32.3439998627
1000.0	0.0005743	32.3910000324
1000.0	0.000574	32.4219999313
1000.0	0.0005743	32.4689998627
1000.0	0.0005743	32.5160000324
1000.0	0.0005755	32.5469999313
1000.0	0.0005768	32.5939998627
1000.0	0.0005753	32.6410000324
1000.0	0.0005753	32.6719999313
1000.0	0.000575	32.7189998627
1000.0	0.000577	32.7660000324
1000.0	0.0005775	32.7969999313
1000.0	0.0005755	32.8439998627
1000.0	0.0005755	32.875
1000.0	0.0005755	32.9219999313
1000.0	0.0005778	32.9689998627
1000.0	0.0005768	33.0
1000.0	0.0005763	33.0469999313
1000.0	0.0005745	33.0939998627
1000.0	0.0005755	33.125
1000.0	0.0005768	33.1719999313
1000.0	0.0005755	33.2189998627
1010.0	0.0005888	33.4839999676
1010.0	0.000593	33.5309998989
1010.0	0.0005965	33.5780000687
1010.0	0.0006028	33.6089999676
1010.0	0.000603	33.6559998989
1010.0	0.000607	33.7030000687
1010.0	0.0006065	33.7339999676
1010.0	0.0006068	33.7809998989
1010.0	0.0006078	33.8280000687
1010.0	0.0006103	33.8589999676
1010.0	0.0006115	33.9059998989
1010.0	0.00061	33.9530000687
1010.0	0.0006095	33.9839999676
1010.0	0.0006088	34.0309998989
1010.0	0.0006113	34.0620000362
1010.0	0.0006113	34.1089999676
1010.0	0.0006093	34.1559998989
1010.0	0.0006088	34.1870000362
1010.0	0.0006108	34.2339999676
1010.0	0.0006105	34.2809998989
1010.0	0.0006088	34.3120000362
1010.0	0.000609	34.3589999676
1010.0	0.000609	34.3910000324
1010.0	0.000612	34.4370000362
1010.0	0.0006125	34.4839999676
1010.0	0.0006103	34.5160000324
1010.0	0.0006095	34.5620000362
1010.0	0.00061	34.6089999676
1010.0	0.0006103	34.6410000324
1010.0	0.0006105	34.6870000362
1010.0	0.0006088	34.7189998627
1010.0	0.0006088	34.7660000324
1010.0	0.0006105	34.8120000362
1010.0	0.00061	34.8439998627
1010.0	0.00061	34.8910000324
1010.0	0.000608	34.9370000362
1010.0	0.0006078	34.9689998627
1020.0	0.0006243	35.25
1020.0	0.000629	35.2969999313
1020.0	0.0006313	35.3439998627
1020.0	0.0006358	35.375
1020.0	0.0006363	35.4219999313
1020.0	0.0006375	35.4689998627
1020.0	0.0006383	35.5
1020.0	0.000641	35.5469999313
1020.0	0.0006423	35.5939998627
1020.0	0.0006403	35.625
1020.0	0.0006405	35.6719999313
1020.0	0.0006405	35.7030000687
1020.0	0.0006428	35.75
1020.0	0.0006403	35.7969999313
1020.0	0.0006405	35.8280000687
1020.0	0.0006403	35.875
1020.0	0.0006415	35.9059998989
1020.0	0.0006428	35.9530000687
1020.0	0.0006428	36.0
1020.0	0.000641	36.0309998989
1020.0	0.0006403	36.0780000687
1020.0	0.000643	36.125
1020.0	0.0006448	36.1559998989
1020.0	0.0006428	36.2030000687
1020.0	0.0006425	36.25
1020.0	0.0006435	36.2809998989
1020.0	0.000644	36.3280000687
1020.0	0.000644	36.3589999676
1020.0	0.0006415	36.4059998989
1020.0	0.0006415	36.4530000687
1020.0	0.0006435	36.4839999676
1020.0	0.0006438	36.5309998989
1020.0	0.0006415	36.5780000687
1020.0	0.0006415	36.6089999676
1020.0	0.0006405	36.6559998989
1020.0	0.0006428	36.6870000362
1020.0	0.000644	36.7339999676
1030.0	0.000655	37.0160000324
1030.0	0.0006615	37.0620000362
1030.0	0.0006635	37.0939998627
1030.0	0.0006665	37.1410000324
1030.0	0.0006685	37.1719999313
1030.0	0.0006725	37.2189998627
1030.0	0.0006725	37.2660000324
1030.0	0.0006735	37.2969999313
1030.0	0.0006735	37.3439998627
1030.0	0.0006773	37.3910000324
1030.0	0.0006788	37.4219999313
1030.0	0.0006768	37.4689998627
1030.0	0.0006773	37.5160000324
1030.0	0.0006773	37.5469999313
1030.0	0.0006773	37.5939998627
1030.0	0.0006798	37.6410000324
1030.0	0.000679	37.6719999313
1030.0	0.0006788	37.7189998627
1030.0	0.000678	37.7660000324
1030.0	0.0006805	37.7969999313
1030.0	0.000681	37.8439998627
1030.0	0.000679	37.875
1030.0	0.0006788	37.9219999313
1030.0	0.000678	37.9689998627
1030.0	0.0006805	38.0
1030.0	0.000679	38.0469999313
1030.0	0.0006785	38.0939998627
1030.0	0.000678	38.125
1030.0	0.0006798	38.1719999313
1030.0	0.0006805	38.2030000687
1030.0	0.0006805	38.25
1030.0	0.0006788	38.2969999313
1030.0	0.0006785	38.3280000687
1030.0	0.0006805	38.375
1030.0	0.000681	38.4219999313
1030.0	0.0006788	38.4530000687
1030.0	0.0006785	38.5
1040.0	0.0006915	38.7809998989
1040.0	0.0006963	38.8280000687
1040.0	0.0006998	38.8589999676
1040.0	0.0007048	38.9059998989
1040.0	0.0007075	38.9370000362
1040.0	0.0007073	38.9839999676
1040.0	0.000709	39.0309998989
1040.0	0.0007098	39.0620000362
1040.0	0.0007118	39.1089999676
1040.0	0.000713	39.1559998989
1040.0	0.0007118	39.1870000362
1040.0	0.0007123	39.2339999676
1040.0	0.0007118	39.2660000324
1040.0	0.0007143	39.3120000362
1040.0	0.0007148	39.3589999676
1040.0	0.0007118	39.3910000324
1040.0	0.000711	39.4370000362
1040.0	0.000711	39.4839999676
1040.0	0.0007135	39.5160000324
1040.0	0.000711	39.5620000362
1040.0	0.0007103	39.6089999676
1040.0	0.00071	39.6410000324
1040.0	0.0007123	39.6870000362
1040.0	0.0007135	39.7189998627
1040.0	0.0007115	39.7660000324
1040.0	0.0007115	39.8120000362
1040.0	0.0007113	39.8439998627
1040.0	0.0007128	39.8910000324
1040.0	0.0007138	39.9370000362
1040.0	0.000711	39.9689998627
1040.0	0.0007105	40.0160000324
1040.0	0.000713	40.0620000362
1040.0	0.0007115	40.0939998627
1040.0	0.000713	40.1410000324
1040.0	0.0007105	40.1870000362
1040.0	0.000711	40.2189998627
1040.0	0.0007103	40.2660000324
1050.0	0.0007248	40.5469999313
1050.0	0.000728	40.5780000687
1050.0	0.0007328	40.625
1050.0	0.0007335	40.6719999313
1050.0	0.000736	40.7030000687
1050.0	0.000738	40.75
1050.0	0.0007415	40.7969999313
1050.0	0.0007423	40.8280000687
1050.0	0.000741	40.875
1050.0	0.0007413	40.9059998989
1050.0	0.0007415	40.9530000687
1050.0	0.000744	41.0
1050.0	0.0007443	41.0309998989
1050.0	0.0007425	41.0780000687
1050.0	0.0007423	41.1089999676
1050.0	0.0007435	41.1559998989
1050.0	0.0007465	41.2030000687
1050.0	0.0007435	41.2339999676
1050.0	0.0007435	41.2809998989
1050.0	0.0007435	41.3280000687
1050.0	0.0007453	41.3589999676
1050.0	0.000743	41.4059998989
1050.0	0.0007435	41.4530000687
1050.0	0.0007435	41.4839999676
1050.0	0.0007428	41.5309998989
1050.0	0.0007455	41.5620000362
1050.0	0.000743	41.6089999676
1050.0	0.0007435	41.6559998989
1050.0	0.0007435	41.6870000362
1050.0	0.000746	41.7339999676
1050.0	0.000746	41.7809998989
1050.0	0.0007448	41.8120000362
1050.0	0.000744	41.8589999676
1050.0	0.0007443	41.8910000324
1050.0	0.0007475	41.9370000362
1050.0	0.0007473	41.9839999676
1050.0	0.000745	42.0160000324
1060.0	0.0007573	42.2969999313
1060.0	0.0007623	42.3439998627
1060.0	0.0007653	42.375
1060.0	0.0007703	42.4219999313
1060.0	0.0007735	42.4689998627
1060.0	0.000773	42.5
1060.0	0.0007748	42.5469999313
1060.0	0.000776	42.5939998627
1060.0	0.0007793	42.625
1060.0	0.0007798	42.6719999313
1060.0	0.0007778	42.7189998627
1060.0	0.0007778	42.75
1060.0	0.0007785	42.7969999313
1060.0	0.0007805	42.8280000687
1060.0	0.000779	42.875
1060.0	0.0007785	42.9219999313
1060.0	0.000778	42.9530000687
1060.0	0.00078	43.0
1060.0	0.0007805	43.0469999313
1060.0	0.0007785	43.0780000687
1060.0	0.0007785	43.125
1060.0	0.000779	43.1559998989
1060.0	0.000781	43.2030000687
1060.0	0.000778	43.25
1060.0	0.000781	43.2969999313
1060.0	0.000779	43.3280000687
1060.0	0.000779	43.375
1060.0	0.000778	43.4059998989
1060.0	0.0007803	43.4530000687
1060.0	0.000778	43.5
1060.0	0.0007785	43.5309998989
1060.0	0.0007778	43.5780000687
1060.0	0.00078	43.625
1060.0	0.000781	43.6559998989
1060.0	0.0007788	43.7030000687
1060.0	0.000778	43.7339999676
1070.0	0.0007898	44.0160000324
1070.0	0.0007915	44.0620000362
1070.0	0.000798	44.1089999676
1070.0	0.0007993	44.1559998989
1070.0	0.0008018	44.1870000362
1070.0	0.0008015	44.2339999676
1070.0	0.0008028	44.2660000324
1070.0	0.0008028	44.3120000362
1070.0	0.0008073	44.3589999676
1070.0	0.0008085	44.3910000324
1070.0	0.0008068	44.4370000362
1070.0	0.0008063	44.4839999676
1070.0	0.0008078	44.5160000324
1070.0	0.0008078	44.5620000362
1070.0	0.0008093	44.6089999676
1070.0	0.0008073	44.6410000324
1070.0	0.0008073	44.6870000362
1070.0	0.0008073	44.7339999676
1070.0	0.0008085	44.7660000324
1070.0	0.0008098	44.8120000362
1070.0	0.000808	44.8439998627
1070.0	0.0008073	44.8910000324
1070.0	0.0008073	44.9370000362
1070.0	0.00081	44.9689998627
1070.0	0.0008093	45.0160000324
1070.0	0.0008065	45.0620000362
1070.0	0.0008073	45.0939998627
1070.0	0.0008093	45.1410000324
1070.0	0.00081	45.1870000362
1070.0	0.0008073	45.2189998627
1070.0	0.0008073	45.2660000324
1070.0	0.0008073	45.2969999313
1070.0	0.0008093	45.3439998627
1070.0	0.0008098	45.3910000324
1070.0	0.0008073	45.4219999313
1070.0	0.0008075	45.4689998627
1070.0	0.0008073	45.5160000324
1080.0	0.0008215	45.7809998989
1080.0	0.0008228	45.8280000687
1080.0	0.0008288	45.875
1080.0	0.0008298	45.9059998989
1080.0	0.0008318	45.9530000687
1080.0	0.000833	46.0
1080.0	0.0008373	46.0309998989
1080.0	0.0008388	46.0780000687
1080.0	0.0008365	46.1089999676
1080.0	0.0008375	46.1559998989
1080.0	0.0008375	46.2030000687
1080.0	0.0008413	46.2339999676
1080.0	0.0008398	46.2809998989
1080.0	0.000839	46.3280000687
1080.0	0.000839	46.3589999676
1080.0	0.0008415	46.4059998989
1080.0	0.0008423	46.4370000362
1080.0	0.0008418	46.4839999676
1080.0	0.000839	46.5309998989
1080.0	0.0008385	46.5620000362
1080.0	0.000841	46.6089999676
1080.0	0.0008415	46.6559998989
1080.0	0.0008385	46.6870000362
1080.0	0.0008388	46.7339999676
1080.0	0.0008378	46.7660000324
1080.0	0.0008415	46.8120000362
1080.0	0.0008423	46.8589999676
1080.0	0.0008398	46.8910000324
1080.0	0.0008398	46.9370000362
1080.0	0.0008438	46.9839999676
1080.0	0.0008423	47.0160000324
1080.0	0.0008405	47.0620000362
1080.0	0.0008393	47.1089999676
1080.0	0.000839	47.1410000324
1080.0	0.000841	47.1870000362
1080.0	0.0008418	47.2189998627
1080.0	0.000839	47.2660000324
1090.0	0.000851	47.5469999313
1090.0	0.0008535	47.5780000687
1090.0	0.0008598	47.625
1090.0	0.000859	47.6719999313
1090.0	0.0008648	47.7030000687
1090.0	0.0008665	47.75
1090.0	0.0008638	47.7969999313
1090.0	0.0008638	47.8280000687
1090.0	0.0008668	47.875
1090.0	0.0008678	47.9219999313
1090.0	0.0008653	47.9530000687
1090.0	0.0008653	48.0
1090.0	0.0008643	48.0309998989
1090.0	0.000868	48.0780000687
1090.0	0.0008688	48.125
1090.0	0.000866	48.1559998989
1090.0	0.0008655	48.2030000687
1090.0	0.0008688	48.25
1090.0	0.000865	48.2969999313
1090.0	0.0008678	48.3280000687
1090.0	0.000864	48.375
1090.0	0.000864	48.4059998989
1090.0	0.0008635	48.4530000687
1090.0	0.0008665	48.5
1090.0	0.0008668	48.5309998989
1090.0	0.000864	48.5780000687
1090.0	0.0008638	48.625
1090.0	0.0008655	48.6559998989
1090.0	0.0008663	48.7030000687
1090.0	0.0008648	48.7339999676
1090.0	0.0008638	48.7809998989
1090.0	0.000864	48.8280000687
1090.0	0.0008668	48.8589999676
1090.0	0.0008665	48.9059998989
1090.0	0.000864	48.9530000687
1090.0	0.000864	48.9839999676
1090.0	0.000863	49.0309998989
1100.0	0.0008715	49.2969999313
1100.0	0.0008785	49.3439998627
1100.0	0.0008785	49.375
1100.0	0.000881	49.4219999313
1100.0	0.000884	49.4689998627
1100.0	0.0008885	49.5
1100.0	0.0008888	49.5469999313
1100.0	0.0008873	49.5939998627
1100.0	0.0008878	49.625
1100.0	0.0008905	49.6719999313
1100.0	0.0008923	49.7030000687
1100.0	0.0008893	49.75
1100.0	0.0008893	49.7969999313
1100.0	0.000889	49.8280000687
1100.0	0.0008923	49.875
1100.0	0.000891	49.9219999313
1100.0	0.0008893	49.9530000687
1100.0	0.0008885	50.0
1100.0	0.000889	50.0309998989
1100.0	0.0008913	50.0780000687
1100.0	0.000888	50.125
1100.0	0.0008873	50.1559998989
1100.0	0.0008868	50.2030000687
1100.0	0.000889	50.25
1100.0	0.000889	50.2809998989
1100.0	0.0008888	50.3280000687
1100.0	0.000889	50.3589999676
1100.0	0.0008898	50.4059998989
1100.0	0.0008928	50.4530000687
1100.0	0.000893	50.4839999676
1100.0	0.0008903	50.5309998989
1100.0	0.0008903	50.5780000687
1100.0	0.0008928	50.6089999676
1100.0	0.0008935	50.6559998989
1100.0	0.00089	50.7030000687
1100.0	0.0008898	50.7339999676
1100.0	0.0008893	50.7809998989
1110.0	0.0008985	51.0469999313
1110.0	0.000904	51.0939998627
1110.0	0.0009035	51.125
1110.0	0.0009055	51.1719999313
1110.0	0.0009065	51.2189998627
1110.0	0.0009113	51.25
1110.0	0.0009125	51.2969999313
1110.0	0.0009103	51.3439998627
1110.0	0.0009113	51.375
1110.0	0.0009118	51.4219999313
1110.0	0.0009153	51.4530000687
1110.0	0.0009153	51.5
1110.0	0.0009123	51.5469999313
1110.0	0.0009123	51.5780000687
1110.0	0.000916	51.625
1110.0	0.000916	51.6719999313
1110.0	0.0009125	51.7030000687
1110.0	0.0009118	51.75
1110.0	0.0009128	51.7809998989
1110.0	0.0009163	51.8280000687
1110.0	0.0009155	51.875
1110.0	0.0009128	51.9219999313
1110.0	0.000913	51.9530000687
1110.0	0.0009125	52.0
1110.0	0.000915	52.0469999313
1110.0	0.0009148	52.0780000687
1110.0	0.0009123	52.125
1110.0	0.0009123	52.1559998989
1110.0	0.0009113	52.2030000687
1110.0	0.0009135	52.25
1110.0	0.000914	52.2809998989
1110.0	0.0009115	52.3280000687
1110.0	0.0009115	52.3589999676
1110.0	0.0009115	52.4059998989
1110.0	0.0009115	52.4530000687
1110.0	0.0009123	52.5
1120.0	0.0009175	52.7660000324
1120.0	0.000919	52.7969999313
1120.0	0.0009223	52.8439998627
1120.0	0.000926	52.8910000324
1120.0	0.0009248	52.9219999313
1120.0	0.000925	52.9689998627
1120.0	0.0009268	53.0160000324
1120.0	0.0009285	53.0469999313
1120.0	0.0009298	53.0939998627
1120.0	0.0009273	53.1410000324
1120.0	0.0009278	53.1719999313
1120.0	0.0009275	53.2189998627
1120.0	0.000929	53.2660000324
1120.0	0.0009318	53.2969999313
1120.0	0.000929	53.3439998627
1120.0	0.0009288	53.375
1120.0	0.0009275	53.4219999313
1120.0	0.0009303	53.4689998627
1120.0	0.0009313	53.5
1120.0	0.0009285	53.5469999313
1120.0	0.0009278	53.5939998627
1120.0	0.0009273	53.625
1120.0	0.0009303	53.6719999313
1120.0	0.0009313	53.7030000687
1120.0	0.0009275	53.75
1120.0	0.0009285	53.7969999313
1120.0	0.0009315	53.8280000687
1120.0	0.0009313	53.875
1120.0	0.000931	53.9219999313
1120.0	0.0009278	53.9530000687
1120.0	0.0009273	54.0
1120.0	0.0009293	54.0469999313
1120.0	0.0009305	54.1089999676
1120.0	0.000931	54.1559998989
1120.0	0.0009288	54.1870000362
1120.0	0.0009285	54.2339999676
1130.0	0.000934	54.5
1130.0	0.000939	54.5469999313
1130.0	0.000939	54.5780000687
1130.0	0.0009398	54.625
1130.0	0.0009405	54.6559998989
1130.0	0.0009453	54.7030000687
1130.0	0.0009435	54.75
1130.0	0.000944	54.7809998989
1130.0	0.0009443	54.8280000687
1130.0	0.000946	54.875
1130.0	0.000949	54.9059998989
1130.0	0.0009455	54.9530000687
1130.0	0.0009463	54.9839999676
1130.0	0.0009468	55.0309998989
1130.0	0.0009503	55.0780000687
1130.0	0.0009498	55.125
1130.0	0.000951	55.1559998989
1130.0	0.0009498	55.2030000687
1130.0	0.0009493	55.2339999676
1130.0	0.0009485	55.2809998989
1130.0	0.0009515	55.3280000687
1130.0	0.0009518	55.3589999676
1130.0	0.0009485	55.4059998989
1130.0	0.0009475	55.4530000687
1130.0	0.0009515	55.4839999676
1130.0	0.0009515	55.5309998989
1130.0	0.0009485	55.5780000687
1130.0	0.000948	55.6089999676
1130.0	0.0009475	55.6559998989
1130.0	0.0009503	55.6870000362
1130.0	0.0009478	55.7339999676
1130.0	0.0009473	55.7809998989
1130.0	0.0009473	55.8120000362
1130.0	0.0009475	55.8589999676
1130.0	0.0009498	55.9059998989
1130.0	0.00095	55.9370000362
1130.0	0.000948	55.9839999676
1140.0	0.0009523	56.25
1140.0	0.0009573	56.2969999313
1140.0	0.0009555	56.3280000687
1140.0	0.0009563	56.375
1140.0	0.0009563	56.4059998989
1140.0	0.0009593	56.4530000687
1140.0	0.0009603	56.5
1140.0	0.0009578	56.5309998989
1140.0	0.0009578	56.5780000687
1140.0	0.0009585	56.625
1140.0	0.000961	56.6559998989
1140.0	0.0009598	56.7030000687
1140.0	0.0009585	56.7339999676
1140.0	0.0009585	56.7809998989
1140.0	0.0009585	56.8280000687
1140.0	0.0009615	56.8589999676
1140.0	0.0009588	56.9059998989
1140.0	0.0009588	56.9530000687
1140.0	0.000959	56.9839999676
1140.0	0.0009605	57.0309998989
1140.0	0.0009613	57.0620000362
1140.0	0.0009588	57.1089999676
1140.0	0.0009578	57.1559998989
1140.0	0.000959	57.1870000362
1140.0	0.0009605	57.2339999676
1140.0	0.0009603	57.2809998989
1140.0	0.0009578	57.3120000362
1140.0	0.0009578	57.3589999676
1140.0	0.0009605	57.4059998989
1140.0	0.0009605	57.4370000362
1140.0	0.0009605	57.4839999676
1140.0	0.0009598	57.5309998989
1140.0	0.0009578	57.5620000362
1140.0	0.0009573	57.6089999676
1140.0	0.0009605	57.6559998989
1140.0	0.0009603	57.6870000362
1140.0	0.0009588	57.7339999676
1150.0	0.0009618	58.0
1150.0	0.000965	58.0469999313
1150.0	0.0009688	58.0780000687
1150.0	0.0009698	58.125
1150.0	0.0009673	58.1719999313
1150.0	0.0009678	58.2030000687
1150.0	0.0009728	58.25
1150.0	0.0009723	58.2969999313
1150.0	0.0009698	58.3280000687
1150.0	0.0009705	58.375
1150.0	0.0009698	58.4059998989
1150.0	0.0009735	58.4530000687
1150.0	0.000971	58.5
1150.0	0.000971	58.5309998989
1150.0	0.000971	58.5780000687
1150.0	0.000974	58.625
1150.0	0.0009743	58.6559998989
1150.0	0.0009753	58.7030000687
1150.0	0.0009728	58.7339999676
1150.0	0.0009723	58.7809998989
1150.0	0.0009743	58.8280000687
1150.0	0.000976	58.8589999676
1150.0	0.0009728	58.9059998989
1150.0	0.0009728	58.9530000687
1150.0	0.0009735	58.9839999676
1150.0	0.0009773	59.0309998989
1150.0	0.0009768	59.0620000362
1150.0	0.0009735	59.1089999676
1150.0	0.0009715	59.1559998989
1150.0	0.0009755	59.1870000362
1150.0	0.0009765	59.2339999676
1150.0	0.000973	59.2809998989
1150.0	0.0009735	59.3120000362
1150.0	0.0009723	59.3589999676
1150.0	0.0009753	59.4059998989
1150.0	0.000976	59.4370000362
1150.0	0.0009728	59.4839999676
1160.0	0.000981	59.75
1160.0	0.0009815	59.7809998989
1160.0	0.0009798	59.8280000687
1160.0	0.00098	59.8589999676
1160.0	0.0009818	59.9059998989
1160.0	0.0009843	59.9530000687
1160.0	0.0009855	59.9839999676
1160.0	0.0009818	60.0309998989
1160.0	0.0009805	60.0780000687
1160.0	0.0009843	60.1089999676
1160.0	0.0009855	60.1559998989
1160.0	0.0009823	60.2030000687
1160.0	0.0009815	60.2339999676
1160.0	0.0009815	60.2809998989
1160.0	0.0009843	60.3120000362
1160.0	0.0009843	60.3589999676
1160.0	0.000981	60.4059998989
1160.0	0.0009805	60.4370000362
1160.0	0.0009813	60.4839999676
1160.0	0.0009848	60.5309998989
1160.0	0.0009848	60.5620000362
1160.0	0.000981	60.6089999676
1160.0	0.000981	60.6410000324
1160.0	0.0009818	60.6870000362
1160.0	0.000984	60.7339999676
1160.0	0.0009828	60.7660000324
1160.0	0.00098	60.8120000362
1160.0	0.0009798	60.8589999676
1160.0	0.0009818	60.8910000324
1160.0	0.0009843	60.9370000362
1160.0	0.000981	60.9689998627
1160.0	0.0009803	61.0160000324
1160.0	0.0009805	61.0620000362
1160.0	0.0009838	61.0939998627
1160.0	0.0009843	61.1410000324
1160.0	0.000981	61.1870000362
1160.0	0.0009803	61.2189998627
1170.0	0.0009838	61.5
1170.0	0.0009885	61.5309998989
1170.0	0.000986	61.5780000687
1170.0	0.0009875	61.6089999676
1170.0	0.0009888	61.6559998989
1170.0	0.0009928	61.7030000687
1170.0	0.0009938	61.7339999676
1170.0	0.0009903	61.7809998989
1170.0	0.000991	61.8280000687
1170.0	0.0009903	61.8589999676
1170.0	0.000994	61.9059998989
1170.0	0.0009955	61.9370000362
1170.0	0.0009918	61.9839999676
1170.0	0.0009915	62.0309998989
1170.0	0.000993	62.0620000362
1170.0	0.000996	62.1089999676
1170.0	0.0009923	62.1559998989
1170.0	0.000993	62.1870000362
1170.0	0.000994	62.2339999676
1170.0	0.0009968	62.2809998989
1170.0	0.0009973	62.3120000362
1170.0	0.0009938	62.3589999676
1170.0	0.0009935	62.3910000324
1170.0	0.000994	62.4370000362
1170.0	0.0009978	62.4839999676
1170.0	0.000996	62.5160000324
1170.0	0.0009953	62.5620000362
1170.0	0.000994	62.6089999676
1170.0	0.0009975	62.6410000324
1170.0	0.0009973	62.6870000362
1170.0	0.0009935	62.7189998627
1170.0	0.0009935	62.7660000324
1170.0	0.0009925	62.8120000362
1170.0	0.000996	62.8439998627
1170.0	0.0009948	62.8910000324
1170.0	0.0009935	62.9370000362
1170.0	0.0009935	62.9689998627
1180.0	0.000996	63.25
1180.0	0.0009993	63.2809998989
1180.0	0.0009998	63.3280000687
1180.0	0.0009985	63.3589999676
1180.0	0.000999	63.4059998989
1180.0	0.0009988	63.4530000687
1180.0	0.001003	63.4839999676
1180.0	0.0010043	63.5309998989
1180.0	0.001001	63.5780000687
1180.0	0.0010015	63.6089999676
1180.0	0.0010043	63.6559998989
1180.0	0.0010055	63.6870000362
1180.0	0.0010015	63.7339999676
1180.0	0.0010005	63.7809998989
1180.0	0.001	63.8120000362
1180.0	0.0010025	63.8589999676
1180.0	0.001	63.9059998989
1180.0	0.0010005	63.9530000687
1180.0	0.001	63.9839999676
1180.0	0.0009998	64.0309998989
1180.0	0.001003	64.0620000362
1180.0	0.001003	64.1089999676
1180.0	0.0009998	64.1559998989
1180.0	0.0009998	64.1870000362
1180.0	0.0009993	64.2339999676
1180.0	0.001003	64.2809998989
1180.0	0.0010035	64.3120000362
1180.0	0.0009998	64.3589999676
1180.0	0.0009993	64.3910000324
1180.0	0.000998	64.4370000362
1180.0	0.0010028	64.4839999676
1180.0	0.0010038	64.5160000324
1180.0	0.0010003	64.5620000362
1180.0	0.0010013	64.6089999676
1180.0	0.001004	64.6410000324
1180.0	0.001003	64.6870000362
1180.0	0.0009998	64.7189998627
1190.0	0.0010073	65.0
1190.0	0.0010065	65.0309998989
1190.0	0.0010098	65.0780000687
1190.0	0.001011	65.125
1190.0	0.001009	65.1559998989
1190.0	0.001009	65.2030000687
1190.0	0.001009	65.25
1190.0	0.0010125	65.2809998989
1190.0	0.0010093	65.3280000687
1190.0	0.0010103	65.375
1190.0	0.0010103	65.4059998989
1190.0	0.0010113	65.4530000687
1190.0	0.0010148	65.5
1190.0	0.0010153	65.5309998989
1190.0	0.0010118	65.5780000687
1190.0	0.0010123	65.6089999676
1190.0	0.0010128	65.6559998989
1190.0	0.0010155	65.7030000687
1190.0	0.001015	65.7339999676
1190.0	0.0010113	65.7809998989
1190.0	0.0010118	65.8280000687
1190.0	0.0010138	65.8589999676
1190.0	0.0010163	65.9059998989
1190.0	0.0010155	65.9530000687
1190.0	0.0010123	65.9839999676
1190.0	0.0010115	66.0309998989
1190.0	0.001015	66.0620000362
1190.0	0.0010155	66.1089999676
1190.0	0.0010115	66.1559998989
1190.0	0.0010115	66.1870000362
1190.0	0.0010118	66.2339999676
1190.0	0.001014	66.2809998989
1190.0	0.0010148	66.3120000362
1190.0	0.0010105	66.3589999676
1190.0	0.001011	66.3910000324
1190.0	0.0010143	66.4370000362
1190.0	0.001014	66.4839999676
1200.0	0.0010155	66.75
1200.0	0.001013	66.7969999313
1200.0	0.001015	66.8280000687
1200.0	0.001019	66.875
1200.0	0.0010198	66.9219999313
1200.0	0.0010173	66.9530000687
1200.0	0.0010165	67.0
1200.0	0.0010205	67.0309998989
1200.0	0.0010205	67.0780000687
1200.0	0.00102	67.125
1200.0	0.0010173	67.1559998989
1200.0	0.0010168	67.2030000687
1200.0	0.0010215	67.25
1200.0	0.0010205	67.2809998989
1200.0	0.0010215	67.3280000687
1200.0	0.001018	67.3589999676
1200.0	0.0010168	67.4059998989
1200.0	0.001021	67.4530000687
1200.0	0.0010205	67.4839999676
1200.0	0.0010178	67.5309998989
1200.0	0.0010175	67.5780000687
1200.0	0.0010173	67.6089999676
1200.0	0.0010215	67.6559998989
1200.0	0.0010188	67.6870000362
1200.0	0.0010185	67.7339999676
1200.0	0.001019	67.7809998989
1200.0	0.0010213	67.8120000362
1200.0	0.0010223	67.8589999676
1200.0	0.0010223	67.9059998989
1200.0	0.0010198	67.9370000362
1200.0	0.0010205	67.9839999676
1200.0	0.0010238	68.0309998989
1200.0	0.0010235	68.0620000362
1200.0	0.0010203	68.1089999676
1200.0	0.0010198	68.1410000324
1200.0	0.00102	68.1870000362
1200.0	0.001023	68.2339999676
1210.0	0.001026	68.5
1210.0	0.0010248	68.5309998989
1210.0	0.0010253	68.5780000687
1210.0	0.0010298	68.625
1210.0	0.0010273	68.6559998989
1210.0	0.0010285	68.7030000687
1210.0	0.0010313	68.75
1210.0	0.0010275	68.7809998989
1210.0	0.0010315	68.8280000687
1210.0	0.0010298	68.875
1210.0	0.0010275	68.9059998989
1210.0	0.0010275	68.9530000687
1210.0	0.001028	69.0
1210.0	0.0010315	69.0309998989
1210.0	0.00103	69.0780000687
1210.0	0.001028	69.1089999676
1210.0	0.0010273	69.1559998989
1210.0	0.001031	69.2030000687
1210.0	0.0010305	69.2339999676
1210.0	0.0010298	69.2809998989
1210.0	0.0010268	69.3280000687
1210.0	0.0010268	69.3589999676
1210.0	0.0010303	69.4059998989
1210.0	0.0010298	69.4370000362
1210.0	0.0010268	69.4839999676
1210.0	0.0010263	69.5309998989
1210.0	0.0010298	69.5620000362
1210.0	0.0010298	69.6089999676
1210.0	0.0010298	69.6559998989
1210.0	0.0010265	69.6870000362
1210.0	0.0010265	69.7339999676
1210.0	0.0010293	69.7809998989
1210.0	0.0010298	69.8120000362
1210.0	0.001026	69.8589999676
1210.0	0.0010255	69.8910000324
1210.0	0.0010248	69.9370000362
1210.0	0.001029	69.9839999676
1220.0	0.0010313	70.25
1220.0	0.0010298	70.2809998989
1220.0	0.0010305	70.3280000687
1220.0	0.0010348	70.375
1220.0	0.0010343	70.4059998989
1220.0	0.0010323	70.4530000687
1220.0	0.0010318	70.4839999676
1220.0	0.0010315	70.5309998989
1220.0	0.0010348	70.5780000687
1220.0	0.0010323	70.6089999676
1220.0	0.0010323	70.6559998989
1220.0	0.0010313	70.7030000687
1220.0	0.0010353	70.7339999676
1220.0	0.001035	70.7809998989
1220.0	0.0010325	70.8280000687
1220.0	0.0010318	70.8589999676
1220.0	0.0010328	70.9059998989
1220.0	0.0010353	70.9370000362
1220.0	0.0010325	70.9839999676
1220.0	0.0010325	71.0309998989
1220.0	0.0010318	71.0620000362
1220.0	0.0010328	71.1089999676
1220.0	0.001035	71.1559998989
1220.0	0.0010348	71.1870000362
1220.0	0.0010323	71.2339999676
1220.0	0.0010323	71.2660000324
1220.0	0.0010355	71.3120000362
1220.0	0.001035	71.3589999676
1220.0	0.0010325	71.3910000324
1220.0	0.0010325	71.4370000362
1220.0	0.001031	71.4839999676
1220.0	0.0010353	71.5160000324
1220.0	0.0010348	71.5620000362
1220.0	0.0010323	71.5939998627
1220.0	0.0010325	71.6410000324
1220.0	0.0010353	71.6870000362
1220.0	0.0010355	71.7189998627
1230.0	0.0010375	71.9839999676
1230.0	0.0010353	72.0309998989
1230.0	0.0010375	72.0780000687
1230.0	0.0010385	72.1089999676
1230.0	0.0010373	72.1559998989
1230.0	0.0010378	72.2030000687
1230.0	0.0010365	72.2339999676
1230.0	0.0010385	72.2809998989
1230.0	0.0010375	72.3120000362
1230.0	0.0010363	72.3589999676
1230.0	0.0010365	72.4059998989
1230.0	0.0010385	72.4370000362
1230.0	0.001038	72.4839999676
1230.0	0.0010373	72.5309998989
1230.0	0.0010353	72.5620000362
1230.0	0.0010348	72.6089999676
1230.0	0.001038	72.6410000324
1230.0	0.0010385	72.6870000362
1230.0	0.0010378	72.7339999676
1230.0	0.001036	72.7660000324
1230.0	0.0010353	72.8120000362
1230.0	0.0010385	72.8589999676
1230.0	0.0010375	72.8910000324
1230.0	0.0010355	72.9370000362
1230.0	0.001036	72.9839999676
1230.0	0.0010373	73.0160000324
1230.0	0.0010375	73.0620000362
1230.0	0.0010365	73.0939998627
1230.0	0.0010353	73.1410000324
1230.0	0.0010355	73.1870000362
1230.0	0.0010385	73.2189998627
1230.0	0.0010375	73.2660000324
1230.0	0.001035	73.3120000362
1230.0	0.0010348	73.3439998627
1230.0	0.001036	73.3910000324
1230.0	0.001038	73.4219999313
1230.0	0.0010375	73.4689998627
1240.0	0.0010373	73.7339999676
1240.0	0.0010385	73.7809998989
1240.0	0.0010373	73.8120000362
1240.0	0.0010378	73.8589999676
1240.0	0.001038	73.9059998989
1240.0	0.0010378	73.9370000362
1240.0	0.0010385	73.9839999676
1240.0	0.0010373	74.0309998989
1240.0	0.0010378	74.0620000362
1240.0	0.0010375	74.1089999676
1240.0	0.0010388	74.1410000324
1240.0	0.0010385	74.1870000362
1240.0	0.0010373	74.2339999676
1240.0	0.0010378	74.2660000324
1240.0	0.0010378	74.3120000362
1240.0	0.0010388	74.3589999676
1240.0	0.0010373	74.3910000324
1240.0	0.0010373	74.4370000362
1240.0	0.0010378	74.4689998627
1240.0	0.0010373	74.5160000324
1240.0	0.001038	74.5620000362
1240.0	0.0010385	74.5939998627
1240.0	0.0010373	74.6410000324
1240.0	0.0010373	74.6870000362
1240.0	0.0010373	74.7189998627
1240.0	0.0010385	74.7660000324
1240.0	0.0010373	74.8120000362
1240.0	0.0010375	74.8439998627
1240.0	0.0010388	74.8910000324
1240.0	0.0010375	74.9370000362
1240.0	0.0010388	74.9689998627
1240.0	0.0010375	75.0160000324
1240.0	0.0010378	75.0620000362
1240.0	0.0010378	75.0939998627
1240.0	0.001038	75.1410000324
1240.0	0.0010385	75.1719999313
1250.0	0.001038	75.4530000687
1250.0	0.0010378	75.4839999676
1250.0	0.001038	75.5309998989
1250.0	0.0010385	75.5620000362
1250.0	0.001036	75.6089999676
1250.0	0.0010378	75.6559998989
1250.0	0.0010378	75.6870000362
1250.0	0.0010385	75.7339999676
1250.0	0.0010385	75.7809998989
1250.0	0.0010373	75.8120000362
1250.0	0.0010378	75.8589999676
1250.0	0.0010373	75.8910000324
1250.0	0.001038	75.9370000362
1250.0	0.001038	75.9839999676
1250.0	0.0010373	76.0160000324
1250.0	0.0010375	76.0620000362
1250.0	0.0010388	76.1089999676
1250.0	0.0010378	76.1410000324
1250.0	0.0010373	76.1870000362
1250.0	0.0010375	76.2189998627
1250.0	0.0010378	76.2660000324
1250.0	0.0010388	76.3120000362
1250.0	0.0010385	76.3439998627
1250.0	0.001036	76.3910000324
1250.0	0.0010375	76.4370000362
1250.0	0.001039	76.4689998627
1250.0	0.001038	76.5160000324
1250.0	0.0010373	76.5620000362
1250.0	0.0010378	76.5939998627
1250.0	0.0010378	76.6410000324
1250.0	0.0010373	76.6719999313
1250.0	0.0010378	76.7189998627
1250.0	0.0010363	76.7660000324
1250.0	0.0010373	76.7969999313
1250.0	0.0010375	76.8439998627
1250.0	0.0010388	76.8910000324
1250.0	0.0010375	76.9219999313
1260.0	0.0010388	77.1870000362
1260.0	0.0010375	77.2339999676
1260.0	0.0010385	77.2809998989
1260.0	0.001036	77.3120000362
1260.0	0.0010373	77.3589999676
1260.0	0.0010373	77.3910000324
1260.0	0.0010388	77.4370000362
1260.0	0.0010385	77.4839999676
1260.0	0.0010373	77.5160000324
1260.0	0.0010373	77.5620000362
1260.0	0.0010375	77.6089999676
1260.0	0.001038	77.6410000324
1260.0	0.0010373	77.6870000362
1260.0	0.0010378	77.7339999676
1260.0	0.0010373	77.7660000324
1260.0	0.0010378	77.8120000362
1260.0	0.0010373	77.8589999676
1260.0	0.0010385	77.8910000324
1260.0	0.0010373	77.9370000362
1260.0	0.0010373	77.9689998627
1260.0	0.0010375	78.0160000324
1260.0	0.0010388	78.0620000362
1260.0	0.0010375	78.0939998627
1260.0	0.0010365	78.1410000324
1260.0	0.0010378	78.1870000362
1260.0	0.0010375	78.2189998627
1260.0	0.0010388	78.2660000324
1260.0	0.0010385	78.3120000362
1260.0	0.0010375	78.3439998627
1260.0	0.0010378	78.3910000324
1260.0	0.0010375	78.4219999313
1260.0	0.0010375	78.4689998627
1260.0	0.0010375	78.5160000324
1260.0	0.0010373	78.5620000362
1260.0	0.0010375	78.5939998627
1260.0	0.0010378	78.6410000324
1260.0	0.0010388	78.6719999313
1270.0	0.0010385	78.9370000362
1270.0	0.0010375	78.9839999676
1270.0	0.0010375	79.0309998989
1270.0	0.0010385	79.0620000362
1270.0	0.0010373	79.1089999676
1270.0	0.0010378	79.1559998989
1270.0	0.0010378	79.1870000362
1270.0	0.0010375	79.2339999676
1270.0	0.0010375	79.2660000324
1270.0	0.0010385	79.3120000362
1270.0	0.0010373	79.3589999676
1270.0	0.0010375	79.3910000324
1270.0	0.0010388	79.4370000362
1270.0	0.0010385	79.4839999676
1270.0	0.0010375	79.5160000324
1270.0	0.0010375	79.5620000362
1270.0	0.0010375	79.6089999676
1270.0	0.0010388	79.6410000324
1270.0	0.0010385	79.6870000362
1270.0	0.0010375	79.7189998627
1270.0	0.0010378	79.7660000324
1270.0	0.0010373	79.8120000362
1270.0	0.0010388	79.8439998627
1270.0	0.0010385	79.8910000324
1270.0	0.0010375	79.9370000362
1270.0	0.0010375	79.9689998627
1270.0	0.0010388	80.0160000324
1270.0	0.0010385	80.0469999313
1270.0	0.0010375	80.0939998627
1270.0	0.0010375	80.1410000324
1270.0	0.001038	80.1719999313
1270.0	0.0010388	80.2189998627
1270.0	0.0010373	80.2660000324
1270.0	0.0010373	80.2969999313
1270.0	0.0010378	80.3439998627
1270.0	0.0010373	80.3910000324
1270.0	0.0010385	80.4219999313
1280.0	0.0010388	80.6870000362
1280.0	0.0010375	80.7339999676
1280.0	0.0010388	80.7660000324
1280.0	0.0010385	80.8120000362
1280.0	0.0010373	80.8589999676
1280.0	0.0010378	80.8910000324
1280.0	0.0010375	80.9370000362
1280.0	0.001038	80.9839999676
1280.0	0.0010388	81.0309998989
1280.0	0.0010373	81.0620000362
1280.0	0.0010373	81.1089999676
1280.0	0.0010378	81.1410000324
1280.0	0.0010385	81.1870000362
1280.0	0.0010385	81.2339999676
1280.0	0.0010373	81.2660000324
1280.0	0.0010378	81.3120000362
1280.0	0.0010375	81.3589999676
1280.0	0.0010388	81.3910000324
1280.0	0.0010378	81.4370000362
1280.0	0.0010373	81.4689998627
1280.0	0.0010378	81.5160000324
1280.0	0.0010375	81.5620000362
1280.0	0.0010388	81.5939998627
1280.0	0.0010378	81.6410000324
1280.0	0.0010373	81.6870000362
1280.0	0.0010375	81.7189998627
1280.0	0.0010373	81.7660000324
1280.0	0.0010373	81.7969999313
1280.0	0.0010373	81.8439998627
1280.0	0.0010375	81.8910000324
1280.0	0.0010375	81.9219999313
1280.0	0.0010388	81.9689998627
1280.0	0.001038	82.0160000324
1280.0	0.0010373	82.0469999313
1280.0	0.0010378	82.0939998627
1280.0	0.0010375	82.125
1280.0	0.0010388	82.1719999313
1290.0	0.001038	82.4370000362
1290.0	0.0010378	82.4839999676
1290.0	0.0010373	82.5160000324
1290.0	0.0010385	82.5620000362
1290.0	0.0010365	82.6089999676
1290.0	0.0010378	82.6410000324
1290.0	0.0010378	82.6870000362
1290.0	0.0010388	82.7339999676
1290.0	0.0010378	82.7660000324
1290.0	0.0010373	82.8120000362
1290.0	0.0010378	82.8439998627
1290.0	0.0010375	82.8910000324
1290.0	0.0010388	82.9370000362
1290.0	0.0010385	82.9689998627
1290.0	0.0010363	83.0160000324
1290.0	0.0010375	83.0620000362
1290.0	0.0010375	83.0939998627
1290.0	0.0010385	83.1410000324
1290.0	0.0010378	83.1719999313
1290.0	0.0010363	83.2189998627
1290.0	0.0010378	83.2660000324
1290.0	0.0010375	83.2969999313
1290.0	0.0010385	83.3439998627
1290.0	0.0010363	83.3910000324
1290.0	0.0010373	83.4219999313
1290.0	0.0010388	83.4689998627
1290.0	0.0010388	83.5160000324
1290.0	0.0010385	83.5469999313
1290.0	0.0010363	83.5939998627
1290.0	0.0010375	83.625
1290.0	0.0010378	83.6719999313
1290.0	0.001038	83.7189998627
1290.0	0.0010373	83.75
1290.0	0.0010378	83.7969999313
1290.0	0.0010375	83.8439998627
1290.0	0.0010373	83.875
1290.0	0.001038	83.9219999313
1300.0	0.001038	84.1870000362
1300.0	0.0010373	84.2339999676
1300.0	0.001038	84.2660000324
1300.0	0.0010375	84.3120000362
1300.0	0.0010363	84.3439998627
1300.0	0.0010378	84.3910000324
1300.0	0.001039	84.4370000362
1300.0	0.001038	84.4689998627
1300.0	0.0010375	84.5160000324
1300.0	0.001038	84.5620000362
1300.0	0.0010373	84.5939998627
1300.0	0.0010375	84.6410000324
1300.0	0.001039	84.6870000362
1300.0	0.0010385	84.7189998627
1300.0	0.0010363	84.7660000324
1300.0	0.0010378	84.8120000362
1300.0	0.0010373	84.8439998627
1300.0	0.0010388	84.8910000324
1300.0	0.0010378	84.9370000362
1300.0	0.0010373	84.9689998627
1300.0	0.0010373	85.0160000324
1300.0	0.0010375	85.0469999313
1300.0	0.001039	85.0939998627
1300.0	0.0010373	85.1410000324
1300.0	0.0010373	85.1719999313
1300.0	0.0010375	85.2189998627
1300.0	0.001039	85.2660000324
1300.0	0.0010385	85.2969999313
1300.0	0.0010373	85.3439998627
1300.0	0.0010375	85.375
1300.0	0.0010375	85.4219999313
1300.0	0.0010388	85.4689998627
1300.0	0.0010375	85.5
1300.0	0.0010375	85.5469999313
1300.0	0.0010373	85.5939998627
1300.0	0.0010388	85.625
1300.0	0.001038	85.6719999313
1310.0	0.0010373	85.9370000362
1310.0	0.0010378	85.9839999676
1310.0	0.0010375	86.0160000324
1310.0	0.0010388	86.0620000362
1310.0	0.001038	86.1089999676
1310.0	0.001036	86.1410000324
1310.0	0.0010378	86.1870000362
1310.0	0.0010388	86.2339999676
1310.0	0.001038	86.2660000324
1310.0	0.001038	86.3120000362
1310.0	0.0010378	86.3439998627
1310.0	0.0010373	86.3910000324
1310.0	0.0010373	86.4370000362
1310.0	0.001038	86.4689998627
1310.0	0.0010375	86.5160000324
1310.0	0.0010378	86.5620000362
1310.0	0.0010375	86.5939998627
1310.0	0.0010388	86.6410000324
1310.0	0.0010363	86.6870000362
1310.0	0.0010378	86.7189998627
1310.0	0.0010373	86.7660000324
1310.0	0.0010378	86.8120000362
1310.0	0.001038	86.8439998627
1310.0	0.001039	86.8910000324
1310.0	0.001038	86.9370000362
1310.0	0.0010373	86.9689998627
1310.0	0.0010375	87.0160000324
1310.0	0.001038	87.0469999313
1310.0	0.001038	87.0939998627
1310.0	0.0010375	87.1410000324
1310.0	0.0010375	87.1719999313
1310.0	0.0010378	87.2189998627
1310.0	0.0010388	87.2660000324
1310.0	0.001038	87.2969999313
1310.0	0.0010373	87.3439998627
1310.0	0.0010375	87.375
1310.0	0.0010375	87.4219999313
1320.0	0.0010378	87.6870000362
1320.0	0.0010365	87.7339999676
1320.0	0.0010378	87.7809998989
1320.0	0.0010375	87.8120000362
1320.0	0.0010378	87.8589999676
1320.0	0.0010385	87.9059998989
1320.0	0.0010373	87.9370000362
1320.0	0.0010373	87.9839999676
1320.0	0.0010373	88.0160000324
1320.0	0.0010388	88.0620000362
1320.0	0.0010378	88.1089999676
1320.0	0.0010375	88.1410000324
1320.0	0.0010373	88.1870000362
1320.0	0.0010373	88.2339999676
1320.0	0.0010378	88.2660000324
1320.0	0.0010373	88.3120000362
1320.0	0.0010378	88.3439998627
1320.0	0.0010388	88.3910000324
1320.0	0.0010378	88.4370000362
1320.0	0.001039	88.4839999676
1320.0	0.0010385	88.5160000324
1320.0	0.001036	88.5620000362
1320.0	0.0010375	88.6089999676
1320.0	0.0010378	88.6410000324
1320.0	0.0010373	88.6870000362
1320.0	0.001038	88.7339999676
1320.0	0.0010373	88.7660000324
1320.0	0.0010373	88.8120000362
1320.0	0.0010373	88.8439998627
1320.0	0.0010375	88.8910000324
1320.0	0.001038	88.9370000362
1320.0	0.0010373	88.9689998627
1320.0	0.0010375	89.0160000324
1320.0	0.001038	89.0620000362
1320.0	0.001039	89.0939998627
1320.0	0.0010385	89.1410000324
1320.0	0.0010373	89.1870000362
1330.0	0.001038	89.4530000687
1330.0	0.0010375	89.5
1330.0	0.0010385	89.5309998989
1330.0	0.001038	89.5780000687
1330.0	0.001035	89.6089999676
1330.0	0.0010348	89.6559998989
1330.0	0.0010348	89.7030000687
1330.0	0.0010348	89.7339999676
1330.0	0.0010373	89.7809998989
1330.0	0.0010348	89.8280000687
1330.0	0.0010348	89.8589999676
1330.0	0.0010375	89.9059998989
1330.0	0.0010375	89.9370000362
1330.0	0.0010353	89.9839999676
1330.0	0.001035	90.0309998989
1330.0	0.0010355	90.0620000362
1330.0	0.0010375	90.1089999676
1330.0	0.0010373	90.1559998989
1330.0	0.0010368	90.1870000362
1330.0	0.001036	90.2339999676
1330.0	0.0010365	90.2660000324
1330.0	0.0010385	90.3120000362
1330.0	0.0010365	90.3589999676
1330.0	0.0010365	90.3910000324
1330.0	0.0010365	90.4370000362
1330.0	0.0010368	90.4839999676
1330.0	0.0010375	90.5160000324
1330.0	0.0010365	90.5620000362
1330.0	0.0010365	90.6089999676
1330.0	0.0010368	90.6410000324
1330.0	0.0010375	90.6870000362
1330.0	0.0010385	90.7339999676
1330.0	0.0010365	90.7660000324
1330.0	0.0010365	90.8120000362
1330.0	0.0010363	90.8589999676
1330.0	0.0010375	90.8910000324
1330.0	0.001038	90.9370000362
1340.0	0.0010273	91.2030000687
1340.0	0.0010248	91.25
1340.0	0.0010223	91.2809998989
1340.0	0.0010213	91.3280000687
1340.0	0.0010225	91.375
1340.0	0.0010205	91.4059998989
1340.0	0.0010178	91.4530000687
1340.0	0.0010173	91.5
1340.0	0.001021	91.5309998989
1340.0	0.0010198	91.5780000687
1340.0	0.0010173	91.625
1340.0	0.0010178	91.6559998989
1340.0	0.001018	91.7030000687
1340.0	0.0010213	91.75
1340.0	0.0010228	91.7809998989
1340.0	0.0010228	91.8280000687
1340.0	0.001019	91.875
1340.0	0.0010203	91.9059998989
1340.0	0.0010193	91.9530000687
1340.0	0.001024	92.0
1340.0	0.0010235	92.0309998989
1340.0	0.0010205	92.0780000687
1340.0	0.0010198	92.1089999676
1340.0	0.0010223	92.1559998989
1340.0	0.001024	92.2030000687
1340.0	0.001021	92.2339999676
1340.0	0.0010203	92.2809998989
1340.0	0.0010213	92.3280000687
1340.0	0.0010225	92.3589999676
1340.0	0.0010223	92.4059998989
1340.0	0.0010243	92.4530000687
1340.0	0.0010205	92.4839999676
1340.0	0.0010213	92.5309998989
1340.0	0.0010253	92.5620000362
1340.0	0.0010243	92.6089999676
1340.0	0.0010218	92.6559998989
1350.0	0.0010073	92.9219999313
1350.0	0.0010055	92.9530000687
1350.0	0.0009978	93.0
1350.0	0.0009948	93.0469999313
1350.0	0.0009915	93.0780000687
1350.0	0.0009905	93.125
1350.0	0.0009918	93.1719999313
1350.0	0.0009868	93.2030000687
1350.0	0.0009863	93.25
1350.0	0.000985	93.2809998989
1350.0	0.0009865	93.3280000687
1350.0	0.000989	93.375
1350.0	0.0009855	93.4059998989
1350.0	0.0009855	93.4530000687
1350.0	0.000985	93.5
1350.0	0.0009855	93.5309998989
1350.0	0.000988	93.5780000687
1350.0	0.0009848	93.625
1350.0	0.000984	93.6559998989
1350.0	0.0009835	93.7030000687
1350.0	0.000986	93.75
1350.0	0.0009863	93.7809998989
1350.0	0.0009835	93.8280000687
1350.0	0.0009828	93.8589999676
1350.0	0.0009828	93.9059998989
1350.0	0.0009865	93.9530000687
1350.0	0.0009848	93.9839999676
1350.0	0.0009828	94.0309998989
1350.0	0.0009825	94.0780000687
1350.0	0.0009815	94.1089999676
1350.0	0.0009863	94.1559998989
1350.0	0.000984	94.2030000687
1350.0	0.0009828	94.2339999676
1350.0	0.000984	94.2809998989
1350.0	0.0009868	94.3120000362
1350.0	0.0009838	94.3589999676
1350.0	0.0009848	94.4059998989
1360.0	0.000973	94.6719999313
1360.0	0.0009655	94.7189998627
1360.0	0.000963	94.75
1360.0	0.0009565	94.7969999313
1360.0	0.000953	94.8439998627
1360.0	0.0009505	94.875
1360.0	0.0009493	94.9219999313
1360.0	0.0009515	94.9530000687
1360.0	0.0009475	95.0
1360.0	0.0009468	95.0469999313
1360.0	0.000946	95.0780000687
1360.0	0.0009498	95.125
1360.0	0.0009478	95.1719999313
1360.0	0.0009463	95.2030000687
1360.0	0.000946	95.25
1360.0	0.000945	95.2809998989
1360.0	0.0009468	95.3280000687
1360.0	0.0009473	95.375
1360.0	0.0009448	95.4059998989
1360.0	0.0009443	95.4530000687
1360.0	0.0009455	95.5
1360.0	0.0009485	95.5309998989
1360.0	0.000946	95.5780000687
1360.0	0.0009453	95.6089999676
1360.0	0.0009443	95.6559998989
1360.0	0.0009488	95.7030000687
1360.0	0.0009493	95.7339999676
1360.0	0.000946	95.7809998989
1360.0	0.0009463	95.8280000687
1360.0	0.0009455	95.8589999676
1360.0	0.000949	95.9059998989
1360.0	0.0009498	95.9370000362
1360.0	0.0009465	95.9839999676
1360.0	0.0009473	96.0309998989
1360.0	0.0009488	96.0620000362
1360.0	0.0009503	96.1089999676
1360.0	0.0009473	96.1559998989
1370.0	0.0009348	96.4219999313
1370.0	0.0009278	96.4530000687
1370.0	0.0009248	96.5
1370.0	0.0009198	96.5469999313
1370.0	0.0009153	96.5780000687
1370.0	0.0009123	96.625
1370.0	0.000913	96.6719999313
1370.0	0.0009118	96.7030000687
1370.0	0.0009085	96.75
1370.0	0.0009078	96.7809998989
1370.0	0.0009085	96.8280000687
1370.0	0.000911	96.875
1370.0	0.00091	96.9059998989
1370.0	0.0009075	96.9530000687
1370.0	0.0009078	97.0
1370.0	0.0009105	97.0309998989
1370.0	0.0009105	97.0780000687
1370.0	0.0009098	97.1089999676
1370.0	0.0009085	97.1559998989
1370.0	0.0009098	97.2030000687
1370.0	0.0009088	97.2339999676
1370.0	0.00091	97.2809998989
1370.0	0.0009098	97.3280000687
1370.0	0.0009055	97.3589999676
1370.0	0.0009085	97.4059998989
1370.0	0.0009103	97.4370000362
1370.0	0.000908	97.4839999676
1370.0	0.0009073	97.5309998989
1370.0	0.0009073	97.5620000362
1370.0	0.000909	97.6089999676
1370.0	0.000911	97.6559998989
1370.0	0.000909	97.6870000362
1370.0	0.0009078	97.7339999676
1370.0	0.000909	97.7660000324
1370.0	0.0009105	97.8120000362
1370.0	0.000911	97.8589999676
1370.0	0.0009078	97.8910000324
1380.0	0.000894	98.1559998989
1380.0	0.0008923	98.2030000687
1380.0	0.000886	98.25
1380.0	0.0008805	98.2809998989
1380.0	0.0008778	98.3280000687
1380.0	0.0008755	98.375
1380.0	0.0008773	98.4059998989
1380.0	0.0008753	98.4530000687
1380.0	0.0008723	98.4839999676
1380.0	0.0008718	98.5309998989
1380.0	0.0008743	98.5780000687
1380.0	0.000874	98.6089999676
1380.0	0.0008713	98.6559998989
1380.0	0.000871	98.7030000687
1380.0	0.0008728	98.7339999676
1380.0	0.0008738	98.7809998989
1380.0	0.0008728	98.8120000362
1380.0	0.000871	98.8589999676
1380.0	0.0008705	98.9059998989
1380.0	0.0008718	98.9370000362
1380.0	0.0008738	98.9839999676
1380.0	0.0008738	99.0309998989
1380.0	0.0008705	99.0620000362
1380.0	0.000871	99.1089999676
1380.0	0.0008718	99.1410000324
1380.0	0.0008743	99.1870000362
1380.0	0.000871	99.2339999676
1380.0	0.000871	99.2660000324
1380.0	0.000873	99.3120000362
1380.0	0.0008748	99.3589999676
1380.0	0.000874	99.3910000324
1380.0	0.000871	99.4370000362
1380.0	0.0008703	99.4839999676
1380.0	0.0008713	99.5160000324
1380.0	0.000874	99.5620000362
1380.0	0.000871	99.5939998627
1380.0	0.00087	99.6410000324
1390.0	0.0008573	99.9059998989
1390.0	0.0008555	99.9530000687
1390.0	0.0008485	99.9839999676
1390.0	0.0008463	100.030999899
1390.0	0.000844	100.078000069
1390.0	0.0008418	100.108999968
1390.0	0.0008438	100.155999899
1390.0	0.0008398	100.203000069
1390.0	0.000839	100.233999968
1390.0	0.0008403	100.280999899
1390.0	0.000841	100.312000036
1390.0	0.0008385	100.358999968
1390.0	0.0008375	100.405999899
1390.0	0.0008368	100.437000036
1390.0	0.000839	100.483999968
1390.0	0.00084	100.530999899
1390.0	0.0008375	100.562000036
1390.0	0.0008365	100.608999968
1390.0	0.0008375	100.641000032
1390.0	0.0008398	100.687000036
1390.0	0.0008375	100.733999968
1390.0	0.0008363	100.766000032
1390.0	0.0008368	100.812000036
1390.0	0.0008355	100.858999968
1390.0	0.000839	100.891000032
1390.0	0.0008385	100.937000036
1390.0	0.000836	100.968999863
1390.0	0.000836	101.016000032
1390.0	0.0008393	101.062000036
1390.0	0.000839	101.093999863
1390.0	0.000836	101.141000032
1390.0	0.000835	101.187000036
1390.0	0.000836	101.218999863
1390.0	0.000839	101.266000032
1390.0	0.0008373	101.312000036
1390.0	0.000836	101.343999863
1390.0	0.0008355	101.391000032
1400.0	0.0008248	101.655999899
1400.0	0.0008215	101.687000036
1400.0	0.000819	101.733999968
1400.0	0.0008165	101.780999899
1400.0	0.0008173	101.812000036
1400.0	0.0008165	101.858999968
1400.0	0.0008135	101.905999899
1400.0	0.0008123	101.937000036
1400.0	0.0008118	101.983999968
1400.0	0.0008143	102.016000032
1400.0	0.0008135	102.062000036
1400.0	0.000811	102.108999968
1400.0	0.000811	102.141000032
1400.0	0.0008123	102.187000036
1400.0	0.0008135	102.233999968
1400.0	0.0008113	102.266000032
1400.0	0.0008103	102.312000036
1400.0	0.0008098	102.358999968
1400.0	0.0008123	102.391000032
1400.0	0.0008115	102.437000036
1400.0	0.0008115	102.468999863
1400.0	0.0008098	102.516000032
1400.0	0.0008105	102.562000036
1400.0	0.0008128	102.593999863
1400.0	0.000813	102.641000032
1400.0	0.00081	102.687000036
1400.0	0.000809	102.718999863
1400.0	0.0008093	102.766000032
1400.0	0.0008115	102.796999931
1400.0	0.0008098	102.843999863
1400.0	0.0008093	102.891000032
1400.0	0.0008093	102.921999931
1400.0	0.0008105	102.968999863
1400.0	0.0008125	103.016000032
1400.0	0.000811	103.046999931
1400.0	0.0008098	103.093999863
1400.0	0.0008103	103.141000032
1410.0	0.0008	103.405999899
1410.0	0.0007998	103.437000036
1410.0	0.0007965	103.483999968
1410.0	0.0007953	103.516000032
1410.0	0.0007973	103.562000036
1410.0	0.0007948	103.608999968
1410.0	0.0007925	103.641000032
1410.0	0.0007918	103.687000036
1410.0	0.0007923	103.733999968
1410.0	0.000794	103.766000032
1410.0	0.0007923	103.812000036
1410.0	0.0007913	103.843999863
1410.0	0.000791	103.891000032
1410.0	0.0007943	103.937000036
1410.0	0.0007915	103.968999863
1410.0	0.000793	104.016000032
1410.0	0.0007905	104.062000036
1410.0	0.0007925	104.093999863
1410.0	0.0007935	104.141000032
1410.0	0.0007913	104.187000036
1410.0	0.0007905	104.218999863
1410.0	0.0007905	104.266000032
1410.0	0.00079	104.296999931
1410.0	0.000793	104.343999863
1410.0	0.0007928	104.391000032
1410.0	0.00079	104.421999931
1410.0	0.0007918	104.468999863
1410.0	0.0007905	104.516000032
1410.0	0.0007935	104.546999931
1410.0	0.0007928	104.593999863
1410.0	0.0007918	104.625
1410.0	0.000793	104.671999931
1410.0	0.0007953	104.718999863
1410.0	0.0007915	104.75
1410.0	0.0007915	104.796999931
1410.0	0.0007923	104.843999863
1410.0	0.0007928	104.875
1420.0	0.0007848	105.155999899
1420.0	0.0007835	105.187000036
1420.0	0.0007818	105.233999968
1420.0	0.0007813	105.266000032
1420.0	0.0007818	105.312000036
1420.0	0.0007823	105.358999968
1420.0	0.0007798	105.391000032
1420.0	0.000779	105.437000036
1420.0	0.0007805	105.483999968
1420.0	0.0007818	105.516000032
1420.0	0.0007818	105.562000036
1420.0	0.0007793	105.593999863
1420.0	0.0007798	105.641000032
1420.0	0.000781	105.687000036
1420.0	0.0007815	105.718999863
1420.0	0.00078	105.766000032
1420.0	0.0007785	105.812000036
1420.0	0.000779	105.843999863
1420.0	0.0007818	105.891000032
1420.0	0.0007813	105.921999931
1420.0	0.0007788	105.968999863
1420.0	0.000779	106.016000032
1420.0	0.0007798	106.046999931
1420.0	0.0007828	106.093999863
1420.0	0.0007803	106.141000032
1420.0	0.0007798	106.171999931
1420.0	0.0007798	106.218999863
1420.0	0.0007798	106.266000032
1420.0	0.000781	106.296999931
1420.0	0.000778	106.343999863
1420.0	0.000778	106.375
1420.0	0.0007785	106.421999931
1420.0	0.00078	106.468999863
1420.0	0.000781	106.5
1420.0	0.0007798	106.546999931
1420.0	0.000779	106.593999863
1420.0	0.0007793	106.625
1430.0	0.000773	106.891000032
1430.0	0.000771	106.937000036
1430.0	0.0007698	106.983999968
1430.0	0.0007723	107.016000032
1430.0	0.0007713	107.062000036
1430.0	0.0007688	107.093999863
1430.0	0.000768	107.141000032
1430.0	0.0007673	107.187000036
1430.0	0.0007705	107.218999863
1430.0	0.0007713	107.266000032
1430.0	0.0007685	107.312000036
1430.0	0.000768	107.343999863
1430.0	0.0007673	107.391000032
1430.0	0.0007703	107.421999931
1430.0	0.0007685	107.468999863
1430.0	0.0007673	107.516000032
1430.0	0.0007675	107.546999931
1430.0	0.0007688	107.593999863
1430.0	0.0007698	107.641000032
1430.0	0.0007685	107.671999931
1430.0	0.0007668	107.718999863
1430.0	0.0007665	107.766000032
1430.0	0.0007698	107.796999931
1430.0	0.0007675	107.843999863
1430.0	0.0007668	107.875
1430.0	0.0007668	107.921999931
1430.0	0.0007668	107.968999863
1430.0	0.0007693	108.0
1430.0	0.0007678	108.046999931
1430.0	0.0007663	108.093999863
1430.0	0.0007663	108.125
1430.0	0.0007665	108.171999931
1430.0	0.0007685	108.203000069
1430.0	0.000768	108.25
1430.0	0.0007653	108.296999931
1430.0	0.0007648	108.328000069
1430.0	0.0007678	108.375
1440.0	0.000766	108.641000032
1440.0	0.000763	108.687000036
1440.0	0.0007628	108.718999863
1440.0	0.000764	108.766000032
1440.0	0.000765	108.812000036
1440.0	0.000763	108.843999863
1440.0	0.000763	108.891000032
1440.0	0.000765	108.921999931
1440.0	0.0007668	108.968999863
1440.0	0.0007648	109.016000032
1440.0	0.0007638	109.046999931
1440.0	0.0007635	109.093999863
1440.0	0.0007668	109.141000032
1440.0	0.0007668	109.171999931
1440.0	0.000764	109.218999863
1440.0	0.000764	109.25
1440.0	0.000764	109.296999931
1440.0	0.0007665	109.343999863
1440.0	0.0007663	109.375
1440.0	0.0007638	109.421999931
1440.0	0.0007638	109.468999863
1440.0	0.0007655	109.5
1440.0	0.0007673	109.546999931
1440.0	0.0007673	109.578000069
1440.0	0.000765	109.625
1440.0	0.0007653	109.671999931
1440.0	0.0007673	109.703000069
1440.0	0.0007673	109.75
1440.0	0.0007648	109.796999931
1440.0	0.000764	109.828000069
1440.0	0.0007643	109.875
1440.0	0.0007668	109.921999931
1440.0	0.0007663	109.953000069
1440.0	0.0007643	110.0
1440.0	0.0007648	110.030999899
1440.0	0.0007653	110.078000069
1440.0	0.000768	110.125
1450.0	0.0007703	110.391000032
1450.0	0.0007688	110.421999931
1450.0	0.0007718	110.468999863
1450.0	0.0007725	110.516000032
1450.0	0.0007715	110.546999931
1450.0	0.0007703	110.593999863
1450.0	0.0007703	110.625
1450.0	0.000771	110.671999931
1450.0	0.0007728	110.718999863
1450.0	0.0007703	110.75
1450.0	0.00077	110.796999931
1450.0	0.0007705	110.843999863
1450.0	0.0007738	110.875
1450.0	0.0007735	110.921999931
1450.0	0.0007705	110.968999863
1450.0	0.0007703	111.0
1450.0	0.00077	111.046999931
1450.0	0.000773	111.078000069
1450.0	0.00077	111.125
1450.0	0.00077	111.171999931
1450.0	0.0007698	111.203000069
1450.0	0.0007703	111.25
1450.0	0.000771	111.296999931
1450.0	0.0007703	111.328000069
1450.0	0.0007705	111.375
1450.0	0.0007728	111.421999931
1450.0	0.0007705	111.468999863
1450.0	0.0007713	111.5
1450.0	0.000773	111.546999931
1450.0	0.00077	111.578000069
1450.0	0.0007698	111.625
1450.0	0.0007688	111.671999931
1450.0	0.0007715	111.703000069
1450.0	0.0007715	111.75
1450.0	0.000771	111.796999931
1450.0	0.0007685	111.828000069
1450.0	0.0007705	111.875
1460.0	0.000775	112.141000032
1460.0	0.000775	112.187000036
1460.0	0.000776	112.218999863
1460.0	0.0007785	112.266000032
1460.0	0.0007803	112.296999931
1460.0	0.0007805	112.343999863
1460.0	0.000779	112.391000032
1460.0	0.000779	112.421999931
1460.0	0.00078	112.468999863
1460.0	0.0007818	112.516000032
1460.0	0.0007803	112.546999931
1460.0	0.0007798	112.593999863
1460.0	0.0007798	112.641000032
1460.0	0.0007828	112.671999931
1460.0	0.0007803	112.718999863
1460.0	0.00078	112.75
1460.0	0.0007798	112.796999931
1460.0	0.0007805	112.843999863
1460.0	0.0007828	112.875
1460.0	0.0007815	112.921999931
1460.0	0.0007798	112.968999863
1460.0	0.000779	113.0
1460.0	0.0007813	113.046999931
1460.0	0.000783	113.078000069
1460.0	0.0007823	113.125
1460.0	0.00078	113.171999931
1460.0	0.0007805	113.218999863
1460.0	0.0007813	113.25
1460.0	0.0007835	113.296999931
1460.0	0.0007805	113.328000069
1460.0	0.0007805	113.375
1460.0	0.0007803	113.421999931
1460.0	0.000783	113.453000069
1460.0	0.000784	113.5
1460.0	0.0007843	113.546999931
1460.0	0.0007823	113.578000069
1460.0	0.0007805	113.625
1470.0	0.0007865	113.891000032
1470.0	0.0007885	113.937000036
1470.0	0.00079	113.968999863
1470.0	0.0007925	114.016000032
1470.0	0.0007963	114.062000036
1470.0	0.0007985	114.093999863
1470.0	0.0007985	114.141000032
1470.0	0.0007973	114.187000036
1470.0	0.0007988	114.218999863
1470.0	0.000799	114.266000032
1470.0	0.0007978	114.312000036
1470.0	0.0007975	114.343999863
1470.0	0.0007973	114.391000032
1470.0	0.0007965	114.437000036
1470.0	0.0007988	114.468999863
1470.0	0.0008	114.516000032
1470.0	0.0007978	114.562000036
1470.0	0.0007973	114.593999863
1470.0	0.0007975	114.641000032
1470.0	0.0007985	114.671999931
1470.0	0.0008003	114.718999863
1470.0	0.0007978	114.766000032
1470.0	0.000798	114.812000036
1470.0	0.000798	114.843999863
1470.0	0.0007975	114.891000032
1470.0	0.0008013	114.921999931
1470.0	0.0007998	114.968999863
1470.0	0.000799	115.016000032
1470.0	0.0007993	115.062000036
1470.0	0.0007998	115.093999863
1470.0	0.0008015	115.141000032
1470.0	0.0008015	115.171999931
1470.0	0.0007998	115.218999863
1470.0	0.0007988	115.266000032
1470.0	0.0007985	115.296999931
1470.0	0.0008015	115.343999863
1480.0	0.0008028	115.608999968
1480.0	0.0008043	115.655999899
1480.0	0.000806	115.687000036
1480.0	0.000811	115.733999968
1480.0	0.0008103	115.780999899
1480.0	0.0008105	115.812000036
1480.0	0.0008105	115.858999968
1480.0	0.0008143	115.891000032
1480.0	0.0008153	115.937000036
1480.0	0.000815	115.983999968
1480.0	0.0008128	116.016000032
1480.0	0.0008118	116.062000036
1480.0	0.000815	116.108999968
1480.0	0.000816	116.141000032
1480.0	0.000813	116.187000036
1480.0	0.0008135	116.233999968
1480.0	0.000815	116.266000032
1480.0	0.0008163	116.312000036
1480.0	0.000814	116.343999863
1480.0	0.0008135	116.391000032
1480.0	0.0008138	116.437000036
1480.0	0.000816	116.468999863
1480.0	0.0008173	116.516000032
1480.0	0.0008148	116.562000036
1480.0	0.0008143	116.593999863
1480.0	0.0008138	116.641000032
1480.0	0.0008153	116.671999931
1480.0	0.000814	116.718999863
1480.0	0.0008135	116.766000032
1480.0	0.0008128	116.796999931
1480.0	0.0008135	116.843999863
1480.0	0.0008163	116.891000032
1480.0	0.0008155	116.921999931
1480.0	0.0008135	116.968999863
1480.0	0.0008125	117.0
1480.0	0.0008153	117.046999931
1480.0	0.0008163	117.093999863
1490.0	0.0008218	117.358999968
1490.0	0.0008238	117.405999899
1490.0	0.0008253	117.437000036
1490.0	0.0008305	117.483999968
1490.0	0.0008318	117.530999899
1490.0	0.0008298	117.562000036
1490.0	0.00083	117.608999968
1490.0	0.0008298	117.641000032
1490.0	0.000834	117.687000036
1490.0	0.0008323	117.733999968
1490.0	0.000831	117.766000032
1490.0	0.0008298	117.812000036
1490.0	0.0008313	117.858999968
1490.0	0.0008338	117.891000032
1490.0	0.0008318	117.937000036
1490.0	0.0008313	117.968999863
1490.0	0.0008315	118.016000032
1490.0	0.0008338	118.062000036
1490.0	0.0008338	118.093999863
1490.0	0.0008323	118.141000032
1490.0	0.0008318	118.187000036
1490.0	0.0008325	118.218999863
1490.0	0.000835	118.266000032
1490.0	0.0008323	118.312000036
1490.0	0.0008323	118.343999863
1490.0	0.0008318	118.391000032
1490.0	0.000834	118.421999931
1490.0	0.0008348	118.468999863
1490.0	0.000833	118.516000032
1490.0	0.0008313	118.546999931
1490.0	0.0008315	118.593999863
1490.0	0.0008338	118.641000032
1490.0	0.0008348	118.671999931
1490.0	0.0008313	118.718999863
1490.0	0.0008313	118.75
1490.0	0.0008313	118.796999931
1490.0	0.0008335	118.843999863
1500.0	0.0008348	119.108999968
1500.0	0.0008375	119.155999899
1500.0	0.0008385	119.187000036
1500.0	0.000841	119.233999968
1500.0	0.000843	119.280999899
1500.0	0.0008405	119.312000036
1500.0	0.0008405	119.358999968
1500.0	0.00084	119.391000032
1500.0	0.0008428	119.437000036
1500.0	0.000841	119.483999968
1500.0	0.0008428	119.530999899
1500.0	0.0008428	119.562000036
1500.0	0.0008403	119.608999968
1500.0	0.00084	119.641000032
1500.0	0.0008438	119.687000036
1500.0	0.0008435	119.733999968
1500.0	0.0008415	119.766000032
1500.0	0.0008415	119.812000036
1500.0	0.0008435	119.858999968
1500.0	0.000845	119.891000032
1500.0	0.0008418	119.937000036
1500.0	0.0008415	119.968999863
1500.0	0.0008405	120.016000032
1500.0	0.0008428	120.062000036
1500.0	0.000844	120.093999863
1500.0	0.0008405	120.141000032
1500.0	0.000841	120.187000036
1500.0	0.000844	120.218999863
1500.0	0.0008438	120.266000032
1500.0	0.0008435	120.312000036
1500.0	0.0008415	120.343999863
1500.0	0.0008415	120.391000032
1500.0	0.0008438	120.421999931
1500.0	0.0008463	120.468999863
1500.0	0.000845	120.516000032
1500.0	0.000843	120.546999931
1500.0	0.0008425	120.593999863
1510.0	0.0008455	120.875
1510.0	0.0008493	120.905999899
1510.0	0.0008475	120.953000069
1510.0	0.0008488	120.983999968
1510.0	0.0008485	121.030999899
1510.0	0.0008525	121.078000069
1510.0	0.000853	121.108999968
1510.0	0.0008518	121.155999899
1510.0	0.0008503	121.203000069
1510.0	0.00085	121.233999968
1510.0	0.0008538	121.280999899
1510.0	0.0008525	121.312000036
1510.0	0.0008515	121.358999968
1510.0	0.0008515	121.405999899
1510.0	0.0008528	121.437000036
1510.0	0.0008548	121.483999968
1510.0	0.0008518	121.530999899
1510.0	0.000851	121.562000036
1510.0	0.0008503	121.608999968
1510.0	0.0008515	121.641000032
1510.0	0.000854	121.687000036
1510.0	0.000851	121.733999968
1510.0	0.000851	121.766000032
1510.0	0.0008505	121.812000036
1510.0	0.000854	121.858999968
1510.0	0.000855	121.891000032
1510.0	0.0008523	121.937000036
1510.0	0.0008523	121.983999968
1510.0	0.000853	122.016000032
1510.0	0.0008543	122.062000036
1510.0	0.0008513	122.093999863
1510.0	0.00085	122.141000032
1510.0	0.0008498	122.187000036
1510.0	0.0008518	122.218999863
1510.0	0.000853	122.266000032
1510.0	0.0008503	122.312000036
1510.0	0.0008498	122.343999863
1520.0	0.0008523	122.625
1520.0	0.0008485	122.655999899
1520.0	0.0008523	122.703000069
1520.0	0.0008498	122.75
1520.0	0.0008498	122.780999899
1520.0	0.0008498	122.828000069
1520.0	0.0008538	122.875
1520.0	0.0008518	122.905999899
1520.0	0.000854	122.953000069
1520.0	0.0008528	123.0
1520.0	0.0008503	123.030999899
1520.0	0.00085	123.078000069
1520.0	0.0008525	123.125
1520.0	0.0008528	123.155999899
1520.0	0.0008498	123.203000069
1520.0	0.0008498	123.233999968
1520.0	0.0008515	123.280999899
1520.0	0.0008515	123.328000069
1520.0	0.0008535	123.358999968
1520.0	0.0008503	123.405999899
1520.0	0.0008503	123.453000069
1520.0	0.000851	123.483999968
1520.0	0.0008535	123.530999899
1520.0	0.000851	123.562000036
1520.0	0.0008505	123.608999968
1520.0	0.0008503	123.655999899
1520.0	0.0008535	123.687000036
1520.0	0.000855	123.733999968
1520.0	0.0008535	123.780999899
1520.0	0.0008515	123.812000036
1520.0	0.0008525	123.858999968
1520.0	0.000855	123.905999899
1520.0	0.0008548	123.937000036
1520.0	0.0008525	123.983999968
1520.0	0.0008518	124.016000032
1520.0	0.0008548	124.062000036
1520.0	0.000856	124.108999968
1530.0	0.0008515	124.375
1530.0	0.0008535	124.421999931
1530.0	0.0008518	124.468999863
1530.0	0.0008538	124.5
1530.0	0.0008553	124.546999931
1530.0	0.0008528	124.578000069
1530.0	0.0008515	124.625
1530.0	0.0008503	124.671999931
1530.0	0.000853	124.703000069
1530.0	0.000854	124.75
1530.0	0.0008513	124.796999931
1530.0	0.0008513	124.828000069
1530.0	0.0008525	124.875
1530.0	0.0008525	124.905999899
1530.0	0.0008543	124.953000069
1530.0	0.0008505	125.0
1530.0	0.0008515	125.030999899
1530.0	0.000851	125.078000069
1530.0	0.0008548	125.125
1530.0	0.0008523	125.155999899
1530.0	0.0008513	125.203000069
1530.0	0.00085	125.233999968
1530.0	0.0008513	125.280999899
1530.0	0.0008535	125.328000069
1530.0	0.0008528	125.358999968
1530.0	0.0008498	125.405999899
1530.0	0.000849	125.453000069
1530.0	0.0008528	125.483999968
1530.0	0.000853	125.530999899
1530.0	0.0008505	125.562000036
1530.0	0.0008498	125.608999968
1530.0	0.0008505	125.655999899
1530.0	0.0008528	125.687000036
1530.0	0.0008498	125.733999968
1530.0	0.0008513	125.780999899
1530.0	0.0008498	125.812000036
1530.0	0.0008505	125.858999968
1540.0	0.000845	126.141000032
1540.0	0.0008453	126.171999931
1540.0	0.000843	126.218999863
1540.0	0.0008425	126.25
1540.0	0.0008428	126.296999931
1540.0	0.000843	126.343999863
1540.0	0.0008415	126.375
1540.0	0.0008413	126.421999931
1540.0	0.0008403	126.468999863
1540.0	0.0008428	126.5
1540.0	0.0008435	126.546999931
1540.0	0.0008405	126.578000069
1540.0	0.0008405	126.625
1540.0	0.0008403	126.671999931
1540.0	0.000844	126.703000069
1540.0	0.000844	126.75
1540.0	0.0008413	126.796999931
1540.0	0.000841	126.828000069
1540.0	0.0008413	126.875
1540.0	0.0008403	126.921999931
1540.0	0.0008443	126.953000069
1540.0	0.0008418	127.0
1540.0	0.0008423	127.046999931
1540.0	0.0008415	127.078000069
1540.0	0.0008438	127.125
1540.0	0.0008453	127.155999899
1540.0	0.0008448	127.203000069
1540.0	0.0008418	127.25
1540.0	0.0008415	127.280999899
1540.0	0.000844	127.328000069
1540.0	0.0008443	127.375
1540.0	0.0008423	127.405999899
1540.0	0.0008403	127.453000069
1540.0	0.0008428	127.5
1540.0	0.0008443	127.530999899
1540.0	0.0008423	127.578000069
1540.0	0.0008438	127.608999968
1550.0	0.0008413	127.891000032
1550.0	0.0008373	127.937000036
1550.0	0.0008375	127.968999863
1550.0	0.000838	128.016000032
1550.0	0.0008348	128.062000036
1550.0	0.0008335	128.093999863
1550.0	0.000833	128.141000032
1550.0	0.0008343	128.171999931
1550.0	0.000836	128.218999863
1550.0	0.0008328	128.266000032
1550.0	0.0008318	128.296999931
1550.0	0.000833	128.343999863
1550.0	0.0008348	128.391000032
1550.0	0.0008315	128.421999931
1550.0	0.0008315	128.468999863
1550.0	0.0008315	128.516000032
1550.0	0.000835	128.546999931
1550.0	0.0008335	128.593999863
1550.0	0.0008323	128.625
1550.0	0.0008305	128.671999931
1550.0	0.0008305	128.718999863
1550.0	0.000833	128.75
1550.0	0.000834	128.796999931
1550.0	0.0008328	128.843999863
1550.0	0.0008318	128.875
1550.0	0.000831	128.921999931
1550.0	0.0008328	128.968999863
1550.0	0.0008353	129.0
1550.0	0.0008318	129.046999931
1550.0	0.0008315	129.093999863
1550.0	0.000831	129.125
1550.0	0.0008335	129.171999931
1550.0	0.000834	129.203000069
1550.0	0.000831	129.25
1550.0	0.00083	129.296999931
1550.0	0.0008318	129.328000069
1550.0	0.0008335	129.375
1560.0	0.0008215	129.655999899
1560.0	0.0008188	129.687000036
1560.0	0.0008165	129.733999968
1560.0	0.0008155	129.766000032
1560.0	0.0008178	129.812000036
1560.0	0.0008175	129.858999968
1560.0	0.0008148	129.891000032
1560.0	0.0008135	129.937000036
1560.0	0.0008118	129.983999968
1560.0	0.0008143	130.016000032
1560.0	0.0008118	130.062000036
1560.0	0.0008115	130.093999863
1560.0	0.000811	130.141000032
1560.0	0.000814	130.187000036
1560.0	0.0008148	130.218999863
1560.0	0.0008135	130.266000032
1560.0	0.0008135	130.312000036
1560.0	0.0008135	130.343999863
1560.0	0.0008153	130.391000032
1560.0	0.0008135	130.437000036
1560.0	0.0008165	130.468999863
1560.0	0.000815	130.516000032
1560.0	0.000813	130.562000036
1560.0	0.000813	130.593999863
1560.0	0.0008138	130.641000032
1560.0	0.000814	130.671999931
1560.0	0.000813	130.718999863
1560.0	0.0008128	130.766000032
1560.0	0.0008143	130.796999931
1560.0	0.0008163	130.843999863
1560.0	0.0008138	130.891000032
1560.0	0.0008135	130.921999931
1560.0	0.0008148	130.968999863
1560.0	0.000816	131.016000032
1560.0	0.0008173	131.046999931
1560.0	0.000814	131.093999863
1560.0	0.000814	131.125
1570.0	0.0008055	131.405999899
1570.0	0.000806	131.437000036
1570.0	0.0008023	131.483999968
1570.0	0.0007998	131.530999899
1570.0	0.0007988	131.562000036
1570.0	0.0007988	131.608999968
1570.0	0.0007985	131.655999899
1570.0	0.0007953	131.687000036
1570.0	0.000794	131.733999968
1570.0	0.0007943	131.766000032
1570.0	0.0007943	131.812000036
1570.0	0.0007935	131.858999968
1570.0	0.0007925	131.891000032
1570.0	0.0007923	131.937000036
1570.0	0.000794	131.983999968
1570.0	0.0007943	132.016000032
1570.0	0.0007918	132.062000036
1570.0	0.0007913	132.093999863
1570.0	0.0007913	132.141000032
1570.0	0.0007925	132.187000036
1570.0	0.0007948	132.218999863
1570.0	0.0007913	132.266000032
1570.0	0.000791	132.312000036
1570.0	0.0007905	132.343999863
1570.0	0.0007925	132.391000032
1570.0	0.0007923	132.421999931
1570.0	0.0007915	132.468999863
1570.0	0.000791	132.516000032
1570.0	0.0007925	132.546999931
1570.0	0.0007935	132.593999863
1570.0	0.0007923	132.641000032
1570.0	0.0007905	132.671999931
1570.0	0.00079	132.718999863
1570.0	0.0007928	132.766000032
1570.0	0.0007938	132.796999931
1570.0	0.0007903	132.843999863
1570.0	0.000789	132.875
1580.0	0.0007798	133.155999899
1580.0	0.0007753	133.203000069
1580.0	0.000774	133.233999968
1580.0	0.0007698	133.280999899
1580.0	0.0007668	133.328000069
1580.0	0.0007648	133.358999968
1580.0	0.0007665	133.405999899
1580.0	0.0007663	133.437000036
1580.0	0.0007648	133.483999968
1580.0	0.0007628	133.530999899
1580.0	0.0007615	133.562000036
1580.0	0.0007643	133.608999968
1580.0	0.0007648	133.655999899
1580.0	0.0007618	133.687000036
1580.0	0.0007613	133.733999968
1580.0	0.0007638	133.766000032
1580.0	0.000764	133.812000036
1580.0	0.0007653	133.858999968
1580.0	0.000763	133.891000032
1580.0	0.000764	133.937000036
1580.0	0.0007643	133.983999968
1580.0	0.000766	134.016000032
1580.0	0.0007635	134.062000036
1580.0	0.0007628	134.093999863
1580.0	0.0007635	134.141000032
1580.0	0.0007655	134.187000036
1580.0	0.0007655	134.218999863
1580.0	0.0007653	134.266000032
1580.0	0.0007648	134.312000036
1580.0	0.000766	134.343999863
1580.0	0.0007675	134.391000032
1580.0	0.000768	134.421999931
1580.0	0.000766	134.468999863
1580.0	0.0007643	134.516000032
1580.0	0.0007655	134.546999931
1580.0	0.0007678	134.593999863
1580.0	0.000766	134.641000032
1590.0	0.0007513	134.905999899
1590.0	0.0007463	134.953000069
1590.0	0.000743	134.983999968
1590.0	0.0007415	135.030999899
1590.0	0.0007403	135.078000069
1590.0	0.000736	135.108999968
1590.0	0.0007343	135.155999899
1590.0	0.0007325	135.203000069
1590.0	0.000734	135.233999968
1590.0	0.0007328	135.280999899
1590.0	0.0007305	135.328000069
1590.0	0.0007298	135.358999968
1590.0	0.0007323	135.405999899
1590.0	0.000731	135.437000036
1590.0	0.0007305	135.483999968
1590.0	0.0007298	135.530999899
1590.0	0.000731	135.562000036
1590.0	0.0007315	135.608999968
1590.0	0.0007318	135.655999899
1590.0	0.0007293	135.687000036
1590.0	0.000729	135.733999968
1590.0	0.0007315	135.766000032
1590.0	0.0007303	135.812000036
1590.0	0.0007305	135.858999968
1590.0	0.000728	135.891000032
1590.0	0.0007275	135.937000036
1590.0	0.0007285	135.983999968
1590.0	0.0007298	136.016000032
1590.0	0.0007278	136.062000036
1590.0	0.0007273	136.093999863
1590.0	0.0007273	136.141000032
1590.0	0.000729	136.187000036
1590.0	0.00073	136.218999863
1590.0	0.0007278	136.266000032
1590.0	0.0007278	136.312000036
1590.0	0.000728	136.343999863
1590.0	0.00073	136.391000032
1600.0	0.0007128	136.671999931
1600.0	0.0007085	136.703000069
1600.0	0.0007035	136.75
1600.0	0.000699	136.780999899
1600.0	0.000699	136.828000069
1600.0	0.0006973	136.875
1600.0	0.0006935	136.905999899
1600.0	0.0006925	136.953000069
1600.0	0.000693	137.0
1600.0	0.0006935	137.030999899
1600.0	0.0006923	137.078000069
1600.0	0.0006905	137.108999968
1600.0	0.0006903	137.155999899
1600.0	0.0006915	137.203000069
1600.0	0.000693	137.233999968
1600.0	0.0006905	137.280999899
1600.0	0.0006903	137.328000069
1600.0	0.0006893	137.358999968
1600.0	0.0006925	137.405999899
1600.0	0.000691	137.437000036
1600.0	0.0006903	137.483999968
1600.0	0.0006898	137.530999899
1600.0	0.0006923	137.562000036
1600.0	0.000693	137.608999968
1600.0	0.000691	137.655999899
1600.0	0.000691	137.687000036
1600.0	0.00069	137.733999968
1600.0	0.0006915	137.766000032
1600.0	0.000693	137.812000036
1600.0	0.000691	137.858999968
1600.0	0.0006913	137.891000032
1600.0	0.0006935	137.937000036
1600.0	0.0006935	137.983999968
1600.0	0.0006935	138.030999899
1600.0	0.0006913	138.062000036
1600.0	0.0006915	138.108999968
1600.0	0.0006903	138.141000032
1610.0	0.0006748	138.421999931
1610.0	0.0006663	138.468999863
1610.0	0.000663	138.516000032
1610.0	0.0006598	138.546999931
1610.0	0.000654	138.593999863
1610.0	0.0006518	138.625
1610.0	0.0006515	138.671999931
1610.0	0.000651	138.718999863
1610.0	0.0006485	138.75
1610.0	0.0006473	138.796999931
1610.0	0.0006465	138.843999863
1610.0	0.000648	138.875
1610.0	0.0006485	138.921999931
1610.0	0.0006465	138.968999863
1610.0	0.0006455	139.0
1610.0	0.0006455	139.046999931
1610.0	0.0006475	139.078000069
1610.0	0.0006475	139.125
1610.0	0.0006453	139.171999931
1610.0	0.0006448	139.203000069
1610.0	0.000646	139.25
1610.0	0.000646	139.280999899
1610.0	0.0006448	139.328000069
1610.0	0.000644	139.375
1610.0	0.000644	139.405999899
1610.0	0.0006473	139.453000069
1610.0	0.0006468	139.5
1610.0	0.0006478	139.530999899
1610.0	0.0006465	139.578000069
1610.0	0.0006455	139.625
1610.0	0.000646	139.655999899
1610.0	0.000648	139.703000069
1610.0	0.000646	139.75
1610.0	0.000646	139.780999899
1610.0	0.0006463	139.828000069
1610.0	0.000646	139.875
1610.0	0.0006485	139.905999899
1620.0	0.000629	140.187000036
1620.0	0.0006245	140.233999968
1620.0	0.000618	140.266000032
1620.0	0.0006138	140.312000036
1620.0	0.0006103	140.358999968
1620.0	0.00061	140.391000032
1620.0	0.0006063	140.437000036
1620.0	0.000604	140.468999863
1620.0	0.0006028	140.516000032
1620.0	0.0006038	140.562000036
1620.0	0.0006038	140.593999863
1620.0	0.0006013	140.641000032
1620.0	0.0006008	140.687000036
1620.0	0.0006003	140.718999863
1620.0	0.000602	140.766000032
1620.0	0.0006028	140.796999931
1620.0	0.0006005	140.843999863
1620.0	0.0006003	140.891000032
1620.0	0.0006	140.921999931
1620.0	0.0006028	140.968999863
1620.0	0.0006005	141.016000032
1620.0	0.0006003	141.046999931
1620.0	0.0005993	141.093999863
1620.0	0.0006013	141.141000032
1620.0	0.0006018	141.171999931
1620.0	0.0006	141.218999863
1620.0	0.0005993	141.25
1620.0	0.0005988	141.296999931
1620.0	0.0006008	141.343999863
1620.0	0.0006008	141.375
1620.0	0.0005988	141.421999931
1620.0	0.0005988	141.468999863
1620.0	0.0005993	141.5
1620.0	0.0006	141.546999931
1620.0	0.0005983	141.578000069
1620.0	0.0005975	141.625
1620.0	0.000597	141.671999931
1630.0	0.000577	141.953000069
1630.0	0.0005695	141.983999968
1630.0	0.0005643	142.030999899
1630.0	0.0005625	142.078000069
1630.0	0.000558	142.108999968
1630.0	0.0005555	142.155999899
1630.0	0.0005538	142.203000069
1630.0	0.0005518	142.233999968
1630.0	0.000553	142.280999899
1630.0	0.0005508	142.312000036
1630.0	0.0005505	142.358999968
1630.0	0.00055	142.405999899
1630.0	0.0005518	142.437000036
1630.0	0.0005525	142.483999968
1630.0	0.00055	142.530999899
1630.0	0.00055	142.562000036
1630.0	0.0005505	142.608999968
1630.0	0.0005513	142.641000032
1630.0	0.0005513	142.687000036
1630.0	0.0005493	142.733999968
1630.0	0.0005493	142.766000032
1630.0	0.0005493	142.812000036
1630.0	0.0005515	142.858999968
1630.0	0.0005505	142.891000032
1630.0	0.0005505	142.937000036
1630.0	0.0005505	142.983999968
1630.0	0.0005518	143.016000032
1630.0	0.0005528	143.062000036
1630.0	0.0005513	143.093999863
1630.0	0.0005505	143.141000032
1630.0	0.0005505	143.187000036
1630.0	0.0005518	143.218999863
1630.0	0.0005533	143.266000032
1630.0	0.0005515	143.312000036
1630.0	0.0005513	143.343999863
1630.0	0.000552	143.391000032
1630.0	0.000553	143.421999931
1640.0	0.00053	143.718999863
1640.0	0.000524	143.75
1640.0	0.000518	143.796999931
1640.0	0.000514	143.843999863
1640.0	0.0005088	143.875
1640.0	0.0005063	143.921999931
1640.0	0.000505	143.968999863
1640.0	0.0005043	144.0
1640.0	0.0005018	144.046999931
1640.0	0.0005003	144.093999863
1640.0	0.0004993	144.125
1640.0	0.0004995	144.171999931
1640.0	0.0005003	144.203000069
1640.0	0.0004983	144.25
1640.0	0.0004978	144.296999931
1640.0	0.0004975	144.328000069
1640.0	0.0004993	144.375
1640.0	0.0004988	144.405999899
1640.0	0.0004975	144.453000069
1640.0	0.0004968	144.5
1640.0	0.000497	144.530999899
1640.0	0.0004988	144.578000069
1640.0	0.0004968	144.625
1640.0	0.0004968	144.655999899
1640.0	0.0004965	144.703000069
1640.0	0.0004978	144.75
1640.0	0.000498	144.780999899
1640.0	0.0004965	144.828000069
1640.0	0.0004958	144.858999968
1640.0	0.0004965	144.905999899
1640.0	0.0004988	144.953000069
1640.0	0.0004988	144.983999968
1640.0	0.000497	145.030999899
1640.0	0.0004975	145.078000069
1640.0	0.000499	145.108999968
1640.0	0.0004993	145.155999899
1640.0	0.0004983	145.187000036
1650.0	0.000479	145.483999968
1650.0	0.0004743	145.516000032
1650.0	0.0004675	145.562000036
1650.0	0.000463	145.593999863
1650.0	0.000459	145.641000032
1650.0	0.0004575	145.687000036
1650.0	0.000455	145.718999863
1650.0	0.000453	145.766000032
1650.0	0.000452	145.812000036
1650.0	0.0004515	145.858999968
1650.0	0.000452	145.891000032
1650.0	0.000453	145.937000036
1650.0	0.0004515	145.968999863
1650.0	0.0004508	146.016000032
1650.0	0.0004505	146.062000036
1650.0	0.0004518	146.093999863
1650.0	0.0004508	146.141000032
1650.0	0.00045	146.187000036
1650.0	0.0004493	146.218999863
1650.0	0.0004503	146.266000032
1650.0	0.0004505	146.296999931
1650.0	0.0004495	146.343999863
1650.0	0.0004488	146.391000032
1650.0	0.0004483	146.421999931
1650.0	0.0004493	146.468999863
1650.0	0.00045	146.516000032
1650.0	0.000448	146.546999931
1650.0	0.000448	146.593999863
1650.0	0.000448	146.625
1650.0	0.0004493	146.671999931
1650.0	0.00045	146.718999863
1650.0	0.0004488	146.75
1650.0	0.0004475	146.796999931
1650.0	0.0004483	146.843999863
1650.0	0.0004493	146.875
1650.0	0.000448	146.921999931
1650.0	0.0004488	146.968999863
1660.0	0.0004283	147.25
1660.0	0.000422	147.280999899
1660.0	0.0004175	147.328000069
1660.0	0.000413	147.375
1660.0	0.0004105	147.405999899
1660.0	0.0004065	147.453000069
1660.0	0.0004043	147.483999968
1660.0	0.0004025	147.530999899
1660.0	0.0004028	147.578000069
1660.0	0.0004025	147.608999968
1660.0	0.0004005	147.655999899
1660.0	0.0004003	147.703000069
1660.0	0.0004013	147.733999968
1660.0	0.0004018	147.780999899
1660.0	0.0004008	147.812000036
1660.0	0.0004013	147.858999968
1660.0	0.0004003	147.905999899
1660.0	0.0004013	147.937000036
1660.0	0.000402	147.983999968
1660.0	0.0004008	148.030999899
1660.0	0.0004013	148.062000036
1660.0	0.0004008	148.108999968
1660.0	0.000402	148.141000032
1660.0	0.000403	148.187000036
1660.0	0.0004013	148.233999968
1660.0	0.0004013	148.266000032
1660.0	0.0004008	148.312000036
1660.0	0.000402	148.358999968
1660.0	0.0004015	148.391000032
1660.0	0.0004015	148.437000036
1660.0	0.0004015	148.483999968
1660.0	0.000403	148.516000032
1660.0	0.0004025	148.562000036
1660.0	0.000403	148.593999863
1660.0	0.0004013	148.641000032
1660.0	0.0004008	148.687000036
1660.0	0.000402	148.718999863
1670.0	0.000384	149.016000032
1670.0	0.0003768	149.046999931
1670.0	0.0003725	149.093999863
1670.0	0.00037	149.141000032
1670.0	0.0003658	149.171999931
1670.0	0.0003633	149.218999863
1670.0	0.0003608	149.25
1670.0	0.0003593	149.296999931
1670.0	0.00036	149.343999863
1670.0	0.0003583	149.375
1670.0	0.0003578	149.421999931
1670.0	0.000357	149.468999863
1670.0	0.0003578	149.5
1670.0	0.0003583	149.546999931
1670.0	0.0003568	149.578000069
1670.0	0.0003568	149.625
1670.0	0.0003575	149.671999931
1670.0	0.0003568	149.703000069
1670.0	0.0003555	149.75
1670.0	0.0003553	149.796999931
1670.0	0.000355	149.828000069
1670.0	0.0003565	149.875
1670.0	0.0003563	149.905999899
1670.0	0.000355	149.953000069
1670.0	0.0003545	150.0
1670.0	0.000355	150.030999899
1670.0	0.0003565	150.078000069
1670.0	0.0003565	150.125
1670.0	0.0003555	150.155999899
1670.0	0.0003555	150.203000069
1670.0	0.0003565	150.25
1670.0	0.0003575	150.280999899
1670.0	0.0003575	150.328000069
1670.0	0.0003563	150.358999968
1670.0	0.0003563	150.405999899
1670.0	0.0003565	150.453000069
1670.0	0.0003568	150.483999968
1680.0	0.0003403	150.780999899
1680.0	0.0003363	150.812000036
1680.0	0.0003328	150.858999968
1680.0	0.0003283	150.905999899
1680.0	0.0003258	150.937000036
1680.0	0.0003233	150.983999968
1680.0	0.000322	151.016000032
1680.0	0.000322	151.062000036
1680.0	0.0003203	151.108999968
1680.0	0.0003195	151.141000032
1680.0	0.0003195	151.187000036
1680.0	0.0003203	151.233999968
1680.0	0.000319	151.266000032
1680.0	0.0003188	151.312000036
1680.0	0.0003178	151.358999968
1680.0	0.000319	151.391000032
1680.0	0.0003188	151.437000036
1680.0	0.0003178	151.468999863
1680.0	0.0003175	151.516000032
1680.0	0.0003175	151.562000036
1680.0	0.000319	151.593999863
1680.0	0.0003188	151.641000032
1680.0	0.0003175	151.687000036
1680.0	0.0003168	151.718999863
1680.0	0.0003168	151.766000032
1680.0	0.0003168	151.796999931
1680.0	0.0003168	151.843999863
1680.0	0.0003158	151.891000032
1680.0	0.0003155	151.921999931
1680.0	0.0003165	151.968999863
1680.0	0.0003168	152.016000032
1680.0	0.0003168	152.046999931
1680.0	0.0003158	152.093999863
1680.0	0.000315	152.125
1680.0	0.0003163	152.171999931
1680.0	0.0003165	152.218999863
1680.0	0.0003153	152.25
1690.0	0.0003013	152.546999931
1690.0	0.000298	152.578000069
1690.0	0.0002938	152.625
1690.0	0.0002908	152.671999931
1690.0	0.0002888	152.703000069
1690.0	0.0002875	152.75
1690.0	0.0002865	152.780999899
1690.0	0.000284	152.828000069
1690.0	0.000283	152.875
1690.0	0.000282	152.905999899
1690.0	0.0002825	152.953000069
1690.0	0.0002825	153.0
1690.0	0.0002815	153.030999899
1690.0	0.0002813	153.078000069
1690.0	0.0002818	153.125
1690.0	0.000282	153.155999899
1690.0	0.0002813	153.203000069
1690.0	0.0002813	153.233999968
1690.0	0.0002808	153.280999899
1690.0	0.000282	153.328000069
1690.0	0.0002818	153.358999968
1690.0	0.0002808	153.405999899
1690.0	0.0002805	153.453000069
1690.0	0.0002813	153.483999968
1690.0	0.000282	153.530999899
1690.0	0.0002818	153.562000036
1690.0	0.0002818	153.608999968
1690.0	0.0002813	153.655999899
1690.0	0.000282	153.687000036
1690.0	0.0002828	153.733999968
1690.0	0.0002828	153.780999899
1690.0	0.000282	153.812000036
1690.0	0.0002818	153.858999968
1690.0	0.0002828	153.891000032
1690.0	0.000283	153.937000036
1690.0	0.000282	153.983999968
1690.0	0.0002818	154.016000032
1700.0	0.0002688	154.312000036
1700.0	0.000265	154.343999863
1700.0	0.0002615	154.391000032
1700.0	0.0002583	154.437000036
1700.0	0.0002568	154.468999863
1700.0	0.0002555	154.516000032
1700.0	0.0002533	154.562000036
1700.0	0.000252	154.593999863
1700.0	0.0002513	154.641000032
1700.0	0.0002508	154.671999931
1700.0	0.0002495	154.718999863
1700.0	0.000249	154.766000032
1700.0	0.0002488	154.796999931
1700.0	0.0002495	154.843999863
1700.0	0.0002495	154.891000032
1700.0	0.0002495	154.921999931
1700.0	0.0002488	154.968999863
1700.0	0.0002483	155.0
1700.0	0.0002495	155.046999931
1700.0	0.00025	155.093999863
1700.0	0.0002495	155.125
1700.0	0.0002495	155.171999931
1700.0	0.0002493	155.218999863
1700.0	0.0002505	155.25
1700.0	0.0002493	155.296999931
1700.0	0.0002493	155.328000069
1700.0	0.0002493	155.375
1700.0	0.0002503	155.421999931
1700.0	0.0002505	155.453000069
1700.0	0.0002495	155.5
1700.0	0.00025	155.546999931
1700.0	0.0002495	155.578000069
1700.0	0.0002505	155.625
1700.0	0.0002505	155.655999899
1700.0	0.0002495	155.703000069
1700.0	0.0002495	155.75
1700.0	0.0002505	155.780999899
1710.0	0.0002405	156.078000069
1710.0	0.0002363	156.108999968
1710.0	0.000233	156.155999899
1710.0	0.000232	156.203000069
1710.0	0.0002305	156.233999968
1710.0	0.0002288	156.280999899
1710.0	0.000228	156.328000069
1710.0	0.000227	156.358999968
1710.0	0.0002275	156.405999899
1710.0	0.0002265	156.437000036
1710.0	0.0002263	156.483999968
1710.0	0.0002253	156.530999899
1710.0	0.0002253	156.562000036
1710.0	0.0002253	156.608999968
1710.0	0.0002243	156.655999899
1710.0	0.000224	156.687000036
1710.0	0.000224	156.733999968
1710.0	0.0002245	156.766000032
1710.0	0.000225	156.812000036
1710.0	0.0002243	156.858999968
1710.0	0.000224	156.891000032
1710.0	0.000223	156.937000036
1710.0	0.0002238	156.983999968
1710.0	0.0002238	157.016000032
1710.0	0.0002233	157.062000036
1710.0	0.0002233	157.108999968
1710.0	0.000224	157.141000032
1710.0	0.000224	157.187000036
1710.0	0.0002238	157.218999863
1710.0	0.0002238	157.266000032
1710.0	0.0002238	157.312000036
1710.0	0.000224	157.343999863
1710.0	0.0002238	157.391000032
1710.0	0.000223	157.437000036
1710.0	0.0002225	157.468999863
1710.0	0.000222	157.516000032
1710.0	0.0002233	157.546999931
1720.0	0.000213	157.843999863
1720.0	0.0002093	157.875
1720.0	0.0002075	157.921999931
1720.0	0.0002053	157.968999863
1720.0	0.0002025	158.0
1720.0	0.0002013	158.046999931
1720.0	0.0002	158.093999863
1720.0	0.0002	158.125
1720.0	0.0001993	158.171999931
1720.0	0.0001983	158.218999863
1720.0	0.000198	158.25
1720.0	0.0001983	158.296999931
1720.0	0.0001995	158.328000069
1720.0	0.000199	158.375
1720.0	0.0001988	158.421999931
1720.0	0.000199	158.453000069
1720.0	0.0001995	158.5
1720.0	0.0002	158.530999899
1720.0	0.0001995	158.578000069
1720.0	0.0001993	158.625
1720.0	0.0001995	158.655999899
1720.0	0.0002	158.703000069
1720.0	0.0001995	158.75
1720.0	0.0002003	158.780999899
1720.0	0.0002	158.828000069
1720.0	0.0002013	158.875
1720.0	0.0002015	158.905999899
1720.0	0.0002013	158.953000069
1720.0	0.0002005	158.983999968
1720.0	0.0002	159.030999899
1720.0	0.0002	159.078000069
1720.0	0.0002005	159.108999968
1720.0	0.0002	159.155999899
1720.0	0.0001995	159.203000069
1720.0	0.0002003	159.233999968
1720.0	0.0002008	159.280999899
1720.0	0.0002008	159.312000036
1730.0	0.000193	159.608999968
1730.0	0.00019	159.655999899
1730.0	0.0001883	159.687000036
1730.0	0.0001863	159.733999968
1730.0	0.0001845	159.780999899
1730.0	0.0001833	159.812000036
1730.0	0.0001828	159.858999968
1730.0	0.0001818	159.905999899
1730.0	0.0001805	159.937000036
1730.0	0.0001805	159.983999968
1730.0	0.00018	160.016000032
1730.0	0.0001803	160.062000036
1730.0	0.00018	160.108999968
1730.0	0.0001793	160.141000032
1730.0	0.000179	160.187000036
1730.0	0.000179	160.233999968
1730.0	0.0001795	160.266000032
1730.0	0.00018	160.312000036
1730.0	0.0001793	160.343999863
1730.0	0.0001793	160.391000032
1730.0	0.00018	160.437000036
1730.0	0.00018	160.468999863
1730.0	0.000179	160.516000032
1730.0	0.0001788	160.562000036
1730.0	0.0001788	160.593999863
1730.0	0.0001793	160.641000032
1730.0	0.0001795	160.671999931
1730.0	0.0001788	160.718999863
1730.0	0.0001783	160.766000032
1730.0	0.0001783	160.796999931
1730.0	0.000179	160.843999863
1730.0	0.0001788	160.891000032
1730.0	0.0001778	160.921999931
1730.0	0.0001775	160.968999863
1730.0	0.0001788	161.016000032
1730.0	0.000178	161.046999931
1730.0	0.0001793	161.093999863
1740.0	0.0001713	161.375
1740.0	0.0001683	161.421999931
1740.0	0.0001675	161.468999863
1740.0	0.0001658	161.5
1740.0	0.0001643	161.546999931
1740.0	0.0001638	161.593999863
1740.0	0.000163	161.625
1740.0	0.0001638	161.671999931
1740.0	0.0001628	161.703000069
1740.0	0.000162	161.75
1740.0	0.0001618	161.796999931
1740.0	0.000162	161.828000069
1740.0	0.0001618	161.875
1740.0	0.0001613	161.921999931
1740.0	0.0001608	161.953000069
1740.0	0.0001613	162.0
1740.0	0.0001618	162.046999931
1740.0	0.0001615	162.078000069
1740.0	0.0001618	162.125
1740.0	0.0001618	162.155999899
1740.0	0.0001625	162.203000069
1740.0	0.0001625	162.25
1740.0	0.000162	162.280999899
1740.0	0.000162	162.328000069
1740.0	0.000162	162.375
1740.0	0.0001618	162.405999899
1740.0	0.0001628	162.453000069
1740.0	0.000162	162.5
1740.0	0.000162	162.530999899
1740.0	0.0001625	162.578000069
1740.0	0.0001633	162.625
1740.0	0.0001633	162.655999899
1740.0	0.0001628	162.703000069
1740.0	0.0001628	162.733999968
1740.0	0.0001628	162.780999899
1740.0	0.0001633	162.828000069
1740.0	0.0001633	162.858999968
1750.0	0.0001563	163.155999899
1750.0	0.0001538	163.187000036
1750.0	0.000152	163.233999968
1750.0	0.0001508	163.280999899
1750.0	0.0001503	163.312000036
1750.0	0.000149	163.358999968
1750.0	0.0001488	163.391000032
1750.0	0.000148	163.437000036
1750.0	0.000147	163.483999968
1750.0	0.0001468	163.516000032
1750.0	0.0001463	163.562000036
1750.0	0.0001465	163.608999968
1750.0	0.0001458	163.641000032
1750.0	0.0001453	163.687000036
1750.0	0.0001453	163.718999863
1750.0	0.0001453	163.766000032
1750.0	0.0001455	163.812000036
1750.0	0.000145	163.843999863
1750.0	0.000145	163.891000032
1750.0	0.000145	163.937000036
1750.0	0.0001455	163.968999863
1750.0	0.000145	164.016000032
1750.0	0.0001443	164.062000036
1750.0	0.0001443	164.093999863
1750.0	0.0001443	164.141000032
1750.0	0.0001443	164.171999931
1750.0	0.0001445	164.218999863
1750.0	0.0001443	164.266000032
1750.0	0.0001445	164.296999931
1750.0	0.0001453	164.343999863
1750.0	0.0001455	164.391000032
1750.0	0.000145	164.421999931
1750.0	0.0001453	164.468999863
1750.0	0.0001455	164.516000032
1750.0	0.0001455	164.546999931
1750.0	0.0001463	164.593999863
1750.0	0.0001465	164.641000032
1760.0	0.0001405	164.921999931
1760.0	0.0001393	164.968999863
1760.0	0.0001375	165.0
1760.0	0.0001355	165.046999931
1760.0	0.000135	165.093999863
1760.0	0.0001343	165.125
1760.0	0.0001343	165.171999931
1760.0	0.0001343	165.203000069
1760.0	0.0001338	165.25
1760.0	0.000133	165.296999931
1760.0	0.000133	165.328000069
1760.0	0.0001333	165.375
1760.0	0.0001333	165.421999931
1760.0	0.000133	165.453000069
1760.0	0.000133	165.5
1760.0	0.000133	165.546999931
1760.0	0.0001333	165.578000069
1760.0	0.0001338	165.625
1760.0	0.0001333	165.671999931
1760.0	0.0001333	165.703000069
1760.0	0.0001338	165.75
1760.0	0.0001343	165.780999899
1760.0	0.000134	165.828000069
1760.0	0.0001338	165.875
1760.0	0.0001333	165.905999899
1760.0	0.0001333	165.953000069
1760.0	0.0001338	166.0
1760.0	0.000133	166.030999899
1760.0	0.0001333	166.078000069
1760.0	0.000133	166.108999968
1760.0	0.0001338	166.155999899
1760.0	0.0001338	166.203000069
1760.0	0.0001333	166.233999968
1760.0	0.0001333	166.280999899
1760.0	0.000133	166.328000069
1760.0	0.000133	166.358999968
1770.0	0.0001283	166.655999899
1770.0	0.0001263	166.703000069
1770.0	0.0001245	166.733999968
1770.0	0.000124	166.780999899
1770.0	0.0001228	166.812000036
1770.0	0.000122	166.858999968
1770.0	0.0001213	166.905999899
1770.0	0.0001208	166.937000036
1770.0	0.0001208	166.983999968
1770.0	0.0001205	167.030999899
1770.0	0.00012	167.062000036
1770.0	0.0001195	167.108999968
1770.0	0.0001195	167.141000032
1770.0	0.00012	167.187000036
1770.0	0.0001195	167.233999968
1770.0	0.0001193	167.266000032
1770.0	0.0001195	167.312000036
1770.0	0.0001203	167.358999968
1770.0	0.0001203	167.391000032
1770.0	0.0001195	167.437000036
1770.0	0.0001193	167.468999863
1770.0	0.000119	167.516000032
1770.0	0.0001193	167.562000036
1770.0	0.0001193	167.593999863
1770.0	0.0001193	167.641000032
1770.0	0.0001195	167.687000036
1770.0	0.00012	167.718999863
1770.0	0.0001195	167.766000032
1770.0	0.0001188	167.812000036
1770.0	0.0001183	167.843999863
1770.0	0.0001183	167.891000032
1770.0	0.0001188	167.921999931
1770.0	0.0001188	167.968999863
1770.0	0.0001188	168.016000032
1770.0	0.0001188	168.046999931
1770.0	0.0001193	168.093999863
1770.0	0.00012	168.141000032
1780.0	0.0001155	168.421999931
1780.0	0.0001138	168.468999863
1780.0	0.0001125	168.5
1780.0	0.0001113	168.546999931
1780.0	0.00011	168.578000069
1780.0	0.0001093	168.625
1780.0	0.0001093	168.671999931
1780.0	0.0001093	168.703000069
1780.0	0.0001088	168.75
1780.0	0.0001088	168.796999931
1780.0	0.0001088	168.828000069
1780.0	0.000109	168.875
1780.0	0.000109	168.905999899
1780.0	0.0001083	168.953000069
1780.0	0.000108	169.0
1780.0	0.0001078	169.030999899
1780.0	0.000108	169.078000069
1780.0	0.0001088	169.125
1780.0	0.0001083	169.171999931
1780.0	0.0001083	169.203000069
1780.0	0.0001088	169.25
1780.0	0.000109	169.280999899
1780.0	0.0001093	169.328000069
1780.0	0.000109	169.375
1780.0	0.0001088	169.405999899
1780.0	0.0001088	169.453000069
1780.0	0.000109	169.5
1780.0	0.000109	169.530999899
1780.0	0.0001088	169.578000069
1780.0	0.0001083	169.608999968
1780.0	0.000109	169.655999899
1780.0	0.000109	169.703000069
1780.0	0.0001088	169.733999968
1780.0	0.0001088	169.780999899
1780.0	0.0001088	169.828000069
1780.0	0.000109	169.858999968
1780.0	0.0001095	169.905999899
1790.0	0.0001053	170.187000036
1790.0	0.0001033	170.233999968
1790.0	0.0001028	170.266000032
1790.0	0.0001008	170.312000036
1790.0	9.95e-05	170.358999968
1790.0	9.88e-05	170.391000032
1790.0	9.8e-05	170.437000036
1790.0	9.75e-05	170.483999968
1790.0	9.68e-05	170.516000032
1790.0	9.68e-05	170.562000036
1790.0	9.7e-05	170.608999968
1790.0	9.75e-05	170.641000032
1790.0	9.75e-05	170.687000036
1790.0	9.7e-05	170.718999863
1790.0	9.68e-05	170.766000032
1790.0	9.68e-05	170.812000036
1790.0	9.68e-05	170.843999863
1790.0	9.63e-05	170.891000032
1790.0	9.63e-05	170.937000036
1790.0	9.63e-05	170.968999863
1790.0	9.65e-05	171.016000032
1790.0	9.65e-05	171.046999931
1790.0	9.65e-05	171.093999863
1790.0	9.68e-05	171.141000032
1790.0	9.68e-05	171.171999931
1790.0	9.68e-05	171.218999863
1790.0	9.65e-05	171.266000032
1790.0	9.65e-05	171.296999931
1790.0	9.63e-05	171.343999863
1790.0	9.63e-05	171.391000032
1790.0	9.63e-05	171.421999931
1790.0	9.63e-05	171.468999863
1790.0	9.63e-05	171.5
1790.0	9.58e-05	171.546999931
1790.0	9.58e-05	171.593999863
1790.0	9.63e-05	171.625
1790.0	9.55e-05	171.671999931
1800.0	9.18e-05	171.968999863
1800.0	9.03e-05	172.0
1800.0	8.93e-05	172.046999931
1800.0	8.8e-05	172.078000069
1800.0	8.7e-05	172.125
1800.0	8.65e-05	172.171999931
1800.0	8.63e-05	172.203000069
1800.0	8.58e-05	172.25
1800.0	8.53e-05	172.296999931
1800.0	8.53e-05	172.328000069
1800.0	8.55e-05	172.375
1800.0	8.65e-05	172.421999931
1800.0	8.63e-05	172.453000069
1800.0	8.63e-05	172.5
1800.0	8.65e-05	172.546999931
1800.0	8.65e-05	172.578000069
1800.0	8.7e-05	172.625
1800.0	8.7e-05	172.655999899
1800.0	8.68e-05	172.703000069
1800.0	8.7e-05	172.75
1800.0	8.68e-05	172.780999899
1800.0	8.75e-05	172.828000069
1800.0	8.75e-05	172.875
1800.0	8.68e-05	172.905999899
1800.0	8.68e-05	172.953000069
1800.0	8.7e-05	172.983999968
1800.0	8.7e-05	173.030999899
1800.0	8.68e-05	173.078000069
1800.0	8.65e-05	173.108999968
1800.0	8.63e-05	173.155999899
1800.0	8.65e-05	173.203000069
1800.0	8.65e-05	173.233999968
1800.0	8.63e-05	173.280999899
1800.0	8.63e-05	173.328000069
1800.0	8.63e-05	173.358999968
1800.0	8.65e-05	173.405999899
1800.0	8.65e-05	173.437000036
