Your edit line - do NOT delete this line
Wavelength [nm], Voltage [V], Elapsed time [s]
900.0	0.0001993	6.34400010109
900.0	0.0001953	6.375
900.0	0.000192	6.42200016975
900.0	0.0001895	6.46900010109
900.0	0.0001878	6.5
900.0	0.0001865	6.54700016975
900.0	0.0001855	6.57800006866
900.0	0.000185	6.625
900.0	0.0001845	6.67200016975
900.0	0.000184	6.70300006866
900.0	0.000183	6.75
900.0	0.0001825	6.79700016975
900.0	0.000182	6.82800006866
900.0	0.0001818	6.875
900.0	0.000182	6.90600013733
900.0	0.000182	6.95300006866
900.0	0.0001825	7.0
900.0	0.0001828	7.03100013733
900.0	0.0001828	7.07800006866
900.0	0.0001825	7.125
900.0	0.000182	7.15600013733
900.0	0.000182	7.20300006866
900.0	0.000182	7.23500013351
900.0	0.000182	7.28100013733
900.0	0.0001818	7.32800006866
900.0	0.0001818	7.36000013351
900.0	0.0001818	7.40600013733
900.0	0.000182	7.45300006866
900.0	0.000182	7.48500013351
900.0	0.000182	7.53100013733
900.0	0.0001825	7.56300020218
900.0	0.0001825	7.61000013351
900.0	0.0001825	7.65600013733
900.0	0.0001825	7.68800020218
900.0	0.0001828	7.73500013351
900.0	0.0001828	7.78100013733
900.0	0.0001828	7.81300020218
910.0	0.0001903	8.125
910.0	0.000193	8.17200016975
910.0	0.000195	8.20300006866
910.0	0.0001965	8.25
910.0	0.0001978	8.29700016975
910.0	0.000199	8.32800006866
910.0	0.0002	8.375
910.0	0.0002005	8.40600013733
910.0	0.0002008	8.45300006866
910.0	0.0002013	8.5
910.0	0.0002015	8.53100013733
910.0	0.0002018	8.57800006866
910.0	0.0002025	8.61000013351
910.0	0.0002025	8.65600013733
910.0	0.0002025	8.70300006866
910.0	0.0002025	8.73500013351
910.0	0.0002025	8.78100013733
910.0	0.0002025	8.82800006866
910.0	0.0002028	8.86000013351
910.0	0.000203	8.90600013733
910.0	0.0002028	8.95300006866
910.0	0.0002025	8.98500013351
910.0	0.0002025	9.03100013733
910.0	0.000202	9.06300020218
910.0	0.0002025	9.11000013351
910.0	0.000203	9.15600013733
910.0	0.000203	9.18800020218
910.0	0.000203	9.23500013351
910.0	0.0002028	9.28100013733
910.0	0.0002028	9.31300020218
910.0	0.0002025	9.36000013351
910.0	0.0002025	9.39100003242
910.0	0.000202	9.43800020218
910.0	0.0002018	9.48500013351
910.0	0.0002018	9.51600003242
910.0	0.000202	9.56300020218
910.0	0.000202	9.61000013351
920.0	0.0002125	9.90600013733
920.0	0.0002155	9.95300006866
920.0	0.0002183	10.0
920.0	0.0002203	10.0310001373
920.0	0.000222	10.0780000687
920.0	0.0002238	10.1100001335
920.0	0.0002243	10.1560001373
920.0	0.0002245	10.2030000687
920.0	0.000225	10.2350001335
920.0	0.0002255	10.2810001373
920.0	0.0002258	10.3280000687
920.0	0.0002263	10.3600001335
920.0	0.0002263	10.4060001373
920.0	0.0002263	10.4530000687
920.0	0.0002263	10.4850001335
920.0	0.0002263	10.5310001373
920.0	0.0002258	10.5630002022
920.0	0.0002263	10.6100001335
920.0	0.0002258	10.6560001373
920.0	0.0002258	10.6880002022
920.0	0.0002255	10.7350001335
920.0	0.0002253	10.7810001373
920.0	0.0002255	10.8130002022
920.0	0.0002255	10.8600001335
920.0	0.0002255	10.8910000324
920.0	0.0002255	10.9380002022
920.0	0.0002255	10.9850001335
920.0	0.0002253	11.0160000324
920.0	0.0002255	11.0630002022
920.0	0.0002255	11.1100001335
920.0	0.0002255	11.1410000324
920.0	0.0002255	11.1880002022
920.0	0.0002255	11.2190001011
920.0	0.0002255	11.2660000324
920.0	0.0002263	11.3130002022
920.0	0.0002263	11.3440001011
920.0	0.0002265	11.3910000324
930.0	0.0002365	11.6880002022
930.0	0.00024	11.7350001335
930.0	0.0002425	11.7810001373
930.0	0.0002443	11.8130002022
930.0	0.0002463	11.8600001335
930.0	0.0002475	11.9060001373
930.0	0.0002483	11.9380002022
930.0	0.000249	11.9850001335
930.0	0.000249	12.0310001373
930.0	0.0002493	12.0630002022
930.0	0.0002493	12.1100001335
930.0	0.000249	12.1560001373
930.0	0.000249	12.1880002022
930.0	0.0002488	12.2350001335
930.0	0.0002488	12.2660000324
930.0	0.000249	12.3130002022
930.0	0.0002493	12.3600001335
930.0	0.0002495	12.3910000324
930.0	0.00025	12.4380002022
930.0	0.0002495	12.4850001335
930.0	0.0002495	12.5160000324
930.0	0.0002493	12.5630002022
930.0	0.0002493	12.6100001335
930.0	0.0002493	12.6410000324
930.0	0.000249	12.6880002022
930.0	0.000249	12.7190001011
930.0	0.0002488	12.7660000324
930.0	0.0002483	12.8130002022
930.0	0.0002483	12.8440001011
930.0	0.0002483	12.8910000324
930.0	0.0002488	12.9380002022
930.0	0.0002483	12.9690001011
930.0	0.000248	13.0160000324
930.0	0.000248	13.0470001698
930.0	0.000248	13.0940001011
930.0	0.000248	13.1410000324
930.0	0.0002483	13.1720001698
940.0	0.0002583	13.4690001011
940.0	0.0002615	13.5160000324
940.0	0.000264	13.5630002022
940.0	0.0002663	13.6100001335
940.0	0.0002678	13.6410000324
940.0	0.0002693	13.6880002022
940.0	0.00027	13.7350001335
940.0	0.0002705	13.7660000324
940.0	0.0002713	13.8130002022
940.0	0.000272	13.8440001011
940.0	0.0002725	13.8910000324
940.0	0.000273	13.9380002022
940.0	0.0002733	13.9690001011
940.0	0.0002738	14.0160000324
940.0	0.0002738	14.0630002022
940.0	0.000274	14.0940001011
940.0	0.0002738	14.1410000324
940.0	0.000274	14.1720001698
940.0	0.000274	14.2190001011
940.0	0.000274	14.2660000324
940.0	0.000274	14.2970001698
940.0	0.000274	14.3440001011
940.0	0.000274	14.3910000324
940.0	0.000274	14.4220001698
940.0	0.0002738	14.4690001011
940.0	0.0002738	14.5160000324
940.0	0.0002738	14.5470001698
940.0	0.0002738	14.5940001011
940.0	0.0002738	14.6410000324
940.0	0.0002738	14.6720001698
940.0	0.0002738	14.7190001011
940.0	0.0002738	14.7660000324
940.0	0.000274	14.7970001698
940.0	0.000274	14.8440001011
940.0	0.0002738	14.875
940.0	0.0002738	14.9220001698
940.0	0.0002733	14.9690001011
950.0	0.0002833	15.25
950.0	0.0002868	15.2970001698
950.0	0.0002895	15.3440001011
950.0	0.0002918	15.375
950.0	0.000293	15.4220001698
950.0	0.0002945	15.4690001011
950.0	0.0002955	15.5
950.0	0.0002965	15.5470001698
950.0	0.000297	15.5780000687
950.0	0.000297	15.625
950.0	0.000298	15.6720001698
950.0	0.000298	15.7030000687
950.0	0.0002988	15.75
950.0	0.0002988	15.7970001698
950.0	0.000299	15.8280000687
950.0	0.000299	15.875
950.0	0.000299	15.9060001373
950.0	0.0002993	15.9530000687
950.0	0.000299	16.0
950.0	0.000299	16.0310001373
950.0	0.0002988	16.0780000687
950.0	0.0002983	16.125
950.0	0.000298	16.1560001373
950.0	0.0002983	16.2030000687
950.0	0.0002983	16.2350001335
950.0	0.000298	16.2810001373
950.0	0.000298	16.3280000687
950.0	0.000298	16.3600001335
950.0	0.000298	16.4060001373
950.0	0.0002983	16.4530000687
950.0	0.000298	16.4850001335
950.0	0.000298	16.5310001373
950.0	0.000298	16.5780000687
950.0	0.000298	16.6100001335
950.0	0.000298	16.6560001373
950.0	0.0002983	16.7030000687
950.0	0.0002983	16.7350001335
960.0	0.000308	17.0310001373
960.0	0.0003118	17.0630002022
960.0	0.0003143	17.1100001335
960.0	0.0003168	17.1410000324
960.0	0.0003188	17.1880002022
960.0	0.0003203	17.2350001335
960.0	0.0003213	17.2660000324
960.0	0.0003218	17.3130002022
960.0	0.0003228	17.3600001335
960.0	0.000323	17.3910000324
960.0	0.0003238	17.4380002022
960.0	0.000324	17.4850001335
960.0	0.000324	17.5160000324
960.0	0.0003243	17.5630002022
960.0	0.0003243	17.5940001011
960.0	0.0003243	17.6410000324
960.0	0.0003243	17.6880002022
960.0	0.000324	17.7190001011
960.0	0.0003238	17.7660000324
960.0	0.0003233	17.8130002022
960.0	0.000323	17.8440001011
960.0	0.0003228	17.8910000324
960.0	0.0003228	17.9220001698
960.0	0.0003228	17.9690001011
960.0	0.000323	18.0160000324
960.0	0.0003233	18.0470001698
960.0	0.0003233	18.0940001011
960.0	0.0003233	18.1410000324
960.0	0.0003233	18.1720001698
960.0	0.0003233	18.2190001011
960.0	0.000323	18.25
960.0	0.000323	18.2970001698
960.0	0.0003228	18.3440001011
960.0	0.0003228	18.375
960.0	0.0003228	18.4220001698
960.0	0.0003225	18.4690001011
960.0	0.0003225	18.5
970.0	0.0003318	18.7810001373
970.0	0.0003345	18.8280000687
970.0	0.0003375	18.875
970.0	0.0003395	18.9060001373
970.0	0.0003415	18.9530000687
970.0	0.0003428	19.0
970.0	0.0003438	19.0310001373
970.0	0.0003445	19.0780000687
970.0	0.0003453	19.125
970.0	0.0003458	19.1560001373
970.0	0.0003465	19.2030000687
970.0	0.0003468	19.25
970.0	0.0003468	19.2810001373
970.0	0.0003465	19.3280000687
970.0	0.0003463	19.3600001335
970.0	0.0003463	19.4060001373
970.0	0.0003465	19.4530000687
970.0	0.0003468	19.4850001335
970.0	0.0003465	19.5310001373
970.0	0.0003463	19.5780000687
970.0	0.0003463	19.6100001335
970.0	0.0003463	19.6560001373
970.0	0.0003465	19.7030000687
970.0	0.0003468	19.7350001335
970.0	0.000347	19.7810001373
970.0	0.000347	19.8280000687
970.0	0.000347	19.8600001335
970.0	0.000347	19.9060001373
970.0	0.000347	19.9380002022
970.0	0.000347	19.9850001335
970.0	0.0003475	20.0310001373
970.0	0.0003475	20.0630002022
970.0	0.0003475	20.1100001335
970.0	0.0003475	20.1560001373
970.0	0.0003475	20.1880002022
970.0	0.0003475	20.2350001335
970.0	0.0003475	20.2810001373
980.0	0.0003553	20.5470001698
980.0	0.0003583	20.5940001011
980.0	0.0003613	20.6410000324
980.0	0.0003633	20.6720001698
980.0	0.0003645	20.7190001011
980.0	0.0003663	20.7660000324
980.0	0.000367	20.7970001698
980.0	0.000368	20.8440001011
980.0	0.0003688	20.875
980.0	0.000369	20.9220001698
980.0	0.0003693	20.9690001011
980.0	0.0003695	21.0
980.0	0.00037	21.0470001698
980.0	0.00037	21.0940001011
980.0	0.0003703	21.125
980.0	0.0003703	21.1720001698
980.0	0.0003705	21.2190001011
980.0	0.0003705	21.25
980.0	0.0003705	21.2970001698
980.0	0.0003705	21.3280000687
980.0	0.0003708	21.375
980.0	0.0003708	21.4220001698
980.0	0.0003713	21.4530000687
980.0	0.0003713	21.5
980.0	0.0003713	21.5470001698
980.0	0.0003713	21.5780000687
980.0	0.0003713	21.625
980.0	0.0003708	21.6560001373
980.0	0.0003708	21.7030000687
980.0	0.0003705	21.75
980.0	0.0003705	21.7810001373
980.0	0.0003705	21.8280000687
980.0	0.0003705	21.8600001335
980.0	0.0003703	21.9060001373
980.0	0.0003703	21.9530000687
980.0	0.0003705	21.9850001335
980.0	0.0003703	22.0310001373
990.0	0.0003783	22.3130002022
990.0	0.0003815	22.3600001335
990.0	0.0003843	22.3910000324
990.0	0.0003865	22.4380002022
990.0	0.0003883	22.4690001011
990.0	0.00039	22.5160000324
990.0	0.0003908	22.5630002022
990.0	0.0003918	22.5940001011
990.0	0.000392	22.6410000324
990.0	0.000392	22.6880002022
990.0	0.0003925	22.7190001011
990.0	0.0003925	22.7660000324
990.0	0.000393	22.7970001698
990.0	0.0003933	22.8440001011
990.0	0.0003933	22.8910000324
990.0	0.0003938	22.9380002022
990.0	0.000394	22.9690001011
990.0	0.000394	23.0160000324
990.0	0.000394	23.0630002022
990.0	0.0003938	23.0940001011
990.0	0.0003938	23.1410000324
990.0	0.0003938	23.1880002022
990.0	0.0003938	23.2190001011
990.0	0.0003938	23.2660000324
990.0	0.0003938	23.3130002022
990.0	0.0003938	23.3440001011
990.0	0.0003938	23.3910000324
990.0	0.0003933	23.4220001698
990.0	0.0003933	23.4690001011
990.0	0.0003933	23.5160000324
990.0	0.0003933	23.5470001698
990.0	0.0003938	23.5940001011
990.0	0.0003938	23.6410000324
990.0	0.0003938	23.6720001698
990.0	0.0003938	23.7190001011
990.0	0.000394	23.75
990.0	0.0003938	23.7970001698
1000.0	0.0004028	24.0780000687
1000.0	0.0004063	24.125
1000.0	0.0004083	24.1560001373
1000.0	0.0004108	24.2030000687
1000.0	0.0004125	24.2350001335
1000.0	0.0004138	24.2810001373
1000.0	0.0004145	24.3280000687
1000.0	0.0004153	24.3600001335
1000.0	0.0004158	24.4060001373
1000.0	0.0004165	24.4530000687
1000.0	0.0004165	24.4850001335
1000.0	0.0004165	24.5310001373
1000.0	0.0004168	24.5630002022
1000.0	0.0004168	24.6100001335
1000.0	0.0004168	24.6560001373
1000.0	0.0004168	24.6880002022
1000.0	0.0004165	24.7350001335
1000.0	0.0004165	24.7810001373
1000.0	0.0004165	24.8130002022
1000.0	0.0004165	24.8600001335
1000.0	0.0004165	24.9060001373
1000.0	0.0004168	24.9380002022
1000.0	0.000417	24.9850001335
1000.0	0.000417	25.0310001373
1000.0	0.0004168	25.0630002022
1000.0	0.0004168	25.1100001335
1000.0	0.0004168	25.1560001373
1000.0	0.0004168	25.1880002022
1000.0	0.0004168	25.2350001335
1000.0	0.0004168	25.2660000324
1000.0	0.000417	25.3130002022
1000.0	0.0004175	25.3600001335
1000.0	0.0004175	25.3910000324
1000.0	0.0004175	25.4380002022
1000.0	0.0004175	25.4850001335
1000.0	0.0004175	25.5160000324
1000.0	0.0004175	25.5630002022
1010.0	0.000427	25.8440001011
1010.0	0.00043	25.875
1010.0	0.0004325	25.9220001698
1010.0	0.0004345	25.9690001011
1010.0	0.0004368	26.0
1010.0	0.000438	26.0470001698
1010.0	0.0004393	26.0940001011
1010.0	0.00044	26.125
1010.0	0.0004405	26.1720001698
1010.0	0.0004408	26.2030000687
1010.0	0.0004408	26.25
1010.0	0.0004408	26.2970001698
1010.0	0.0004408	26.3280000687
1010.0	0.0004413	26.375
1010.0	0.0004413	26.4220001698
1010.0	0.0004415	26.4530000687
1010.0	0.0004415	26.5
1010.0	0.0004415	26.5310001373
1010.0	0.0004415	26.5780000687
1010.0	0.0004413	26.625
1010.0	0.0004413	26.6560001373
1010.0	0.0004415	26.7030000687
1010.0	0.0004415	26.75
1010.0	0.000442	26.7810001373
1010.0	0.000442	26.8280000687
1010.0	0.000442	26.8600001335
1010.0	0.000442	26.9060001373
1010.0	0.000442	26.9530000687
1010.0	0.0004418	26.9850001335
1010.0	0.0004418	27.0310001373
1010.0	0.000442	27.0780000687
1010.0	0.0004425	27.1100001335
1010.0	0.000442	27.1560001373
1010.0	0.000442	27.1880002022
1010.0	0.0004418	27.2350001335
1010.0	0.000442	27.2810001373
1010.0	0.0004418	27.3130002022
1020.0	0.000452	27.5940001011
1020.0	0.000455	27.6410000324
1020.0	0.0004575	27.6880002022
1020.0	0.0004593	27.7190001011
1020.0	0.0004613	27.7660000324
1020.0	0.0004625	27.8130002022
1020.0	0.0004633	27.8440001011
1020.0	0.0004643	27.8910000324
1020.0	0.000465	27.9380002022
1020.0	0.0004655	27.9690001011
1020.0	0.0004655	28.0160000324
1020.0	0.0004655	28.0470001698
1020.0	0.0004655	28.0940001011
1020.0	0.0004658	28.1410000324
1020.0	0.0004663	28.1720001698
1020.0	0.0004663	28.2190001011
1020.0	0.0004663	28.2660000324
1020.0	0.0004663	28.2970001698
1020.0	0.0004663	28.3440001011
1020.0	0.0004658	28.375
1020.0	0.0004658	28.4220001698
1020.0	0.0004658	28.4690001011
1020.0	0.0004663	28.5
1020.0	0.0004663	28.5470001698
1020.0	0.0004663	28.5940001011
1020.0	0.0004663	28.625
1020.0	0.0004663	28.6720001698
1020.0	0.0004663	28.7030000687
1020.0	0.0004663	28.75
1020.0	0.0004663	28.7970001698
1020.0	0.0004663	28.8280000687
1020.0	0.0004665	28.875
1020.0	0.0004665	28.9220001698
1020.0	0.0004668	28.9530000687
1020.0	0.0004668	29.0
1020.0	0.0004668	29.0470001698
1020.0	0.0004668	29.0780000687
1030.0	0.0004755	29.3600001335
1030.0	0.000479	29.4060001373
1030.0	0.0004818	29.4530000687
1030.0	0.0004843	29.4850001335
1030.0	0.0004858	29.5310001373
1030.0	0.000487	29.5630002022
1030.0	0.000488	29.6100001335
1030.0	0.000489	29.6560001373
1030.0	0.0004895	29.6880002022
1030.0	0.00049	29.7350001335
1030.0	0.0004903	29.7810001373
1030.0	0.0004903	29.8130002022
1030.0	0.0004903	29.8600001335
1030.0	0.0004903	29.9060001373
1030.0	0.0004903	29.9380002022
1030.0	0.00049	29.9850001335
1030.0	0.00049	30.0310001373
1030.0	0.0004895	30.0630002022
1030.0	0.0004895	30.1100001335
1030.0	0.0004895	30.1410000324
1030.0	0.0004895	30.1880002022
1030.0	0.0004895	30.2350001335
1030.0	0.00049	30.2660000324
1030.0	0.0004903	30.3130002022
1030.0	0.0004903	30.3600001335
1030.0	0.0004903	30.3910000324
1030.0	0.0004905	30.4380002022
1030.0	0.0004905	30.4850001335
1030.0	0.0004905	30.5160000324
1030.0	0.0004905	30.5630002022
1030.0	0.0004905	30.6100001335
1030.0	0.0004903	30.6410000324
1030.0	0.00049	30.6880002022
1030.0	0.00049	30.7350001335
1030.0	0.0004903	30.7660000324
1030.0	0.0004903	30.8130002022
1030.0	0.00049	30.8440001011
1040.0	0.0004993	31.1410000324
1040.0	0.0005025	31.1720001698
1040.0	0.000505	31.2190001011
1040.0	0.0005075	31.25
1040.0	0.0005093	31.2970001698
1040.0	0.0005105	31.3440001011
1040.0	0.0005115	31.375
1040.0	0.0005125	31.4220001698
1040.0	0.000513	31.4690001011
1040.0	0.0005133	31.5
1040.0	0.0005133	31.5470001698
1040.0	0.0005133	31.5780000687
1040.0	0.0005138	31.625
1040.0	0.0005133	31.6720001698
1040.0	0.0005133	31.7030000687
1040.0	0.0005133	31.75
1040.0	0.000513	31.7970001698
1040.0	0.000513	31.8280000687
1040.0	0.0005125	31.875
1040.0	0.0005125	31.9220001698
1040.0	0.0005128	31.9530000687
1040.0	0.0005128	32.0
1040.0	0.000513	32.0310001373
1040.0	0.000513	32.0780000687
1040.0	0.000513	32.125
1040.0	0.000513	32.1560001373
1040.0	0.0005128	32.2030000687
1040.0	0.0005128	32.25
1040.0	0.0005125	32.2810001373
1040.0	0.000512	32.3280000687
1040.0	0.0005125	32.3600001335
1040.0	0.0005128	32.4060001373
1040.0	0.0005133	32.4530000687
1040.0	0.000513	32.4850001335
1040.0	0.0005128	32.5310001373
1040.0	0.0005128	32.5780000687
1040.0	0.000513	32.6100001335
1050.0	0.000523	32.8910000324
1050.0	0.0005263	32.9380002022
1050.0	0.0005288	32.9850001335
1050.0	0.0005313	33.0160000324
1050.0	0.0005325	33.0630002022
1050.0	0.000534	33.0940001011
1050.0	0.0005353	33.1410000324
1050.0	0.0005358	33.1880002022
1050.0	0.0005365	33.2190001011
1050.0	0.0005368	33.2660000324
1050.0	0.0005368	33.3130002022
1050.0	0.000537	33.3440001011
1050.0	0.0005368	33.3910000324
1050.0	0.000537	33.4220001698
1050.0	0.000537	33.4690001011
1050.0	0.0005375	33.5160000324
1050.0	0.0005375	33.5470001698
1050.0	0.0005375	33.5940001011
1050.0	0.000537	33.6410000324
1050.0	0.0005368	33.6720001698
1050.0	0.0005368	33.7190001011
1050.0	0.0005368	33.7660000324
1050.0	0.0005368	33.7970001698
1050.0	0.0005368	33.8440001011
1050.0	0.0005365	33.8910000324
1050.0	0.0005365	33.9220001698
1050.0	0.0005363	33.9690001011
1050.0	0.0005363	34.0160000324
1050.0	0.0005358	34.0470001698
1050.0	0.0005358	34.0940001011
1050.0	0.0005358	34.125
1050.0	0.0005363	34.1720001698
1050.0	0.0005363	34.2190001011
1050.0	0.0005365	34.25
1050.0	0.0005368	34.2970001698
1050.0	0.0005368	34.3440001011
1050.0	0.000537	34.375
1060.0	0.0005465	34.6560001373
1060.0	0.0005493	34.7030000687
1060.0	0.0005518	34.75
1060.0	0.000554	34.7810001373
1060.0	0.0005555	34.8280000687
1060.0	0.0005565	34.8600001335
1060.0	0.0005575	34.9060001373
1060.0	0.000558	34.9530000687
1060.0	0.0005588	34.9850001335
1060.0	0.000559	35.0310001373
1060.0	0.0005593	35.0780000687
1060.0	0.0005593	35.1100001335
1060.0	0.0005595	35.1560001373
1060.0	0.00056	35.2030000687
1060.0	0.00056	35.2350001335
1060.0	0.00056	35.2810001373
1060.0	0.0005603	35.3130002022
1060.0	0.0005603	35.3600001335
1060.0	0.0005605	35.4060001373
1060.0	0.0005608	35.4380002022
1060.0	0.0005608	35.4850001335
1060.0	0.0005608	35.5310001373
1060.0	0.0005608	35.5630002022
1060.0	0.0005608	35.6100001335
1060.0	0.0005605	35.6410000324
1060.0	0.0005603	35.6880002022
1060.0	0.0005603	35.7350001335
1060.0	0.0005605	35.7810001373
1060.0	0.0005608	35.8130002022
1060.0	0.0005615	35.8600001335
1060.0	0.0005615	35.9060001373
1060.0	0.0005608	35.9380002022
1060.0	0.0005605	35.9850001335
1060.0	0.0005605	36.0310001373
1060.0	0.0005605	36.0630002022
1060.0	0.0005603	36.1100001335
1060.0	0.0005605	36.1560001373
1070.0	0.000568	36.4380002022
1070.0	0.0005705	36.4690001011
1070.0	0.0005725	36.5160000324
1070.0	0.000574	36.5630002022
1070.0	0.0005753	36.5940001011
1070.0	0.0005763	36.6410000324
1070.0	0.0005765	36.6720001698
1070.0	0.0005775	36.7190001011
1070.0	0.0005778	36.7660000324
1070.0	0.000578	36.7970001698
1070.0	0.0005778	36.8440001011
1070.0	0.0005778	36.8910000324
1070.0	0.0005778	36.9220001698
1070.0	0.000578	36.9690001011
1070.0	0.0005783	37.0
1070.0	0.0005788	37.0470001698
1070.0	0.000579	37.0940001011
1070.0	0.0005788	37.125
1070.0	0.0005788	37.1720001698
1070.0	0.0005788	37.2190001011
1070.0	0.0005783	37.25
1070.0	0.0005783	37.2970001698
1070.0	0.0005783	37.3280000687
1070.0	0.0005783	37.375
1070.0	0.0005783	37.4220001698
1070.0	0.0005783	37.4530000687
1070.0	0.0005788	37.5
1070.0	0.0005788	37.5470001698
1070.0	0.0005788	37.5780000687
1070.0	0.0005788	37.625
1070.0	0.0005783	37.6720001698
1070.0	0.000578	37.7030000687
1070.0	0.000578	37.75
1070.0	0.000578	37.7810001373
1070.0	0.0005783	37.8280000687
1070.0	0.0005783	37.875
1070.0	0.0005783	37.9060001373
1080.0	0.0005843	38.1880002022
1080.0	0.0005863	38.2350001335
1080.0	0.0005875	38.2810001373
1080.0	0.0005883	38.3130002022
1080.0	0.0005888	38.3600001335
1080.0	0.000589	38.4060001373
1080.0	0.0005893	38.4380002022
1080.0	0.0005895	38.4850001335
1080.0	0.00059	38.5160000324
1080.0	0.00059	38.5630002022
1080.0	0.00059	38.6100001335
1080.0	0.00059	38.6410000324
1080.0	0.00059	38.6880002022
1080.0	0.0005903	38.7350001335
1080.0	0.0005903	38.7660000324
1080.0	0.0005903	38.8130002022
1080.0	0.0005905	38.8600001335
1080.0	0.0005905	38.8910000324
1080.0	0.0005908	38.9380002022
1080.0	0.0005908	38.9690001011
1080.0	0.0005908	39.0160000324
1080.0	0.0005908	39.0630002022
1080.0	0.0005905	39.0940001011
1080.0	0.0005905	39.1410000324
1080.0	0.0005903	39.1880002022
1080.0	0.0005903	39.2190001011
1080.0	0.0005903	39.2660000324
1080.0	0.0005903	39.2970001698
1080.0	0.0005903	39.3440001011
1080.0	0.0005905	39.3910000324
1080.0	0.0005903	39.4220001698
1080.0	0.0005903	39.4690001011
1080.0	0.0005903	39.5160000324
1080.0	0.0005903	39.5470001698
1080.0	0.0005903	39.5940001011
1080.0	0.00059	39.625
1080.0	0.00059	39.6720001698
1090.0	0.0005938	39.9530000687
1090.0	0.000595	40.0
1090.0	0.0005958	40.0310001373
1090.0	0.0005965	40.0780000687
1090.0	0.000597	40.125
1090.0	0.0005975	40.1560001373
1090.0	0.0005975	40.2030000687
1090.0	0.0005978	40.25
1090.0	0.000598	40.2810001373
1090.0	0.0005983	40.3280000687
1090.0	0.0005983	40.3600001335
1090.0	0.0005983	40.4060001373
1090.0	0.000598	40.4530000687
1090.0	0.000598	40.4850001335
1090.0	0.0005978	40.5310001373
1090.0	0.000598	40.5780000687
1090.0	0.000598	40.6100001335
1090.0	0.000598	40.6560001373
1090.0	0.0005988	40.6880002022
1090.0	0.0005988	40.7350001335
1090.0	0.000599	40.7810001373
1090.0	0.0005988	40.8130002022
1090.0	0.0005983	40.8600001335
1090.0	0.0005983	40.9060001373
1090.0	0.0005983	40.9380002022
1090.0	0.0005988	40.9850001335
1090.0	0.000599	41.0310001373
1090.0	0.0005988	41.0630002022
1090.0	0.000599	41.1100001335
1090.0	0.000599	41.1410000324
1090.0	0.000599	41.1880002022
1090.0	0.000599	41.2350001335
1090.0	0.000599	41.2660000324
1090.0	0.000599	41.3130002022
1090.0	0.000599	41.3600001335
1090.0	0.0005988	41.3910000324
1090.0	0.0005988	41.4380002022
1100.0	0.0006013	41.7190001011
1100.0	0.0006018	41.7660000324
1100.0	0.0006018	41.7970001698
1100.0	0.000602	41.8440001011
1100.0	0.0006025	41.875
1100.0	0.0006028	41.9220001698
1100.0	0.0006028	41.9690001011
1100.0	0.000603	42.0
1100.0	0.0006038	42.0470001698
1100.0	0.000604	42.0940001011
1100.0	0.0006043	42.125
1100.0	0.0006043	42.1720001698
1100.0	0.0006043	42.2190001011
1100.0	0.0006043	42.25
1100.0	0.0006043	42.2970001698
1100.0	0.0006045	42.3280000687
1100.0	0.000605	42.375
1100.0	0.000605	42.4220001698
1100.0	0.0006045	42.4530000687
1100.0	0.0006045	42.5
1100.0	0.0006045	42.5310001373
1100.0	0.0006045	42.5780000687
1100.0	0.0006045	42.625
1100.0	0.0006045	42.6560001373
1100.0	0.0006053	42.7030000687
1100.0	0.0006055	42.75
1100.0	0.0006053	42.7810001373
1100.0	0.000605	42.8280000687
1100.0	0.0006045	42.875
1100.0	0.0006043	42.9060001373
1100.0	0.0006043	42.9530000687
1100.0	0.000604	42.9850001335
1100.0	0.000604	43.0310001373
1100.0	0.0006038	43.0780000687
1100.0	0.000604	43.1100001335
1100.0	0.000604	43.1560001373
1100.0	0.0006043	43.2030000687
1110.0	0.000603	43.4690001011
1110.0	0.000603	43.5160000324
1110.0	0.0006028	43.5630002022
1110.0	0.0006025	43.6100001335
1110.0	0.000602	43.6410000324
1110.0	0.000602	43.6880002022
1110.0	0.000602	43.7350001335
1110.0	0.0006025	43.7660000324
1110.0	0.0006025	43.8130002022
1110.0	0.0006025	43.8440001011
1110.0	0.0006025	43.8910000324
1110.0	0.0006028	43.9380002022
1110.0	0.000603	43.9690001011
1110.0	0.000603	44.0160000324
1110.0	0.000603	44.0630002022
1110.0	0.0006028	44.0940001011
1110.0	0.0006025	44.1410000324
1110.0	0.0006025	44.1720001698
1110.0	0.0006025	44.2190001011
1110.0	0.0006025	44.2660000324
1110.0	0.0006025	44.2970001698
1110.0	0.0006025	44.3440001011
1110.0	0.000602	44.3910000324
1110.0	0.000602	44.4220001698
1110.0	0.000602	44.4690001011
1110.0	0.0006018	44.5
1110.0	0.0006018	44.5470001698
1110.0	0.0006015	44.5940001011
1110.0	0.0006018	44.625
1110.0	0.0006015	44.6720001698
1110.0	0.0006018	44.7190001011
1110.0	0.000602	44.75
1110.0	0.000602	44.7970001698
1110.0	0.0006018	44.8280000687
1110.0	0.0006018	44.875
1110.0	0.0006018	44.9220001698
1110.0	0.0006018	44.9530000687
1120.0	0.0006	45.2350001335
1120.0	0.000599	45.2810001373
1120.0	0.0005988	45.3130002022
1120.0	0.000598	45.3600001335
1120.0	0.0005978	45.3910000324
1120.0	0.0005978	45.4380002022
1120.0	0.0005978	45.4850001335
1120.0	0.0005975	45.5160000324
1120.0	0.0005978	45.5630002022
1120.0	0.0005978	45.6100001335
1120.0	0.0005978	45.6410000324
1120.0	0.0005978	45.6880002022
1120.0	0.0005975	45.7350001335
1120.0	0.0005975	45.7660000324
1120.0	0.0005978	45.8130002022
1120.0	0.000598	45.8440001011
1120.0	0.0005983	45.8910000324
1120.0	0.0005983	45.9380002022
1120.0	0.0005983	45.9850001335
1120.0	0.0005988	46.0160000324
1120.0	0.0005983	46.0630002022
1120.0	0.0005988	46.0940001011
1120.0	0.0005988	46.1410000324
1120.0	0.000599	46.1880002022
1120.0	0.000599	46.2190001011
1120.0	0.000599	46.2660000324
1120.0	0.000599	46.3130002022
1120.0	0.0005993	46.3440001011
1120.0	0.000599	46.3910000324
1120.0	0.000599	46.4220001698
1120.0	0.000599	46.4690001011
1120.0	0.0005993	46.5160000324
1120.0	0.0005995	46.5470001698
1120.0	0.0005995	46.5940001011
1120.0	0.0006	46.6410000324
1120.0	0.0006	46.6720001698
1120.0	0.0006	46.7190001011
1130.0	0.0005978	46.9850001335
1130.0	0.0005968	47.0310001373
1130.0	0.0005963	47.0780000687
1130.0	0.0005963	47.1100001335
1130.0	0.0005963	47.1560001373
1130.0	0.0005963	47.2030000687
1130.0	0.0005963	47.2350001335
1130.0	0.0005963	47.2810001373
1130.0	0.0005958	47.3280000687
1130.0	0.0005955	47.3600001335
1130.0	0.0005953	47.4060001373
1130.0	0.000595	47.4530000687
1130.0	0.000595	47.4850001335
1130.0	0.000595	47.5310001373
1130.0	0.000595	47.5780000687
1130.0	0.000595	47.6100001335
1130.0	0.0005953	47.6560001373
1130.0	0.0005955	47.6880002022
1130.0	0.0005955	47.7350001335
1130.0	0.0005955	47.7810001373
1130.0	0.0005955	47.8130002022
1130.0	0.0005953	47.8600001335
1130.0	0.0005955	47.9060001373
1130.0	0.0005955	47.9380002022
1130.0	0.0005955	47.9850001335
1130.0	0.0005955	48.0160000324
1130.0	0.0005958	48.0630002022
1130.0	0.0005958	48.1100001335
1130.0	0.0005958	48.1410000324
1130.0	0.0005958	48.1880002022
1130.0	0.0005958	48.2350001335
1130.0	0.0005955	48.2660000324
1130.0	0.0005953	48.3130002022
1130.0	0.0005953	48.3440001011
1130.0	0.0005953	48.3910000324
1130.0	0.000595	48.4380002022
1130.0	0.0005945	48.4690001011
1140.0	0.000593	48.75
1140.0	0.0005918	48.7970001698
1140.0	0.0005913	48.8280000687
1140.0	0.0005908	48.875
1140.0	0.0005905	48.9060001373
1140.0	0.0005903	48.9530000687
1140.0	0.00059	49.0
1140.0	0.00059	49.0310001373
1140.0	0.0005895	49.0780000687
1140.0	0.0005893	49.125
1140.0	0.000589	49.1560001373
1140.0	0.0005888	49.2030000687
1140.0	0.0005888	49.2350001335
1140.0	0.0005883	49.2810001373
1140.0	0.0005883	49.3280000687
1140.0	0.0005883	49.3600001335
1140.0	0.0005883	49.4060001373
1140.0	0.000588	49.4530000687
1140.0	0.000588	49.4850001335
1140.0	0.000588	49.5310001373
1140.0	0.000588	49.5780000687
1140.0	0.000588	49.6100001335
1140.0	0.000588	49.6560001373
1140.0	0.000588	49.7030000687
1140.0	0.0005878	49.7350001335
1140.0	0.000588	49.7810001373
1140.0	0.000588	49.8280000687
1140.0	0.0005883	49.8600001335
1140.0	0.0005888	49.9060001373
1140.0	0.0005888	49.9380002022
1140.0	0.0005888	49.9850001335
1140.0	0.0005888	50.0310001373
1140.0	0.0005888	50.0630002022
1140.0	0.0005888	50.1100001335
1140.0	0.0005888	50.1560001373
1140.0	0.000589	50.1880002022
1140.0	0.000589	50.2350001335
1150.0	0.0005868	50.5
1150.0	0.0005865	50.5470001698
1150.0	0.0005863	50.5780000687
1150.0	0.0005858	50.625
1150.0	0.0005855	50.6560001373
1150.0	0.0005855	50.7030000687
1150.0	0.0005858	50.75
1150.0	0.0005858	50.7810001373
1150.0	0.0005858	50.8280000687
1150.0	0.0005858	50.875
1150.0	0.0005858	50.9060001373
1150.0	0.0005858	50.9530000687
1150.0	0.0005863	50.9850001335
1150.0	0.0005863	51.0310001373
1150.0	0.0005858	51.0780000687
1150.0	0.0005858	51.1100001335
1150.0	0.0005855	51.1560001373
1150.0	0.0005858	51.2030000687
1150.0	0.0005858	51.2350001335
1150.0	0.0005858	51.2810001373
1150.0	0.0005863	51.3130002022
1150.0	0.0005858	51.3600001335
1150.0	0.0005858	51.4060001373
1150.0	0.0005858	51.4530000687
1150.0	0.0005858	51.4850001335
1150.0	0.0005863	51.5310001373
1150.0	0.0005863	51.5780000687
1150.0	0.0005863	51.6100001335
1150.0	0.0005865	51.6560001373
1150.0	0.0005865	51.6880002022
1150.0	0.0005868	51.7350001335
1150.0	0.0005868	51.7810001373
1150.0	0.0005868	51.8130002022
1150.0	0.0005868	51.8600001335
1150.0	0.0005868	51.9060001373
1150.0	0.0005868	51.9380002022
1150.0	0.0005868	51.9850001335
1160.0	0.0005843	52.25
1160.0	0.0005838	52.2810001373
1160.0	0.0005838	52.3280000687
1160.0	0.0005833	52.375
1160.0	0.000583	52.4060001373
1160.0	0.000583	52.4530000687
1160.0	0.0005828	52.4850001335
1160.0	0.000583	52.5310001373
1160.0	0.000583	52.5780000687
1160.0	0.000583	52.6100001335
1160.0	0.0005833	52.6560001373
1160.0	0.0005833	52.7030000687
1160.0	0.000583	52.7350001335
1160.0	0.000583	52.7810001373
1160.0	0.0005828	52.8130002022
1160.0	0.0005828	52.8600001335
1160.0	0.0005828	52.9060001373
1160.0	0.0005828	52.9380002022
1160.0	0.000583	52.9850001335
1160.0	0.0005828	53.0310001373
1160.0	0.0005825	53.0630002022
1160.0	0.0005825	53.1100001335
1160.0	0.000582	53.1410000324
1160.0	0.000582	53.1880002022
1160.0	0.0005818	53.2350001335
1160.0	0.0005818	53.2660000324
1160.0	0.0005818	53.3130002022
1160.0	0.0005818	53.3600001335
1160.0	0.000582	53.3910000324
1160.0	0.0005818	53.4380002022
1160.0	0.0005815	53.4850001335
1160.0	0.0005815	53.5160000324
1160.0	0.0005815	53.5630002022
1160.0	0.0005818	53.5940001011
1160.0	0.0005818	53.6410000324
1160.0	0.0005818	53.6880002022
1160.0	0.0005818	53.7190001011
1170.0	0.0005808	53.9850001335
1170.0	0.0005805	54.0160000324
1170.0	0.0005808	54.0630002022
1170.0	0.0005815	54.1100001335
1170.0	0.000582	54.1410000324
1170.0	0.0005825	54.1880002022
1170.0	0.000582	54.2350001335
1170.0	0.0005825	54.2660000324
1170.0	0.0005828	54.3130002022
1170.0	0.000583	54.3600001335
1170.0	0.0005828	54.3910000324
1170.0	0.0005825	54.4380002022
1170.0	0.0005825	54.4690001011
1170.0	0.0005825	54.5160000324
1170.0	0.000582	54.5630002022
1170.0	0.000582	54.5940001011
1170.0	0.0005818	54.6410000324
1170.0	0.0005818	54.6880002022
1170.0	0.000582	54.7190001011
1170.0	0.0005825	54.7660000324
1170.0	0.0005825	54.7970001698
1170.0	0.000582	54.8440001011
1170.0	0.0005825	54.8910000324
1170.0	0.0005825	54.9220001698
1170.0	0.0005825	54.9690001011
1170.0	0.0005825	55.0160000324
1170.0	0.0005825	55.0470001698
1170.0	0.0005825	55.0940001011
1170.0	0.000582	55.1410000324
1170.0	0.000582	55.1720001698
1170.0	0.0005825	55.2190001011
1170.0	0.0005825	55.2660000324
1170.0	0.0005828	55.2970001698
1170.0	0.0005828	55.3440001011
1170.0	0.0005828	55.375
1170.0	0.000583	55.4220001698
1170.0	0.0005828	55.4690001011
1180.0	0.000585	55.7190001011
1180.0	0.0005855	55.7660000324
1180.0	0.0005863	55.8130002022
1180.0	0.0005865	55.8440001011
1180.0	0.0005865	55.8910000324
1180.0	0.0005868	55.9380002022
1180.0	0.000587	55.9690001011
1180.0	0.0005875	56.0160000324
1180.0	0.0005878	56.0630002022
1180.0	0.0005878	56.0940001011
1180.0	0.0005878	56.1410000324
1180.0	0.000588	56.1720001698
1180.0	0.0005883	56.2190001011
1180.0	0.0005888	56.2660000324
1180.0	0.0005888	56.2970001698
1180.0	0.0005888	56.3440001011
1180.0	0.0005888	56.3910000324
1180.0	0.0005888	56.4380002022
1180.0	0.000589	56.4690001011
1180.0	0.000589	56.5160000324
1180.0	0.0005893	56.5630002022
1180.0	0.0005893	56.5940001011
1180.0	0.0005893	56.6410000324
1180.0	0.00059	56.6880002022
1180.0	0.0005903	56.7190001011
1180.0	0.00059	56.7660000324
1180.0	0.00059	56.7970001698
1180.0	0.00059	56.8440001011
1180.0	0.00059	56.8910000324
1180.0	0.00059	56.9380002022
1180.0	0.00059	56.9690001011
1180.0	0.00059	57.0160000324
1180.0	0.00059	57.0630002022
1180.0	0.00059	57.0940001011
1180.0	0.0005895	57.1410000324
1180.0	0.0005893	57.1880002022
1190.0	0.0005918	57.4380002022
1190.0	0.000593	57.4850001335
1190.0	0.000594	57.5160000324
1190.0	0.000595	57.5630002022
1190.0	0.0005955	57.6100001335
1190.0	0.0005963	57.6410000324
1190.0	0.0005963	57.6880002022
1190.0	0.0005965	57.7350001335
1190.0	0.0005963	57.7660000324
1190.0	0.0005968	57.8130002022
1190.0	0.000597	57.8600001335
1190.0	0.0005968	57.8910000324
1190.0	0.000597	57.9380002022
1190.0	0.0005968	57.9850001335
1190.0	0.0005965	58.0310001373
1190.0	0.0005968	58.0630002022
1190.0	0.0005968	58.1100001335
1190.0	0.0005968	58.1410000324
1190.0	0.0005968	58.1880002022
1190.0	0.0005968	58.2350001335
1190.0	0.000597	58.2660000324
1190.0	0.0005968	58.3130002022
1190.0	0.0005965	58.3600001335
1190.0	0.0005968	58.3910000324
1190.0	0.0005965	58.4380002022
1190.0	0.0005965	58.4690001011
1190.0	0.0005965	58.5160000324
1190.0	0.0005965	58.5630002022
1190.0	0.0005963	58.5940001011
1190.0	0.0005963	58.6410000324
1190.0	0.0005965	58.6880002022
1190.0	0.0005968	58.7190001011
1190.0	0.0005968	58.7660000324
1190.0	0.0005968	58.7970001698
1190.0	0.0005965	58.8440001011
1190.0	0.0005965	58.8910000324
1200.0	0.0005993	59.1560001373
1200.0	0.0006008	59.1880002022
1200.0	0.0006025	59.2350001335
1200.0	0.0006038	59.2660000324
1200.0	0.0006045	59.3130002022
1200.0	0.000605	59.3600001335
1200.0	0.0006058	59.3910000324
1200.0	0.0006063	59.4380002022
1200.0	0.0006068	59.4850001335
1200.0	0.0006068	59.5160000324
1200.0	0.0006068	59.5630002022
1200.0	0.0006068	59.6100001335
1200.0	0.0006068	59.6410000324
1200.0	0.000607	59.6880002022
1200.0	0.000607	59.7350001335
1200.0	0.0006075	59.7660000324
1200.0	0.0006075	59.8130002022
1200.0	0.0006075	59.8440001011
1200.0	0.0006078	59.8910000324
1200.0	0.0006078	59.9380002022
1200.0	0.0006075	59.9690001011
1200.0	0.0006075	60.0160000324
1200.0	0.0006075	60.0630002022
1200.0	0.0006078	60.0940001011
1200.0	0.0006078	60.1410000324
1200.0	0.0006075	60.1880002022
1200.0	0.0006078	60.2190001011
1200.0	0.000608	60.2660000324
1200.0	0.000608	60.2970001698
1200.0	0.0006083	60.3440001011
1200.0	0.0006083	60.3910000324
1200.0	0.000608	60.4220001698
1200.0	0.0006083	60.4690001011
1200.0	0.0006083	60.5160000324
1200.0	0.0006088	60.5470001698
1200.0	0.0006088	60.5940001011
1200.0	0.0006083	60.625
1210.0	0.000614	60.8910000324
1210.0	0.0006158	60.9380002022
1210.0	0.0006178	60.9850001335
1210.0	0.000619	61.0160000324
1210.0	0.0006195	61.0630002022
1210.0	0.0006208	61.0940001011
1210.0	0.0006213	61.1410000324
1210.0	0.000622	61.1880002022
1210.0	0.0006225	61.2190001011
1210.0	0.000623	61.2660000324
1210.0	0.0006233	61.3130002022
1210.0	0.0006238	61.3440001011
1210.0	0.000624	61.3910000324
1210.0	0.000624	61.4220001698
1210.0	0.000624	61.4690001011
1210.0	0.000624	61.5160000324
1210.0	0.0006243	61.5470001698
1210.0	0.0006243	61.5940001011
1210.0	0.0006243	61.6410000324
1210.0	0.0006243	61.6720001698
1210.0	0.0006245	61.7190001011
1210.0	0.0006245	61.75
1210.0	0.0006245	61.7970001698
1210.0	0.0006245	61.8440001011
1210.0	0.000625	61.875
1210.0	0.0006253	61.9220001698
1210.0	0.0006253	61.9690001011
1210.0	0.0006253	62.0
1210.0	0.0006253	62.0470001698
1210.0	0.0006253	62.0780000687
1210.0	0.0006253	62.125
1210.0	0.0006253	62.1720001698
1210.0	0.0006253	62.2030000687
1210.0	0.000625	62.25
1210.0	0.000625	62.2970001698
1210.0	0.0006253	62.3280000687
1210.0	0.0006253	62.375
1220.0	0.0006325	62.6410000324
1220.0	0.000635	62.6880002022
1220.0	0.000637	62.7190001011
1220.0	0.0006388	62.7660000324
1220.0	0.0006398	62.8130002022
1220.0	0.0006413	62.8440001011
1220.0	0.0006423	62.8910000324
1220.0	0.0006425	62.9220001698
1220.0	0.000643	62.9690001011
1220.0	0.0006435	63.0160000324
1220.0	0.0006438	63.0470001698
1220.0	0.000644	63.0940001011
1220.0	0.000644	63.1410000324
1220.0	0.000644	63.1720001698
1220.0	0.0006438	63.2190001011
1220.0	0.0006438	63.25
1220.0	0.0006438	63.2970001698
1220.0	0.0006438	63.3440001011
1220.0	0.0006438	63.375
1220.0	0.0006438	63.4220001698
1220.0	0.0006435	63.4690001011
1220.0	0.0006435	63.5
1220.0	0.0006438	63.5470001698
1220.0	0.0006438	63.5940001011
1220.0	0.0006438	63.625
1220.0	0.0006438	63.6720001698
1220.0	0.0006438	63.7190001011
1220.0	0.0006438	63.75
1220.0	0.0006435	63.7970001698
1220.0	0.0006435	63.8280000687
1220.0	0.000643	63.875
1220.0	0.0006425	63.9220001698
1220.0	0.0006423	63.9530000687
1220.0	0.0006423	64.0
1220.0	0.0006418	64.0470001698
1220.0	0.0006418	64.0780000687
1220.0	0.0006418	64.125
1230.0	0.0006503	64.3910000324
1230.0	0.0006535	64.4380002022
1230.0	0.000656	64.4690001011
1230.0	0.0006575	64.5160000324
1230.0	0.000659	64.5630002022
1230.0	0.0006598	64.5940001011
1230.0	0.0006603	64.6410000324
1230.0	0.000661	64.6880002022
1230.0	0.0006613	64.7190001011
1230.0	0.0006613	64.7660000324
1230.0	0.0006615	64.8130002022
1230.0	0.0006623	64.8440001011
1230.0	0.0006625	64.8910000324
1230.0	0.0006625	64.9220001698
1230.0	0.0006628	64.9690001011
1230.0	0.0006628	65.0160000324
1230.0	0.000663	65.0470001698
1230.0	0.000663	65.0940001011
1230.0	0.0006628	65.1410000324
1230.0	0.0006628	65.1720001698
1230.0	0.000663	65.2190001011
1230.0	0.000663	65.25
1230.0	0.0006635	65.2970001698
1230.0	0.0006635	65.375
1230.0	0.0006638	65.4220001698
1230.0	0.0006635	65.4530000687
1230.0	0.000663	65.5
1230.0	0.0006628	65.5470001698
1230.0	0.0006625	65.5780000687
1230.0	0.0006623	65.625
1230.0	0.0006618	65.6560001373
1230.0	0.0006618	65.7030000687
1230.0	0.0006623	65.75
1230.0	0.0006623	65.7810001373
1230.0	0.0006625	65.8280000687
1230.0	0.0006628	65.875
1240.0	0.0006705	66.1410000324
1240.0	0.0006735	66.1880002022
1240.0	0.000676	66.2190001011
1240.0	0.0006778	66.2660000324
1240.0	0.0006788	66.3130002022
1240.0	0.0006798	66.3440001011
1240.0	0.0006805	66.3910000324
1240.0	0.0006813	66.4380002022
1240.0	0.0006818	66.4690001011
1240.0	0.0006823	66.5160000324
1240.0	0.0006825	66.5630002022
1240.0	0.000683	66.5940001011
1240.0	0.0006838	66.6410000324
1240.0	0.0006838	66.6880002022
1240.0	0.000684	66.7190001011
1240.0	0.0006838	66.7660000324
1240.0	0.000684	66.7970001698
1240.0	0.0006843	66.8440001011
1240.0	0.0006843	66.8910000324
1240.0	0.0006843	66.9220001698
1240.0	0.0006843	66.9690001011
1240.0	0.0006848	67.0160000324
1240.0	0.0006843	67.0470001698
1240.0	0.000684	67.0940001011
1240.0	0.000684	67.1410000324
1240.0	0.0006848	67.1720001698
1240.0	0.0006848	67.2190001011
1240.0	0.0006848	67.25
1240.0	0.000685	67.2970001698
1240.0	0.000685	67.3440001011
1240.0	0.0006853	67.375
1240.0	0.0006853	67.4220001698
1240.0	0.000685	67.4690001011
1240.0	0.000685	67.5
1240.0	0.0006853	67.5470001698
1240.0	0.0006853	67.5780000687
1240.0	0.0006853	67.625
1250.0	0.000693	67.8910000324
1250.0	0.0006955	67.9380002022
1250.0	0.0006975	67.9850001335
1250.0	0.000699	68.0160000324
1250.0	0.0007003	68.0630002022
1250.0	0.0007005	68.1100001335
1250.0	0.0007013	68.1410000324
1250.0	0.0007015	68.1880002022
1250.0	0.0007023	68.2190001011
1250.0	0.0007025	68.2660000324
1250.0	0.0007023	68.3130002022
1250.0	0.0007025	68.3440001011
1250.0	0.000703	68.3910000324
1250.0	0.0007035	68.4380002022
1250.0	0.0007035	68.4690001011
1250.0	0.000703	68.5160000324
1250.0	0.0007028	68.5630002022
1250.0	0.0007025	68.5940001011
1250.0	0.0007023	68.6410000324
1250.0	0.0007025	68.6720001698
1250.0	0.0007028	68.7190001011
1250.0	0.0007028	68.7660000324
1250.0	0.000703	68.7970001698
1250.0	0.000703	68.8440001011
1250.0	0.0007035	68.8910000324
1250.0	0.0007035	68.9220001698
1250.0	0.0007035	68.9690001011
1250.0	0.0007028	69.0
1250.0	0.0007025	69.0470001698
1250.0	0.0007023	69.0940001011
1250.0	0.0007023	69.125
1250.0	0.0007023	69.1720001698
1250.0	0.0007018	69.2190001011
1250.0	0.0007018	69.25
1250.0	0.0007018	69.2970001698
1250.0	0.0007018	69.3280000687
1250.0	0.0007018	69.375
1260.0	0.0007078	69.6410000324
1260.0	0.0007098	69.6880002022
1260.0	0.0007118	69.7350001335
1260.0	0.000713	69.7660000324
1260.0	0.000714	69.8130002022
1260.0	0.000715	69.8600001335
1260.0	0.000716	69.8910000324
1260.0	0.0007165	69.9380002022
1260.0	0.0007173	69.9690001011
1260.0	0.0007178	70.0160000324
1260.0	0.000718	70.0630002022
1260.0	0.0007178	70.0940001011
1260.0	0.0007178	70.1410000324
1260.0	0.0007178	70.1880002022
1260.0	0.0007178	70.2190001011
1260.0	0.0007178	70.2660000324
1260.0	0.0007175	70.2970001698
1260.0	0.0007175	70.3440001011
1260.0	0.0007175	70.3910000324
1260.0	0.0007175	70.4220001698
1260.0	0.0007175	70.4690001011
1260.0	0.0007178	70.5160000324
1260.0	0.0007175	70.5470001698
1260.0	0.0007175	70.5940001011
1260.0	0.0007178	70.6410000324
1260.0	0.0007178	70.6720001698
1260.0	0.0007178	70.7190001011
1260.0	0.0007178	70.75
1260.0	0.0007178	70.7970001698
1260.0	0.000718	70.8440001011
1260.0	0.000718	70.875
1260.0	0.000718	70.9220001698
1260.0	0.000718	70.9690001011
1260.0	0.0007185	71.0
1260.0	0.0007185	71.0470001698
1260.0	0.0007185	71.0780000687
1260.0	0.0007185	71.125
1270.0	0.000724	71.3910000324
1270.0	0.000726	71.4380002022
1270.0	0.0007278	71.4690001011
1270.0	0.000729	71.5160000324
1270.0	0.00073	71.5630002022
1270.0	0.000731	71.5940001011
1270.0	0.0007313	71.6410000324
1270.0	0.0007315	71.6880002022
1270.0	0.0007318	71.7190001011
1270.0	0.0007323	71.7660000324
1270.0	0.0007323	71.7970001698
1270.0	0.0007323	71.8440001011
1270.0	0.0007325	71.8910000324
1270.0	0.0007325	71.9220001698
1270.0	0.0007325	71.9690001011
1270.0	0.0007328	72.0160000324
1270.0	0.0007325	72.0470001698
1270.0	0.0007325	72.0940001011
1270.0	0.0007328	72.125
1270.0	0.0007328	72.1720001698
1270.0	0.0007328	72.2190001011
1270.0	0.0007325	72.2660000324
1270.0	0.0007328	72.2970001698
1270.0	0.0007328	72.3440001011
1270.0	0.0007328	72.375
1270.0	0.0007328	72.4220001698
1270.0	0.0007328	72.4690001011
1270.0	0.0007335	72.5
1270.0	0.0007335	72.5470001698
1270.0	0.0007335	72.5940001011
1270.0	0.0007335	72.625
1270.0	0.0007335	72.6720001698
1270.0	0.000733	72.7190001011
1270.0	0.0007335	72.75
1270.0	0.0007335	72.7970001698
1270.0	0.0007335	72.8280000687
1270.0	0.0007335	72.875
1280.0	0.0007355	73.1410000324
1280.0	0.0007365	73.1880002022
1280.0	0.000738	73.2190001011
1280.0	0.000739	73.2660000324
1280.0	0.00074	73.3130002022
1280.0	0.0007403	73.3440001011
1280.0	0.0007405	73.3910000324
1280.0	0.000741	73.4380002022
1280.0	0.000741	73.4690001011
1280.0	0.0007405	73.5160000324
1280.0	0.0007403	73.5470001698
1280.0	0.0007403	73.5940001011
1280.0	0.00074	73.6410000324
1280.0	0.00074	73.6720001698
1280.0	0.0007403	73.7190001011
1280.0	0.00074	73.7660000324
1280.0	0.00074	73.7970001698
1280.0	0.00074	73.8440001011
1280.0	0.00074	73.875
1280.0	0.00074	73.9220001698
1280.0	0.0007398	73.9690001011
1280.0	0.0007398	74.0
1280.0	0.0007398	74.0470001698
1280.0	0.00074	74.0940001011
1280.0	0.0007398	74.125
1280.0	0.0007398	74.1720001698
1280.0	0.0007398	74.2030000687
1280.0	0.0007393	74.25
1280.0	0.0007393	74.2970001698
1280.0	0.0007393	74.3280000687
1280.0	0.0007398	74.375
1280.0	0.00074	74.4220001698
1280.0	0.0007403	74.4530000687
1280.0	0.00074	74.5
1280.0	0.00074	74.5310001373
1280.0	0.0007398	74.5780000687
1280.0	0.0007393	74.625
1290.0	0.0007398	74.8910000324
1290.0	0.0007393	74.9220001698
1290.0	0.0007393	74.9690001011
1290.0	0.0007398	75.0160000324
1290.0	0.0007398	75.0470001698
1290.0	0.0007398	75.0940001011
1290.0	0.0007398	75.1410000324
1290.0	0.00074	75.1720001698
1290.0	0.00074	75.2190001011
1290.0	0.0007398	75.25
1290.0	0.0007398	75.2970001698
1290.0	0.0007393	75.3440001011
1290.0	0.000739	75.375
1290.0	0.000739	75.4220001698
1290.0	0.0007388	75.4690001011
1290.0	0.0007388	75.5
1290.0	0.0007388	75.5470001698
1290.0	0.000739	75.5940001011
1290.0	0.000739	75.625
1290.0	0.0007388	75.6720001698
1290.0	0.0007388	75.7030000687
1290.0	0.000739	75.75
1290.0	0.000739	75.7970001698
1290.0	0.0007393	75.8280000687
1290.0	0.0007393	75.875
1290.0	0.0007398	75.9220001698
1290.0	0.0007398	75.9530000687
1290.0	0.0007398	76.0
1290.0	0.0007393	76.0310001373
1290.0	0.0007398	76.0780000687
1290.0	0.0007398	76.125
1290.0	0.0007398	76.1560001373
1290.0	0.00074	76.2030000687
1290.0	0.00074	76.25
1290.0	0.00074	76.2810001373
1290.0	0.00074	76.3280000687
1290.0	0.0007398	76.3600001335
1300.0	0.0007373	76.625
1300.0	0.0007365	76.6720001698
1300.0	0.0007355	76.7190001011
1300.0	0.0007348	76.75
1300.0	0.0007343	76.7970001698
1300.0	0.0007338	76.8280000687
1300.0	0.0007335	76.875
1300.0	0.000733	76.9220001698
1300.0	0.0007328	76.9530000687
1300.0	0.0007328	77.0
1300.0	0.0007328	77.0470001698
1300.0	0.0007328	77.0940001011
1300.0	0.0007328	77.125
1300.0	0.0007328	77.1720001698
1300.0	0.0007323	77.2190001011
1300.0	0.0007325	77.25
1300.0	0.0007325	77.2970001698
1300.0	0.0007323	77.3440001011
1300.0	0.0007325	77.375
1300.0	0.0007328	77.4220001698
1300.0	0.000733	77.4530000687
1300.0	0.0007335	77.5
1300.0	0.0007338	77.5470001698
1300.0	0.000734	77.5780000687
1300.0	0.000734	77.625
1300.0	0.000734	77.6560001373
1300.0	0.0007338	77.7030000687
1300.0	0.0007338	77.75
1300.0	0.0007338	77.7810001373
1300.0	0.0007338	77.8280000687
1300.0	0.0007335	77.875
1300.0	0.0007338	77.9060001373
1300.0	0.000734	77.9530000687
1300.0	0.0007338	78.0
1300.0	0.0007338	78.0310001373
1300.0	0.0007338	78.0780000687
1300.0	0.0007338	78.1100001335
1310.0	0.0007285	78.375
1310.0	0.0007268	78.4220001698
1310.0	0.0007253	78.4690001011
1310.0	0.0007243	78.5
1310.0	0.0007235	78.5470001698
1310.0	0.0007223	78.5780000687
1310.0	0.0007218	78.625
1310.0	0.0007213	78.6720001698
1310.0	0.000721	78.7030000687
1310.0	0.0007203	78.75
1310.0	0.0007203	78.7810001373
1310.0	0.0007205	78.8280000687
1310.0	0.0007203	78.875
1310.0	0.00072	78.9060001373
1310.0	0.00072	78.9530000687
1310.0	0.00072	79.0
1310.0	0.0007203	79.0310001373
1310.0	0.0007205	79.0780000687
1310.0	0.000721	79.125
1310.0	0.0007213	79.1560001373
1310.0	0.0007205	79.2030000687
1310.0	0.0007203	79.2350001335
1310.0	0.0007203	79.2810001373
1310.0	0.00072	79.3280000687
1310.0	0.00072	79.3600001335
1310.0	0.0007203	79.4060001373
1310.0	0.0007203	79.4530000687
1310.0	0.0007203	79.4850001335
1310.0	0.0007203	79.5310001373
1310.0	0.0007205	79.5630002022
1310.0	0.000721	79.6100001335
1310.0	0.0007205	79.6560001373
1310.0	0.000721	79.6880002022
1310.0	0.0007213	79.7350001335
1310.0	0.000721	79.7810001373
1310.0	0.000721	79.8130002022
1310.0	0.0007215	79.8600001335
1320.0	0.0007148	80.125
1320.0	0.0007115	80.1560001373
1320.0	0.000709	80.2030000687
1320.0	0.0007068	80.25
1320.0	0.0007048	80.2810001373
1320.0	0.0007035	80.3280000687
1320.0	0.0007023	80.3600001335
1320.0	0.000701	80.4060001373
1320.0	0.0007005	80.4530000687
1320.0	0.0007005	80.4850001335
1320.0	0.0007005	80.5310001373
1320.0	0.000701	80.5780000687
1320.0	0.000701	80.6100001335
1320.0	0.0007005	80.6560001373
1320.0	0.0007005	80.6880002022
1320.0	0.0007003	80.7350001335
1320.0	0.0007003	80.7810001373
1320.0	0.0007	80.8130002022
1320.0	0.0007003	80.8600001335
1320.0	0.0007	80.9060001373
1320.0	0.0007	80.9380002022
1320.0	0.0006998	80.9850001335
1320.0	0.0006998	81.0310001373
1320.0	0.0006998	81.0630002022
1320.0	0.0007	81.1100001335
1320.0	0.0007003	81.1410000324
1320.0	0.0007003	81.1880002022
1320.0	0.0007	81.2350001335
1320.0	0.0007	81.2660000324
1320.0	0.0007	81.3130002022
1320.0	0.0007	81.3600001335
1320.0	0.0007	81.3910000324
1320.0	0.0007	81.4380002022
1320.0	0.0007	81.4690001011
1320.0	0.0007	81.5160000324
1320.0	0.0007	81.5630002022
1320.0	0.0007	81.5940001011
1330.0	0.0006905	81.8600001335
1330.0	0.0006873	81.9060001373
1330.0	0.0006838	81.9530000687
1330.0	0.0006813	81.9850001335
1330.0	0.0006793	82.0310001373
1330.0	0.0006773	82.0780000687
1330.0	0.000676	82.1100001335
1330.0	0.000675	82.1560001373
1330.0	0.0006743	82.1880002022
1330.0	0.000674	82.2350001335
1330.0	0.0006738	82.2810001373
1330.0	0.0006735	82.3130002022
1330.0	0.0006735	82.3600001335
1330.0	0.000673	82.4060001373
1330.0	0.000673	82.4380002022
1330.0	0.0006728	82.4850001335
1330.0	0.0006728	82.5310001373
1330.0	0.0006728	82.5630002022
1330.0	0.0006728	82.6100001335
1330.0	0.0006728	82.6560001373
1330.0	0.0006728	82.6880002022
1330.0	0.0006725	82.7350001335
1330.0	0.0006723	82.7810001373
1330.0	0.0006723	82.8130002022
1330.0	0.0006723	82.8600001335
1330.0	0.0006723	82.8910000324
1330.0	0.0006723	82.9380002022
1330.0	0.0006723	82.9850001335
1330.0	0.0006723	83.0160000324
1330.0	0.0006723	83.0630002022
1330.0	0.0006723	83.1100001335
1330.0	0.0006715	83.1410000324
1330.0	0.0006715	83.1880002022
1330.0	0.0006715	83.2190001011
1330.0	0.0006715	83.2660000324
1330.0	0.0006715	83.3130002022
1340.0	0.0006605	83.5780000687
1340.0	0.000656	83.6100001335
1340.0	0.0006523	83.6560001373
1340.0	0.000649	83.6880002022
1340.0	0.0006463	83.7350001335
1340.0	0.0006443	83.7810001373
1340.0	0.000643	83.8130002022
1340.0	0.0006423	83.8600001335
1340.0	0.0006415	83.9060001373
1340.0	0.0006413	83.9380002022
1340.0	0.0006413	83.9850001335
1340.0	0.000641	84.0160000324
1340.0	0.0006403	84.0630002022
1340.0	0.0006403	84.1100001335
1340.0	0.0006398	84.1410000324
1340.0	0.0006398	84.1880002022
1340.0	0.0006398	84.2350001335
1340.0	0.0006395	84.2660000324
1340.0	0.0006398	84.3130002022
1340.0	0.0006395	84.3600001335
1340.0	0.0006393	84.3910000324
1340.0	0.0006395	84.4380002022
1340.0	0.0006393	84.4850001335
1340.0	0.0006393	84.5160000324
1340.0	0.0006395	84.5630002022
1340.0	0.0006398	84.6100001335
1340.0	0.0006395	84.6410000324
1340.0	0.0006393	84.6880002022
1340.0	0.000639	84.7190001011
1340.0	0.000639	84.7660000324
1340.0	0.0006388	84.8130002022
1340.0	0.0006388	84.8440001011
1340.0	0.0006388	84.8910000324
1340.0	0.0006383	84.9380002022
1340.0	0.0006383	84.9690001011
1340.0	0.0006383	85.0160000324
1340.0	0.000638	85.0470001698
1350.0	0.0006243	85.3130002022
1350.0	0.0006193	85.3600001335
1350.0	0.000615	85.4060001373
1350.0	0.0006115	85.4380002022
1350.0	0.0006093	85.4850001335
1350.0	0.0006075	85.5160000324
1350.0	0.0006058	85.5630002022
1350.0	0.0006045	85.6100001335
1350.0	0.0006038	85.6410000324
1350.0	0.000603	85.6880002022
1350.0	0.0006025	85.7350001335
1350.0	0.000602	85.7660000324
1350.0	0.0006018	85.8130002022
1350.0	0.0006015	85.8440001011
1350.0	0.0006015	85.8910000324
1350.0	0.0006015	85.9380002022
1350.0	0.0006015	85.9690001011
1350.0	0.0006015	86.0160000324
1350.0	0.0006015	86.0630002022
1350.0	0.0006015	86.0940001011
1350.0	0.0006015	86.1410000324
1350.0	0.0006015	86.1880002022
1350.0	0.0006015	86.2350001335
1350.0	0.0006015	86.2660000324
1350.0	0.0006015	86.3130002022
1350.0	0.0006015	86.3440001011
1350.0	0.0006015	86.3910000324
1350.0	0.0006013	86.4380002022
1350.0	0.0006008	86.4690001011
1350.0	0.0006005	86.5160000324
1350.0	0.0006005	86.5630002022
1350.0	0.0006005	86.5940001011
1350.0	0.0006005	86.6410000324
1350.0	0.0006005	86.6880002022
1350.0	0.0006008	86.7190001011
1350.0	0.0006013	86.7660000324
1360.0	0.0005878	87.0310001373
1360.0	0.0005818	87.0630002022
1360.0	0.000577	87.1100001335
1360.0	0.0005733	87.1410000324
1360.0	0.0005705	87.1880002022
1360.0	0.0005683	87.2350001335
1360.0	0.0005668	87.2660000324
1360.0	0.0005658	87.3130002022
1360.0	0.000565	87.3600001335
1360.0	0.0005643	87.3910000324
1360.0	0.000564	87.4380002022
1360.0	0.0005638	87.4850001335
1360.0	0.0005633	87.5160000324
1360.0	0.000563	87.5630002022
1360.0	0.0005633	87.5940001011
1360.0	0.0005633	87.6410000324
1360.0	0.000563	87.6880002022
1360.0	0.000563	87.7350001335
1360.0	0.0005628	87.7660000324
1360.0	0.0005625	87.8130002022
1360.0	0.0005628	87.8440001011
1360.0	0.000563	87.8910000324
1360.0	0.000563	87.9380002022
1360.0	0.000563	87.9690001011
1360.0	0.0005628	88.0160000324
1360.0	0.0005628	88.0630002022
1360.0	0.0005628	88.0940001011
1360.0	0.0005625	88.1410000324
1360.0	0.0005625	88.1720001698
1360.0	0.0005625	88.2190001011
1360.0	0.0005625	88.2660000324
1360.0	0.0005625	88.2970001698
1360.0	0.0005628	88.3440001011
1360.0	0.0005628	88.3910000324
1360.0	0.0005628	88.4220001698
1360.0	0.0005628	88.4690001011
1360.0	0.000563	88.5160000324
1370.0	0.000549	88.7660000324
1370.0	0.0005438	88.8130002022
1370.0	0.000539	88.8600001335
1370.0	0.0005355	88.8910000324
1370.0	0.000533	88.9380002022
1370.0	0.0005308	88.9690001011
1370.0	0.000529	89.0160000324
1370.0	0.0005278	89.0630002022
1370.0	0.000527	89.0940001011
1370.0	0.0005268	89.1410000324
1370.0	0.0005265	89.1880002022
1370.0	0.0005258	89.2190001011
1370.0	0.0005253	89.2660000324
1370.0	0.0005253	89.3130002022
1370.0	0.0005253	89.3440001011
1370.0	0.0005253	89.3910000324
1370.0	0.000525	89.4220001698
1370.0	0.0005245	89.4690001011
1370.0	0.0005245	89.5160000324
1370.0	0.0005245	89.5470001698
1370.0	0.000525	89.5940001011
1370.0	0.0005253	89.6410000324
1370.0	0.0005253	89.6720001698
1370.0	0.0005253	89.7190001011
1370.0	0.0005253	89.75
1370.0	0.000525	89.7970001698
1370.0	0.000525	89.8440001011
1370.0	0.000525	89.875
1370.0	0.000525	89.9220001698
1370.0	0.000525	89.9690001011
1370.0	0.0005245	90.0
1370.0	0.0005245	90.0470001698
1370.0	0.0005243	90.0780000687
1370.0	0.0005243	90.125
1370.0	0.0005243	90.1720001698
1370.0	0.0005245	90.2030000687
1370.0	0.0005243	90.25
1380.0	0.000512	90.5160000324
1380.0	0.000507	90.5470001698
1380.0	0.000503	90.5940001011
1380.0	0.0005	90.6410000324
1380.0	0.000497	90.6720001698
1380.0	0.000495	90.7190001011
1380.0	0.0004933	90.7660000324
1380.0	0.0004918	90.7970001698
1380.0	0.0004908	90.8440001011
1380.0	0.0004905	90.875
1380.0	0.0004903	90.9220001698
1380.0	0.00049	90.9690001011
1380.0	0.0004893	91.0
1380.0	0.0004893	91.0470001698
1380.0	0.0004893	91.0940001011
1380.0	0.000489	91.125
1380.0	0.0004893	91.1720001698
1380.0	0.0004893	91.2030000687
1380.0	0.000489	91.25
1380.0	0.000489	91.2970001698
1380.0	0.000489	91.3280000687
1380.0	0.000489	91.375
1380.0	0.0004893	91.4220001698
1380.0	0.000489	91.4530000687
1380.0	0.000489	91.5
1380.0	0.0004888	91.5310001373
1380.0	0.0004883	91.5780000687
1380.0	0.000488	91.625
1380.0	0.000488	91.6560001373
1380.0	0.000488	91.7030000687
1380.0	0.0004883	91.75
1380.0	0.0004883	91.7810001373
1380.0	0.0004888	91.8280000687
1380.0	0.0004883	91.8600001335
1380.0	0.000488	91.9060001373
1380.0	0.0004878	91.9530000687
1380.0	0.0004878	91.9850001335
1390.0	0.0004755	92.2660000324
1390.0	0.0004713	92.2970001698
1390.0	0.0004675	92.3440001011
1390.0	0.0004643	92.3910000324
1390.0	0.000462	92.4220001698
1390.0	0.0004603	92.4690001011
1390.0	0.0004588	92.5160000324
1390.0	0.0004575	92.5470001698
1390.0	0.0004563	92.5940001011
1390.0	0.0004553	92.6410000324
1390.0	0.0004545	92.6720001698
1390.0	0.0004545	92.7190001011
1390.0	0.0004543	92.7660000324
1390.0	0.0004543	92.7970001698
1390.0	0.0004543	92.8440001011
1390.0	0.0004543	92.875
1390.0	0.0004543	92.9220001698
1390.0	0.0004543	92.9690001011
1390.0	0.000454	93.0
1390.0	0.000454	93.0470001698
1390.0	0.0004538	93.0940001011
1390.0	0.0004538	93.125
1390.0	0.0004538	93.1720001698
1390.0	0.0004533	93.2030000687
1390.0	0.000453	93.25
1390.0	0.0004528	93.2970001698
1390.0	0.0004528	93.3280000687
1390.0	0.000453	93.375
1390.0	0.0004533	93.4220001698
1390.0	0.0004538	93.4530000687
1390.0	0.0004538	93.5
1390.0	0.0004533	93.5310001373
1390.0	0.0004533	93.5780000687
1390.0	0.000453	93.625
1390.0	0.000453	93.6560001373
1390.0	0.000453	93.7030000687
1390.0	0.000453	93.75
1400.0	0.0004428	94.0160000324
1400.0	0.0004388	94.0470001698
1400.0	0.0004353	94.0940001011
1400.0	0.0004328	94.1410000324
1400.0	0.0004305	94.1720001698
1400.0	0.0004288	94.2190001011
1400.0	0.0004275	94.25
1400.0	0.0004265	94.2970001698
1400.0	0.0004255	94.3440001011
1400.0	0.000425	94.375
1400.0	0.0004245	94.4220001698
1400.0	0.0004245	94.4690001011
1400.0	0.0004243	94.5
1400.0	0.000424	94.5470001698
1400.0	0.000424	94.5940001011
1400.0	0.0004238	94.625
1400.0	0.0004238	94.6720001698
1400.0	0.0004238	94.7030000687
1400.0	0.0004238	94.75
1400.0	0.0004238	94.7970001698
1400.0	0.0004233	94.8280000687
1400.0	0.000423	94.875
1400.0	0.0004233	94.9220001698
1400.0	0.000423	94.9530000687
1400.0	0.000423	95.0
1400.0	0.000423	95.0310001373
1400.0	0.000423	95.0780000687
1400.0	0.0004233	95.125
1400.0	0.0004238	95.1560001373
1400.0	0.0004233	95.2030000687
1400.0	0.0004233	95.25
1400.0	0.0004233	95.2810001373
1400.0	0.0004233	95.3280000687
1400.0	0.000423	95.375
1400.0	0.000423	95.4060001373
1400.0	0.0004233	95.4530000687
1400.0	0.0004233	95.5
1410.0	0.0004155	95.7660000324
1410.0	0.0004128	95.7970001698
1410.0	0.00041	95.8440001011
1410.0	0.0004083	95.8910000324
1410.0	0.0004068	95.9220001698
1410.0	0.0004055	95.9690001011
1410.0	0.000405	96.0
1410.0	0.000404	96.0470001698
1410.0	0.0004033	96.0940001011
1410.0	0.000403	96.125
1410.0	0.0004028	96.1720001698
1410.0	0.0004025	96.2190001011
1410.0	0.0004025	96.25
1410.0	0.0004025	96.2970001698
1410.0	0.000402	96.3440001011
1410.0	0.000402	96.375
1410.0	0.000402	96.4220001698
1410.0	0.0004018	96.4530000687
1410.0	0.0004018	96.5
1410.0	0.0004018	96.5470001698
1410.0	0.0004018	96.5780000687
1410.0	0.0004018	96.625
1410.0	0.0004018	96.6560001373
1410.0	0.000402	96.7030000687
1410.0	0.000402	96.75
1410.0	0.000402	96.7810001373
1410.0	0.0004025	96.8280000687
1410.0	0.0004025	96.875
1410.0	0.0004028	96.9060001373
1410.0	0.0004028	96.9530000687
1410.0	0.000403	97.0
1410.0	0.000403	97.0310001373
1410.0	0.000403	97.0780000687
1410.0	0.000403	97.1100001335
1410.0	0.000403	97.1560001373
1410.0	0.0004028	97.2030000687
1410.0	0.0004028	97.2350001335
1420.0	0.0003955	97.5
1420.0	0.0003933	97.5470001698
1420.0	0.0003915	97.5940001011
1420.0	0.00039	97.625
1420.0	0.0003888	97.6720001698
1420.0	0.0003878	97.7190001011
1420.0	0.0003868	97.75
1420.0	0.0003863	97.7970001698
1420.0	0.0003855	97.8440001011
1420.0	0.0003855	97.875
1420.0	0.0003855	97.9220001698
1420.0	0.0003855	97.9690001011
1420.0	0.0003855	98.0
1420.0	0.0003853	98.0470001698
1420.0	0.0003853	98.0940001011
1420.0	0.0003853	98.125
1420.0	0.0003853	98.1720001698
1420.0	0.0003853	98.2030000687
1420.0	0.0003853	98.25
1420.0	0.0003855	98.2970001698
1420.0	0.0003858	98.3280000687
1420.0	0.0003858	98.375
1420.0	0.0003855	98.4060001373
1420.0	0.0003855	98.4530000687
1420.0	0.0003853	98.5
1420.0	0.0003855	98.5310001373
1420.0	0.0003853	98.5780000687
1420.0	0.000385	98.625
1420.0	0.000385	98.6560001373
1420.0	0.000385	98.7030000687
1420.0	0.0003845	98.7350001335
1420.0	0.0003845	98.7810001373
1420.0	0.0003845	98.8280000687
1420.0	0.0003845	98.8600001335
1420.0	0.0003845	98.9060001373
1420.0	0.000385	98.9530000687
1420.0	0.0003845	99.0
1430.0	0.0003805	99.2660000324
1430.0	0.0003793	99.2970001698
1430.0	0.0003783	99.3440001011
1430.0	0.0003775	99.3910000324
1430.0	0.000377	99.4220001698
1430.0	0.0003765	99.4690001011
1430.0	0.0003763	99.5
1430.0	0.0003758	99.5470001698
1430.0	0.0003753	99.5940001011
1430.0	0.000375	99.625
1430.0	0.0003753	99.6720001698
1430.0	0.0003753	99.7190001011
1430.0	0.000375	99.75
1430.0	0.000375	99.7970001698
1430.0	0.000375	99.8280000687
1430.0	0.0003753	99.875
1430.0	0.000375	99.9220001698
1430.0	0.000375	99.9530000687
1430.0	0.0003753	100.0
1430.0	0.0003753	100.04700017
1430.0	0.000375	100.078000069
1430.0	0.000375	100.125
1430.0	0.000375	100.156000137
1430.0	0.0003753	100.203000069
1430.0	0.0003755	100.25
1430.0	0.0003755	100.281000137
1430.0	0.0003755	100.328000069
1430.0	0.0003753	100.375
1430.0	0.0003755	100.406000137
1430.0	0.0003755	100.453000069
1430.0	0.0003755	100.5
1430.0	0.0003755	100.531000137
1430.0	0.0003753	100.578000069
1430.0	0.000375	100.610000134
1430.0	0.0003753	100.656000137
1430.0	0.0003753	100.703000069
1430.0	0.0003758	100.735000134
1440.0	0.0003745	101.0
1440.0	0.0003743	101.04700017
1440.0	0.0003743	101.094000101
1440.0	0.0003738	101.141000032
1440.0	0.0003738	101.17200017
1440.0	0.0003738	101.219000101
1440.0	0.0003733	101.25
1440.0	0.0003733	101.29700017
1440.0	0.000373	101.344000101
1440.0	0.000373	101.375
1440.0	0.000373	101.42200017
1440.0	0.0003728	101.469000101
1440.0	0.000373	101.5
1440.0	0.000373	101.54700017
1440.0	0.0003733	101.578000069
1440.0	0.0003738	101.625
1440.0	0.0003738	101.67200017
1440.0	0.0003738	101.703000069
1440.0	0.0003733	101.75
1440.0	0.0003733	101.79700017
1440.0	0.0003733	101.828000069
1440.0	0.000373	101.875
1440.0	0.0003728	101.906000137
1440.0	0.0003728	101.953000069
1440.0	0.0003725	102.0
1440.0	0.000372	102.031000137
1440.0	0.0003718	102.078000069
1440.0	0.0003718	102.125
1440.0	0.0003718	102.156000137
1440.0	0.0003718	102.203000069
1440.0	0.0003718	102.235000134
1440.0	0.000372	102.281000137
1440.0	0.0003725	102.328000069
1440.0	0.000372	102.360000134
1440.0	0.0003725	102.406000137
1440.0	0.0003725	102.453000069
1440.0	0.0003725	102.485000134
1450.0	0.0003738	102.75
1450.0	0.0003743	102.79700017
1450.0	0.000375	102.844000101
1450.0	0.0003755	102.875
1450.0	0.0003755	102.92200017
1450.0	0.0003758	102.969000101
1450.0	0.0003755	103.0
1450.0	0.0003758	103.04700017
1450.0	0.0003763	103.078000069
1450.0	0.0003765	103.125
1450.0	0.0003765	103.17200017
1450.0	0.0003765	103.203000069
1450.0	0.0003763	103.25
1450.0	0.0003758	103.281000137
1450.0	0.0003758	103.328000069
1450.0	0.0003758	103.375
1450.0	0.0003758	103.406000137
1450.0	0.0003758	103.453000069
1450.0	0.0003758	103.5
1450.0	0.0003763	103.531000137
1450.0	0.0003763	103.578000069
1450.0	0.0003763	103.625
1450.0	0.0003763	103.656000137
1450.0	0.0003763	103.703000069
1450.0	0.0003763	103.735000134
1450.0	0.0003755	103.781000137
1450.0	0.0003755	103.828000069
1450.0	0.0003755	103.860000134
1450.0	0.0003755	103.906000137
1450.0	0.0003758	103.953000069
1450.0	0.0003755	103.985000134
1450.0	0.0003755	104.031000137
1450.0	0.0003758	104.063000202
1450.0	0.0003763	104.110000134
1450.0	0.0003768	104.156000137
1450.0	0.0003768	104.188000202
1450.0	0.0003765	104.235000134
1460.0	0.0003793	104.5
1460.0	0.0003805	104.54700017
1460.0	0.0003818	104.578000069
1460.0	0.0003825	104.625
1460.0	0.0003833	104.67200017
1460.0	0.0003843	104.703000069
1460.0	0.0003845	104.75
1460.0	0.000385	104.781000137
1460.0	0.0003855	104.828000069
1460.0	0.0003855	104.875
1460.0	0.0003858	104.906000137
1460.0	0.0003855	104.953000069
1460.0	0.0003855	105.0
1460.0	0.0003855	105.031000137
1460.0	0.0003858	105.078000069
1460.0	0.0003858	105.125
1460.0	0.0003863	105.156000137
1460.0	0.0003865	105.203000069
1460.0	0.0003865	105.25
1460.0	0.0003865	105.281000137
1460.0	0.0003863	105.328000069
1460.0	0.0003858	105.375
1460.0	0.0003858	105.406000137
1460.0	0.0003858	105.453000069
1460.0	0.0003863	105.485000134
1460.0	0.0003858	105.531000137
1460.0	0.0003855	105.578000069
1460.0	0.0003855	105.610000134
1460.0	0.0003858	105.656000137
1460.0	0.0003858	105.703000069
1460.0	0.0003855	105.735000134
1460.0	0.0003855	105.781000137
1460.0	0.0003855	105.813000202
1460.0	0.000385	105.860000134
1460.0	0.000385	105.906000137
1460.0	0.000385	105.938000202
1460.0	0.0003845	105.985000134
1470.0	0.0003893	106.25
1470.0	0.0003908	106.29700017
1470.0	0.000392	106.328000069
1470.0	0.0003933	106.375
1470.0	0.0003945	106.42200017
1470.0	0.0003955	106.453000069
1470.0	0.0003963	106.5
1470.0	0.0003965	106.531000137
1470.0	0.0003968	106.578000069
1470.0	0.0003968	106.625
1470.0	0.0003968	106.656000137
1470.0	0.000397	106.703000069
1470.0	0.0003968	106.75
1470.0	0.0003975	106.781000137
1470.0	0.000398	106.828000069
1470.0	0.000398	106.860000134
1470.0	0.0003978	106.906000137
1470.0	0.0003978	106.953000069
1470.0	0.0003975	106.985000134
1470.0	0.000397	107.031000137
1470.0	0.0003968	107.078000069
1470.0	0.0003968	107.110000134
1470.0	0.0003975	107.156000137
1470.0	0.0003975	107.203000069
1470.0	0.0003975	107.235000134
1470.0	0.0003975	107.281000137
1470.0	0.0003975	107.313000202
1470.0	0.0003975	107.360000134
1470.0	0.0003978	107.406000137
1470.0	0.000398	107.438000202
1470.0	0.0003978	107.485000134
1470.0	0.0003978	107.531000137
1470.0	0.0003978	107.563000202
1470.0	0.0003975	107.610000134
1470.0	0.0003975	107.641000032
1470.0	0.000398	107.688000202
1470.0	0.000398	107.735000134
1480.0	0.0004033	108.0
1480.0	0.0004053	108.031000137
1480.0	0.0004068	108.078000069
1480.0	0.000408	108.125
1480.0	0.0004093	108.156000137
1480.0	0.0004103	108.203000069
1480.0	0.0004108	108.235000134
1480.0	0.0004113	108.281000137
1480.0	0.0004118	108.328000069
1480.0	0.0004118	108.360000134
1480.0	0.0004118	108.406000137
1480.0	0.000412	108.453000069
1480.0	0.000412	108.485000134
1480.0	0.0004118	108.531000137
1480.0	0.000412	108.578000069
1480.0	0.000412	108.610000134
1480.0	0.0004118	108.656000137
1480.0	0.0004115	108.688000202
1480.0	0.0004108	108.735000134
1480.0	0.0004113	108.781000137
1480.0	0.0004108	108.813000202
1480.0	0.0004113	108.860000134
1480.0	0.0004115	108.906000137
1480.0	0.0004113	108.938000202
1480.0	0.0004113	108.985000134
1480.0	0.0004113	109.016000032
1480.0	0.0004108	109.063000202
1480.0	0.0004105	109.110000134
1480.0	0.0004105	109.141000032
1480.0	0.0004105	109.188000202
1480.0	0.0004108	109.235000134
1480.0	0.0004115	109.266000032
1480.0	0.0004118	109.313000202
1480.0	0.0004118	109.360000134
1480.0	0.0004115	109.391000032
1480.0	0.0004113	109.438000202
1480.0	0.0004113	109.469000101
1490.0	0.000417	109.75
1490.0	0.000419	109.781000137
1490.0	0.0004208	109.828000069
1490.0	0.0004225	109.875
1490.0	0.0004233	109.906000137
1490.0	0.0004243	109.953000069
1490.0	0.000425	109.985000134
1490.0	0.0004255	110.031000137
1490.0	0.0004258	110.078000069
1490.0	0.0004263	110.110000134
1490.0	0.0004268	110.156000137
1490.0	0.0004268	110.203000069
1490.0	0.0004275	110.235000134
1490.0	0.0004278	110.281000137
1490.0	0.0004278	110.328000069
1490.0	0.0004275	110.360000134
1490.0	0.0004268	110.406000137
1490.0	0.0004268	110.438000202
1490.0	0.0004268	110.485000134
1490.0	0.0004268	110.531000137
1490.0	0.0004268	110.563000202
1490.0	0.0004268	110.610000134
1490.0	0.0004268	110.656000137
1490.0	0.000427	110.688000202
1490.0	0.0004275	110.735000134
1490.0	0.000428	110.766000032
1490.0	0.000428	110.813000202
1490.0	0.0004278	110.860000134
1490.0	0.0004275	110.906000137
1490.0	0.0004275	110.938000202
1490.0	0.0004278	110.985000134
1490.0	0.000428	111.031000137
1490.0	0.000428	111.063000202
1490.0	0.0004283	111.110000134
1490.0	0.000428	111.141000032
1490.0	0.000428	111.188000202
1490.0	0.000428	111.235000134
1500.0	0.0004325	111.5
1500.0	0.0004345	111.54700017
1500.0	0.0004363	111.578000069
1500.0	0.000437	111.625
1500.0	0.000438	111.656000137
1500.0	0.0004388	111.703000069
1500.0	0.000439	111.75
1500.0	0.0004395	111.781000137
1500.0	0.00044	111.828000069
1500.0	0.0004403	111.875
1500.0	0.0004403	111.906000137
1500.0	0.0004403	111.953000069
1500.0	0.00044	112.0
1500.0	0.00044	112.031000137
1500.0	0.00044	112.078000069
1500.0	0.0004405	112.125
1500.0	0.0004405	112.156000137
1500.0	0.0004413	112.203000069
1500.0	0.0004408	112.25
1500.0	0.0004408	112.281000137
1500.0	0.0004408	112.328000069
1500.0	0.0004405	112.360000134
1500.0	0.0004408	112.406000137
1500.0	0.0004413	112.453000069
1500.0	0.0004413	112.485000134
1500.0	0.0004415	112.531000137
1500.0	0.0004415	112.578000069
1500.0	0.0004418	112.610000134
1500.0	0.0004418	112.656000137
1500.0	0.0004418	112.688000202
1500.0	0.0004418	112.735000134
1500.0	0.0004415	112.781000137
1500.0	0.0004415	112.813000202
1500.0	0.0004418	112.860000134
1500.0	0.0004415	112.906000137
1500.0	0.0004415	112.938000202
1500.0	0.0004415	112.985000134
1510.0	0.000445	113.266000032
1510.0	0.0004465	113.29700017
1510.0	0.0004478	113.344000101
1510.0	0.000449	113.375
1510.0	0.00045	113.42200017
1510.0	0.0004505	113.469000101
1510.0	0.0004513	113.5
1510.0	0.0004518	113.54700017
1510.0	0.0004518	113.578000069
1510.0	0.000452	113.625
1510.0	0.0004525	113.67200017
1510.0	0.0004525	113.703000069
1510.0	0.0004525	113.75
1510.0	0.0004525	113.79700017
1510.0	0.0004525	113.828000069
1510.0	0.0004528	113.875
1510.0	0.0004525	113.92200017
1510.0	0.0004525	113.953000069
1510.0	0.0004528	114.0
1510.0	0.0004528	114.031000137
1510.0	0.000453	114.078000069
1510.0	0.0004533	114.125
1510.0	0.000453	114.156000137
1510.0	0.000453	114.203000069
1510.0	0.0004528	114.25
1510.0	0.000453	114.281000137
1510.0	0.000453	114.328000069
1510.0	0.0004533	114.360000134
1510.0	0.000453	114.406000137
1510.0	0.000453	114.453000069
1510.0	0.0004533	114.485000134
1510.0	0.0004538	114.531000137
1510.0	0.000454	114.578000069
1510.0	0.0004538	114.610000134
1510.0	0.0004538	114.656000137
1510.0	0.0004533	114.688000202
1510.0	0.0004538	114.735000134
1520.0	0.000457	115.016000032
1520.0	0.0004583	115.04700017
1520.0	0.0004593	115.094000101
1520.0	0.00046	115.125
1520.0	0.0004605	115.17200017
1520.0	0.0004608	115.219000101
1520.0	0.0004613	115.25
1520.0	0.0004618	115.29700017
1520.0	0.000462	115.328000069
1520.0	0.0004625	115.375
1520.0	0.0004625	115.42200017
1520.0	0.000462	115.453000069
1520.0	0.0004618	115.5
1520.0	0.0004618	115.54700017
1520.0	0.0004618	115.578000069
1520.0	0.0004618	115.625
1520.0	0.000462	115.67200017
1520.0	0.000462	115.703000069
1520.0	0.0004625	115.75
1520.0	0.0004625	115.781000137
1520.0	0.0004625	115.828000069
1520.0	0.0004625	115.875
1520.0	0.0004625	115.906000137
1520.0	0.000462	115.953000069
1520.0	0.0004618	116.0
1520.0	0.0004615	116.031000137
1520.0	0.0004615	116.078000069
1520.0	0.0004613	116.110000134
1520.0	0.0004615	116.156000137
1520.0	0.0004613	116.203000069
1520.0	0.0004615	116.235000134
1520.0	0.0004618	116.281000137
1520.0	0.0004618	116.328000069
1520.0	0.0004618	116.360000134
1520.0	0.000462	116.406000137
1520.0	0.000462	116.438000202
1520.0	0.0004625	116.485000134
1530.0	0.0004638	116.766000032
1530.0	0.0004643	116.79700017
1530.0	0.000465	116.844000101
1530.0	0.0004655	116.891000032
1530.0	0.0004663	116.92200017
1530.0	0.0004665	116.969000101
1530.0	0.0004665	117.0
1530.0	0.0004668	117.04700017
1530.0	0.0004668	117.094000101
1530.0	0.0004668	117.125
1530.0	0.0004668	117.17200017
1530.0	0.0004663	117.219000101
1530.0	0.0004663	117.25
1530.0	0.0004663	117.29700017
1530.0	0.0004658	117.328000069
1530.0	0.0004663	117.375
1530.0	0.0004658	117.42200017
1530.0	0.0004658	117.453000069
1530.0	0.0004663	117.5
1530.0	0.0004663	117.54700017
1530.0	0.0004663	117.578000069
1530.0	0.0004663	117.625
1530.0	0.0004658	117.656000137
1530.0	0.0004658	117.703000069
1530.0	0.0004663	117.75
1530.0	0.0004658	117.781000137
1530.0	0.0004663	117.828000069
1530.0	0.0004658	117.875
1530.0	0.0004658	117.906000137
1530.0	0.0004655	117.953000069
1530.0	0.0004655	118.0
1530.0	0.0004658	118.031000137
1530.0	0.0004655	118.078000069
1530.0	0.0004658	118.110000134
1530.0	0.0004655	118.156000137
1530.0	0.0004658	118.203000069
1530.0	0.0004663	118.235000134
1540.0	0.0004665	118.516000032
1540.0	0.0004668	118.563000202
1540.0	0.0004665	118.594000101
1540.0	0.0004665	118.641000032
1540.0	0.0004665	118.67200017
1540.0	0.0004665	118.719000101
1540.0	0.0004668	118.766000032
1540.0	0.0004668	118.79700017
1540.0	0.0004668	118.844000101
1540.0	0.000467	118.891000032
1540.0	0.0004668	118.92200017
1540.0	0.0004665	118.969000101
1540.0	0.0004663	119.016000032
1540.0	0.0004663	119.04700017
1540.0	0.0004665	119.094000101
1540.0	0.0004665	119.141000032
1540.0	0.0004668	119.17200017
1540.0	0.0004668	119.219000101
1540.0	0.0004668	119.266000032
1540.0	0.0004668	119.29700017
1540.0	0.0004668	119.344000101
1540.0	0.0004668	119.375
1540.0	0.0004665	119.42200017
1540.0	0.0004668	119.469000101
1540.0	0.0004668	119.5
1540.0	0.0004668	119.54700017
1540.0	0.0004668	119.594000101
1540.0	0.0004665	119.625
1540.0	0.0004668	119.67200017
1540.0	0.0004668	119.703000069
1540.0	0.0004665	119.75
1540.0	0.0004665	119.79700017
1540.0	0.0004668	119.828000069
1540.0	0.0004668	119.875
1540.0	0.0004665	119.92200017
1540.0	0.0004663	119.953000069
1540.0	0.0004663	120.0
1550.0	0.0004653	120.266000032
1550.0	0.0004643	120.313000202
1550.0	0.000464	120.360000134
1550.0	0.0004638	120.391000032
1550.0	0.0004633	120.438000202
1550.0	0.000463	120.485000134
1550.0	0.0004628	120.516000032
1550.0	0.0004625	120.563000202
1550.0	0.0004628	120.610000134
1550.0	0.0004628	120.641000032
1550.0	0.0004625	120.688000202
1550.0	0.000462	120.719000101
1550.0	0.0004625	120.766000032
1550.0	0.0004628	120.813000202
1550.0	0.000463	120.860000134
1550.0	0.0004628	120.891000032
1550.0	0.0004628	120.938000202
1550.0	0.0004628	120.969000101
1550.0	0.0004633	121.016000032
1550.0	0.0004633	121.063000202
1550.0	0.0004633	121.094000101
1550.0	0.0004633	121.141000032
1550.0	0.0004633	121.188000202
1550.0	0.0004633	121.219000101
1550.0	0.000463	121.266000032
1550.0	0.000463	121.29700017
1550.0	0.000463	121.344000101
1550.0	0.0004633	121.391000032
1550.0	0.0004638	121.42200017
1550.0	0.0004638	121.469000101
1550.0	0.0004638	121.516000032
1550.0	0.0004633	121.54700017
1550.0	0.0004633	121.594000101
1550.0	0.0004633	121.641000032
1550.0	0.0004633	121.67200017
1550.0	0.0004633	121.719000101
1550.0	0.0004633	121.75
1560.0	0.0004593	122.031000137
1560.0	0.0004583	122.078000069
1560.0	0.0004575	122.110000134
1560.0	0.0004565	122.156000137
1560.0	0.0004555	122.188000202
1560.0	0.0004545	122.235000134
1560.0	0.0004543	122.281000137
1560.0	0.000454	122.313000202
1560.0	0.0004543	122.360000134
1560.0	0.0004543	122.406000137
1560.0	0.0004543	122.438000202
1560.0	0.000454	122.485000134
1560.0	0.0004538	122.516000032
1560.0	0.0004538	122.563000202
1560.0	0.0004538	122.610000134
1560.0	0.0004538	122.656000137
1560.0	0.0004538	122.688000202
1560.0	0.0004533	122.735000134
1560.0	0.0004533	122.781000137
1560.0	0.0004533	122.813000202
1560.0	0.0004528	122.860000134
1560.0	0.0004525	122.891000032
1560.0	0.000452	122.938000202
1560.0	0.000452	122.985000134
1560.0	0.000452	123.016000032
1560.0	0.000452	123.063000202
1560.0	0.000452	123.110000134
1560.0	0.0004518	123.141000032
1560.0	0.000452	123.188000202
1560.0	0.000452	123.219000101
1560.0	0.0004518	123.266000032
1560.0	0.0004518	123.313000202
1560.0	0.0004518	123.344000101
1560.0	0.000452	123.391000032
1560.0	0.000452	123.438000202
1560.0	0.000452	123.469000101
1560.0	0.0004525	123.516000032
1570.0	0.000447	123.781000137
1570.0	0.0004445	123.828000069
1570.0	0.000443	123.875
1570.0	0.0004413	123.906000137
1570.0	0.0004395	123.953000069
1570.0	0.0004388	124.0
1570.0	0.000438	124.031000137
1570.0	0.0004375	124.078000069
1570.0	0.0004375	124.110000134
1570.0	0.000437	124.156000137
1570.0	0.000437	124.203000069
1570.0	0.000437	124.235000134
1570.0	0.0004368	124.281000137
1570.0	0.0004368	124.328000069
1570.0	0.0004368	124.360000134
1570.0	0.0004365	124.406000137
1570.0	0.0004363	124.453000069
1570.0	0.0004358	124.485000134
1570.0	0.0004355	124.531000137
1570.0	0.0004353	124.578000069
1570.0	0.0004355	124.610000134
1570.0	0.0004355	124.656000137
1570.0	0.0004355	124.703000069
1570.0	0.0004358	124.735000134
1570.0	0.0004363	124.781000137
1570.0	0.0004363	124.813000202
1570.0	0.0004363	124.860000134
1570.0	0.0004363	124.906000137
1570.0	0.0004358	124.938000202
1570.0	0.0004363	124.985000134
1570.0	0.0004363	125.031000137
1570.0	0.0004358	125.063000202
1570.0	0.0004355	125.110000134
1570.0	0.0004353	125.141000032
1570.0	0.0004353	125.188000202
1570.0	0.0004353	125.235000134
1570.0	0.0004353	125.266000032
1580.0	0.0004278	125.54700017
1580.0	0.0004245	125.594000101
1580.0	0.000422	125.625
1580.0	0.0004203	125.67200017
1580.0	0.000419	125.703000069
1580.0	0.0004178	125.75
1580.0	0.0004168	125.79700017
1580.0	0.0004163	125.828000069
1580.0	0.0004158	125.875
1580.0	0.0004155	125.92200017
1580.0	0.0004155	125.953000069
1580.0	0.0004155	126.0
1580.0	0.0004155	126.031000137
1580.0	0.0004155	126.078000069
1580.0	0.0004153	126.125
1580.0	0.0004153	126.156000137
1580.0	0.0004153	126.203000069
1580.0	0.0004153	126.25
1580.0	0.000415	126.281000137
1580.0	0.000415	126.328000069
1580.0	0.0004145	126.375
1580.0	0.0004145	126.406000137
1580.0	0.0004145	126.453000069
1580.0	0.0004145	126.485000134
1580.0	0.0004145	126.531000137
1580.0	0.0004145	126.578000069
1580.0	0.0004145	126.610000134
1580.0	0.0004145	126.656000137
1580.0	0.0004145	126.703000069
1580.0	0.000415	126.735000134
1580.0	0.000415	126.781000137
1580.0	0.000415	126.813000202
1580.0	0.000415	126.860000134
1580.0	0.0004145	126.906000137
1580.0	0.0004145	126.938000202
1580.0	0.0004145	126.985000134
1580.0	0.0004143	127.031000137
1590.0	0.0004045	127.29700017
1590.0	0.0004013	127.344000101
1590.0	0.0003983	127.391000032
1590.0	0.0003963	127.42200017
1590.0	0.0003943	127.469000101
1590.0	0.000393	127.516000032
1590.0	0.0003925	127.54700017
1590.0	0.0003915	127.594000101
1590.0	0.0003913	127.641000032
1590.0	0.0003905	127.67200017
1590.0	0.00039	127.719000101
1590.0	0.00039	127.766000032
1590.0	0.0003895	127.79700017
1590.0	0.0003895	127.844000101
1590.0	0.0003895	127.891000032
1590.0	0.0003893	127.92200017
1590.0	0.000389	127.969000101
1590.0	0.0003888	128.0
1590.0	0.0003888	128.04700017
1590.0	0.000389	128.094000101
1590.0	0.000389	128.125
1590.0	0.000389	128.17200017
1590.0	0.000389	128.219000101
1590.0	0.000389	128.25
1590.0	0.000389	128.29700017
1590.0	0.000389	128.328000069
1590.0	0.0003888	128.375
1590.0	0.0003888	128.42200017
1590.0	0.0003883	128.453000069
1590.0	0.000388	128.5
1590.0	0.0003883	128.54700017
1590.0	0.0003888	128.578000069
1590.0	0.0003888	128.625
1590.0	0.000389	128.656000137
1590.0	0.0003895	128.703000069
1590.0	0.00039	128.75
1600.0	0.0003783	129.016000032
1600.0	0.0003738	129.063000202
1600.0	0.00037	129.110000134
1600.0	0.0003665	129.141000032
1600.0	0.000364	129.188000202
1600.0	0.000362	129.219000101
1600.0	0.0003608	129.266000032
1600.0	0.00036	129.313000202
1600.0	0.000359	129.344000101
1600.0	0.0003588	129.391000032
1600.0	0.0003578	129.438000202
1600.0	0.000357	129.469000101
1600.0	0.000357	129.516000032
1600.0	0.0003568	129.563000202
1600.0	0.000357	129.594000101
1600.0	0.000357	129.641000032
1600.0	0.0003575	129.67200017
1600.0	0.0003575	129.719000101
1600.0	0.000357	129.766000032
1600.0	0.000357	129.79700017
1600.0	0.000357	129.844000101
1600.0	0.0003575	129.891000032
1600.0	0.000357	129.92200017
1600.0	0.0003568	129.969000101
1600.0	0.0003565	130.016000032
1600.0	0.0003565	130.04700017
1600.0	0.0003565	130.094000101
1600.0	0.0003565	130.141000032
1600.0	0.0003565	130.17200017
1600.0	0.0003568	130.219000101
1600.0	0.000357	130.266000032
1600.0	0.000357	130.29700017
1600.0	0.000357	130.344000101
1600.0	0.0003575	130.375
1600.0	0.000357	130.42200017
1600.0	0.000357	130.469000101
1600.0	0.0003568	130.5
1610.0	0.0003425	130.781000137
1610.0	0.0003378	130.828000069
1610.0	0.0003338	130.860000134
1610.0	0.0003305	130.906000137
1610.0	0.0003283	130.953000069
1610.0	0.0003265	130.985000134
1610.0	0.0003253	131.031000137
1610.0	0.000324	131.078000069
1610.0	0.000323	131.110000134
1610.0	0.000322	131.156000137
1610.0	0.0003218	131.188000202
1610.0	0.0003213	131.235000134
1610.0	0.0003213	131.281000137
1610.0	0.0003208	131.313000202
1610.0	0.0003208	131.360000134
1610.0	0.0003208	131.406000137
1610.0	0.0003208	131.438000202
1610.0	0.0003213	131.485000134
1610.0	0.0003208	131.516000032
1610.0	0.0003213	131.563000202
1610.0	0.0003213	131.610000134
1610.0	0.0003213	131.641000032
1610.0	0.0003213	131.688000202
1610.0	0.0003208	131.735000134
1610.0	0.0003205	131.766000032
1610.0	0.0003208	131.813000202
1610.0	0.0003205	131.860000134
1610.0	0.0003205	131.891000032
1610.0	0.0003205	131.938000202
1610.0	0.0003205	131.985000134
1610.0	0.0003208	132.016000032
1610.0	0.0003215	132.063000202
1610.0	0.0003215	132.110000134
1610.0	0.0003218	132.141000032
1610.0	0.000322	132.188000202
1610.0	0.0003225	132.219000101
1610.0	0.0003225	132.266000032
1620.0	0.0003063	132.54700017
1620.0	0.0003013	132.578000069
1620.0	0.000297	132.625
1620.0	0.000294	132.67200017
1620.0	0.0002915	132.703000069
1620.0	0.0002895	132.75
1620.0	0.0002883	132.79700017
1620.0	0.0002875	132.828000069
1620.0	0.0002865	132.875
1620.0	0.0002858	132.92200017
1620.0	0.0002853	132.953000069
1620.0	0.0002843	133.0
1620.0	0.000284	133.031000137
1620.0	0.0002838	133.078000069
1620.0	0.0002838	133.125
1620.0	0.0002838	133.156000137
1620.0	0.0002833	133.203000069
1620.0	0.0002833	133.25
1620.0	0.0002838	133.281000137
1620.0	0.000284	133.328000069
1620.0	0.0002843	133.360000134
1620.0	0.0002843	133.406000137
1620.0	0.0002843	133.453000069
1620.0	0.0002845	133.485000134
1620.0	0.000285	133.531000137
1620.0	0.0002845	133.578000069
1620.0	0.0002843	133.610000134
1620.0	0.000284	133.656000137
1620.0	0.0002838	133.703000069
1620.0	0.0002838	133.735000134
1620.0	0.0002838	133.781000137
1620.0	0.000284	133.813000202
1620.0	0.000284	133.860000134
1620.0	0.0002838	133.906000137
1620.0	0.0002838	133.938000202
1620.0	0.0002833	133.985000134
1620.0	0.0002833	134.031000137
1630.0	0.000268	134.29700017
1630.0	0.000262	134.344000101
1630.0	0.0002578	134.391000032
1630.0	0.000254	134.42200017
1630.0	0.0002513	134.469000101
1630.0	0.0002488	134.516000032
1630.0	0.0002468	134.54700017
1630.0	0.0002455	134.594000101
1630.0	0.0002445	134.625
1630.0	0.000244	134.67200017
1630.0	0.0002438	134.719000101
1630.0	0.0002433	134.75
1630.0	0.000243	134.79700017
1630.0	0.000243	134.844000101
1630.0	0.0002428	134.875
1630.0	0.0002428	134.92200017
1630.0	0.0002428	134.953000069
1630.0	0.0002428	135.0
1630.0	0.0002428	135.04700017
1630.0	0.0002428	135.078000069
1630.0	0.0002428	135.125
1630.0	0.0002428	135.17200017
1630.0	0.0002428	135.203000069
1630.0	0.000243	135.25
1630.0	0.0002428	135.281000137
1630.0	0.000242	135.328000069
1630.0	0.0002418	135.375
1630.0	0.0002415	135.406000137
1630.0	0.0002415	135.453000069
1630.0	0.0002415	135.5
1630.0	0.0002415	135.531000137
1630.0	0.0002415	135.578000069
1630.0	0.0002415	135.625
1630.0	0.0002415	135.656000137
1630.0	0.0002418	135.703000069
1630.0	0.0002418	135.735000134
1630.0	0.0002418	135.781000137
1640.0	0.0002265	136.063000202
1640.0	0.0002215	136.110000134
1640.0	0.0002168	136.141000032
1640.0	0.0002133	136.188000202
1640.0	0.0002108	136.235000134
1640.0	0.0002083	136.266000032
1640.0	0.000207	136.313000202
1640.0	0.0002058	136.360000134
1640.0	0.000205	136.391000032
1640.0	0.0002043	136.438000202
1640.0	0.0002038	136.469000101
1640.0	0.0002033	136.516000032
1640.0	0.000203	136.563000202
1640.0	0.0002028	136.594000101
1640.0	0.0002025	136.641000032
1640.0	0.0002028	136.688000202
1640.0	0.0002028	136.719000101
1640.0	0.0002025	136.766000032
1640.0	0.000202	136.813000202
1640.0	0.0002025	136.844000101
1640.0	0.0002028	136.891000032
1640.0	0.0002028	136.92200017
1640.0	0.000203	136.969000101
1640.0	0.0002038	137.016000032
1640.0	0.0002038	137.04700017
1640.0	0.0002033	137.094000101
1640.0	0.0002033	137.141000032
1640.0	0.000203	137.17200017
1640.0	0.000203	137.219000101
1640.0	0.0002033	137.25
1640.0	0.000203	137.29700017
1640.0	0.0002028	137.344000101
1640.0	0.000203	137.375
1640.0	0.0002028	137.42200017
1640.0	0.0002028	137.453000069
1640.0	0.0002028	137.5
1640.0	0.0002028	137.54700017
1650.0	0.0001888	137.828000069
1650.0	0.000184	137.875
1650.0	0.00018	137.906000137
1650.0	0.0001768	137.953000069
1650.0	0.0001743	137.985000134
1650.0	0.000172	138.031000137
1650.0	0.0001705	138.078000069
1650.0	0.0001693	138.110000134
1650.0	0.000168	138.156000137
1650.0	0.0001675	138.203000069
1650.0	0.000167	138.235000134
1650.0	0.0001668	138.281000137
1650.0	0.0001668	138.313000202
1650.0	0.0001665	138.360000134
1650.0	0.0001665	138.406000137
1650.0	0.0001663	138.438000202
1650.0	0.0001658	138.485000134
1650.0	0.0001655	138.531000137
1650.0	0.0001658	138.563000202
1650.0	0.0001658	138.610000134
1650.0	0.0001655	138.656000137
1650.0	0.0001655	138.688000202
1650.0	0.0001658	138.735000134
1650.0	0.0001658	138.766000032
1650.0	0.0001658	138.813000202
1650.0	0.0001658	138.860000134
1650.0	0.0001658	138.891000032
1650.0	0.0001655	138.938000202
1650.0	0.0001645	138.985000134
1650.0	0.0001645	139.016000032
1650.0	0.0001643	139.063000202
1650.0	0.0001645	139.094000101
1650.0	0.0001645	139.141000032
1650.0	0.000165	139.188000202
1650.0	0.0001653	139.219000101
1650.0	0.0001653	139.266000032
1650.0	0.000165	139.313000202
1660.0	0.0001515	139.594000101
1660.0	0.0001475	139.625
1660.0	0.000144	139.67200017
1660.0	0.0001415	139.719000101
1660.0	0.0001393	139.75
1660.0	0.0001378	139.79700017
1660.0	0.0001365	139.828000069
1660.0	0.0001355	139.875
1660.0	0.000135	139.92200017
1660.0	0.0001343	139.953000069
1660.0	0.000134	140.0
1660.0	0.0001338	140.04700017
1660.0	0.0001333	140.078000069
1660.0	0.0001333	140.125
1660.0	0.000133	140.156000137
1660.0	0.000133	140.203000069
1660.0	0.000133	140.25
1660.0	0.0001328	140.281000137
1660.0	0.0001328	140.328000069
1660.0	0.0001328	140.375
1660.0	0.000133	140.406000137
1660.0	0.000133	140.453000069
1660.0	0.000133	140.5
1660.0	0.000133	140.531000137
1660.0	0.000133	140.578000069
1660.0	0.000133	140.610000134
1660.0	0.0001333	140.656000137
1660.0	0.0001338	140.703000069
1660.0	0.0001338	140.735000134
1660.0	0.0001338	140.781000137
1660.0	0.0001333	140.828000069
1660.0	0.0001333	140.860000134
1660.0	0.0001333	140.906000137
1660.0	0.0001333	140.938000202
1660.0	0.0001338	140.985000134
1660.0	0.0001338	141.031000137
1660.0	0.0001333	141.063000202
1670.0	0.000122	141.360000134
1670.0	0.0001183	141.391000032
1670.0	0.0001155	141.438000202
1670.0	0.0001128	141.485000134
1670.0	0.0001105	141.516000032
1670.0	0.0001093	141.563000202
1670.0	0.000108	141.610000134
1670.0	0.000107	141.641000032
1670.0	0.0001065	141.688000202
1670.0	0.0001058	141.719000101
1670.0	0.0001058	141.766000032
1670.0	0.0001055	141.813000202
1670.0	0.000105	141.844000101
1670.0	0.000105	141.891000032
1670.0	0.000105	141.938000202
1670.0	0.000105	141.969000101
1670.0	0.0001053	142.016000032
1670.0	0.000105	142.04700017
1670.0	0.000105	142.094000101
1670.0	0.0001045	142.141000032
1670.0	0.0001045	142.188000202
1670.0	0.0001045	142.219000101
1670.0	0.000105	142.266000032
1670.0	0.000105	142.29700017
1670.0	0.000105	142.344000101
1670.0	0.0001045	142.391000032
1670.0	0.0001045	142.42200017
1670.0	0.0001045	142.469000101
1670.0	0.0001045	142.516000032
1670.0	0.0001045	142.54700017
1670.0	0.0001043	142.594000101
1670.0	0.000104	142.641000032
1670.0	0.000104	142.67200017
1670.0	0.000104	142.719000101
1670.0	0.0001043	142.75
1670.0	0.0001043	142.79700017
1670.0	0.0001043	142.844000101
1680.0	9.55e-05	143.125
1680.0	9.25e-05	143.156000137
1680.0	9e-05	143.203000069
1680.0	8.78e-05	143.25
1680.0	8.65e-05	143.281000137
1680.0	8.53e-05	143.328000069
1680.0	8.43e-05	143.375
1680.0	8.38e-05	143.406000137
1680.0	8.33e-05	143.453000069
1680.0	8.3e-05	143.5
1680.0	8.28e-05	143.531000137
1680.0	8.25e-05	143.578000069
1680.0	8.28e-05	143.625
1680.0	8.28e-05	143.656000137
1680.0	8.3e-05	143.703000069
1680.0	8.3e-05	143.735000134
1680.0	8.28e-05	143.781000137
1680.0	8.28e-05	143.828000069
1680.0	8.28e-05	143.860000134
1680.0	8.28e-05	143.906000137
1680.0	8.25e-05	143.953000069
1680.0	8.25e-05	143.985000134
1680.0	8.25e-05	144.031000137
1680.0	8.28e-05	144.063000202
1680.0	8.3e-05	144.110000134
1680.0	8.3e-05	144.156000137
1680.0	8.3e-05	144.188000202
1680.0	8.33e-05	144.235000134
1680.0	8.33e-05	144.281000137
1680.0	8.33e-05	144.313000202
1680.0	8.3e-05	144.360000134
1680.0	8.3e-05	144.406000137
1680.0	8.33e-05	144.438000202
1680.0	8.3e-05	144.485000134
1680.0	8.28e-05	144.516000032
1680.0	8.28e-05	144.563000202
1680.0	8.28e-05	144.610000134
1690.0	7.53e-05	144.891000032
1690.0	7.28e-05	144.938000202
1690.0	7.13e-05	144.969000101
1690.0	7e-05	145.016000032
1690.0	6.9e-05	145.063000202
1690.0	6.8e-05	145.094000101
1690.0	6.75e-05	145.141000032
1690.0	6.7e-05	145.17200017
1690.0	6.68e-05	145.219000101
1690.0	6.63e-05	145.266000032
1690.0	6.58e-05	145.29700017
1690.0	6.53e-05	145.344000101
1690.0	6.5e-05	145.391000032
1690.0	6.45e-05	145.42200017
1690.0	6.45e-05	145.469000101
1690.0	6.43e-05	145.516000032
1690.0	6.43e-05	145.54700017
1690.0	6.43e-05	145.594000101
1690.0	6.43e-05	145.625
1690.0	6.43e-05	145.67200017
1690.0	6.43e-05	145.719000101
1690.0	6.43e-05	145.75
1690.0	6.43e-05	145.79700017
1690.0	6.43e-05	145.828000069
1690.0	6.4e-05	145.875
1690.0	6.38e-05	145.92200017
1690.0	6.38e-05	145.953000069
1690.0	6.33e-05	146.0
1690.0	6.3e-05	146.04700017
1690.0	6.3e-05	146.094000101
1690.0	6.3e-05	146.125
1690.0	6.3e-05	146.17200017
1690.0	6.3e-05	146.203000069
1690.0	6.3e-05	146.25
1690.0	6.3e-05	146.29700017
1690.0	6.3e-05	146.328000069
1690.0	6.3e-05	146.375
1700.0	5.88e-05	146.656000137
1700.0	5.75e-05	146.703000069
1700.0	5.63e-05	146.75
1700.0	5.53e-05	146.781000137
1700.0	5.45e-05	146.828000069
1700.0	5.4e-05	146.860000134
1700.0	5.33e-05	146.906000137
1700.0	5.3e-05	146.953000069
1700.0	5.28e-05	146.985000134
1700.0	5.25e-05	147.031000137
1700.0	5.25e-05	147.078000069
1700.0	5.28e-05	147.110000134
1700.0	5.28e-05	147.156000137
1700.0	5.25e-05	147.203000069
1700.0	5.25e-05	147.235000134
1700.0	5.25e-05	147.281000137
1700.0	5.25e-05	147.313000202
1700.0	5.2e-05	147.360000134
1700.0	5.18e-05	147.406000137
1700.0	5.18e-05	147.438000202
1700.0	5.18e-05	147.485000134
1700.0	5.18e-05	147.531000137
1700.0	5.2e-05	147.563000202
1700.0	5.25e-05	147.610000134
1700.0	5.25e-05	147.656000137
1700.0	5.2e-05	147.688000202
1700.0	5.2e-05	147.735000134
1700.0	5.2e-05	147.781000137
1700.0	5.25e-05	147.813000202
1700.0	5.25e-05	147.860000134
1700.0	5.25e-05	147.891000032
1700.0	5.2e-05	147.938000202
1700.0	5.18e-05	147.985000134
1700.0	5.15e-05	148.016000032
1700.0	5.18e-05	148.063000202
1700.0	5.18e-05	148.110000134
1700.0	5.15e-05	148.141000032
1710.0	4.8e-05	148.438000202
1710.0	4.7e-05	148.469000101
1710.0	4.65e-05	148.516000032
1710.0	4.55e-05	148.563000202
1710.0	4.53e-05	148.594000101
1710.0	4.45e-05	148.641000032
1710.0	4.43e-05	148.67200017
1710.0	4.4e-05	148.719000101
1710.0	4.4e-05	148.766000032
1710.0	4.38e-05	148.79700017
1710.0	4.38e-05	148.844000101
1710.0	4.38e-05	148.891000032
1710.0	4.38e-05	148.92200017
1710.0	4.38e-05	148.969000101
1710.0	4.33e-05	149.0
1710.0	4.33e-05	149.04700017
1710.0	4.33e-05	149.094000101
1710.0	4.33e-05	149.125
1710.0	4.33e-05	149.17200017
1710.0	4.33e-05	149.219000101
1710.0	4.38e-05	149.25
1710.0	4.4e-05	149.29700017
1710.0	4.4e-05	149.328000069
1710.0	4.4e-05	149.375
1710.0	4.4e-05	149.42200017
1710.0	4.43e-05	149.469000101
1710.0	4.45e-05	149.5
1710.0	4.43e-05	149.54700017
1710.0	4.43e-05	149.578000069
1710.0	4.43e-05	149.625
1710.0	4.43e-05	149.67200017
1710.0	4.43e-05	149.703000069
1710.0	4.4e-05	149.75
1710.0	4.38e-05	149.79700017
1710.0	4.38e-05	149.828000069
1710.0	4.38e-05	149.875
1710.0	4.38e-05	149.92200017
1720.0	4.28e-05	150.203000069
1720.0	4.2e-05	150.25
1720.0	4.2e-05	150.281000137
1720.0	4.15e-05	150.328000069
1720.0	4.13e-05	150.360000134
1720.0	4.13e-05	150.406000137
1720.0	4.08e-05	150.453000069
1720.0	4.08e-05	150.485000134
1720.0	4.05e-05	150.531000137
1720.0	4.03e-05	150.578000069
1720.0	4e-05	150.610000134
1720.0	3.95e-05	150.656000137
1720.0	3.95e-05	150.688000202
1720.0	3.95e-05	150.735000134
1720.0	3.95e-05	150.781000137
1720.0	3.95e-05	150.813000202
1720.0	3.95e-05	150.860000134
1720.0	3.95e-05	150.906000137
1720.0	3.93e-05	150.938000202
1720.0	3.9e-05	150.985000134
1720.0	3.9e-05	151.031000137
1720.0	3.93e-05	151.063000202
1720.0	3.95e-05	151.110000134
1720.0	4e-05	151.141000032
1720.0	4.03e-05	151.188000202
1720.0	4.03e-05	151.235000134
1720.0	4e-05	151.266000032
1720.0	3.95e-05	151.313000202
1720.0	3.95e-05	151.360000134
1720.0	3.93e-05	151.391000032
1720.0	3.93e-05	151.438000202
1720.0	3.93e-05	151.469000101
1720.0	3.93e-05	151.516000032
1720.0	3.93e-05	151.563000202
1720.0	3.93e-05	151.610000134
1720.0	3.93e-05	151.641000032
1720.0	3.9e-05	151.688000202
1730.0	3.7e-05	151.969000101
1730.0	3.68e-05	152.016000032
1730.0	3.68e-05	152.063000202
1730.0	3.65e-05	152.094000101
1730.0	3.63e-05	152.141000032
1730.0	3.63e-05	152.17200017
1730.0	3.63e-05	152.219000101
1730.0	3.65e-05	152.266000032
1730.0	3.65e-05	152.29700017
1730.0	3.65e-05	152.344000101
1730.0	3.65e-05	152.391000032
1730.0	3.65e-05	152.42200017
1730.0	3.65e-05	152.469000101
1730.0	3.65e-05	152.5
1730.0	3.63e-05	152.54700017
1730.0	3.63e-05	152.594000101
1730.0	3.65e-05	152.625
1730.0	3.63e-05	152.67200017
1730.0	3.63e-05	152.719000101
1730.0	3.63e-05	152.75
1730.0	3.65e-05	152.79700017
1730.0	3.68e-05	152.828000069
1730.0	3.68e-05	152.875
1730.0	3.68e-05	152.92200017
1730.0	3.68e-05	152.953000069
1730.0	3.68e-05	153.0
1730.0	3.68e-05	153.04700017
1730.0	3.68e-05	153.078000069
1730.0	3.65e-05	153.125
1730.0	3.65e-05	153.156000137
1730.0	3.65e-05	153.203000069
1730.0	3.65e-05	153.25
1730.0	3.65e-05	153.281000137
1730.0	3.65e-05	153.328000069
1730.0	3.68e-05	153.375
1730.0	3.68e-05	153.406000137
1730.0	3.68e-05	153.453000069
1740.0	3.78e-05	153.75
1740.0	3.7e-05	153.781000137
1740.0	3.7e-05	153.828000069
1740.0	3.68e-05	153.860000134
1740.0	3.63e-05	153.906000137
1740.0	3.63e-05	153.953000069
1740.0	3.58e-05	153.985000134
1740.0	3.63e-05	154.031000137
1740.0	3.63e-05	154.078000069
1740.0	3.63e-05	154.110000134
1740.0	3.63e-05	154.156000137
1740.0	3.65e-05	154.188000202
1740.0	3.65e-05	154.235000134
1740.0	3.65e-05	154.281000137
1740.0	3.63e-05	154.313000202
1740.0	3.65e-05	154.360000134
1740.0	3.63e-05	154.406000137
1740.0	3.65e-05	154.438000202
1740.0	3.65e-05	154.485000134
1740.0	3.65e-05	154.516000032
1740.0	3.65e-05	154.563000202
1740.0	3.68e-05	154.610000134
1740.0	3.68e-05	154.641000032
1740.0	3.65e-05	154.688000202
1740.0	3.65e-05	154.735000134
1740.0	3.65e-05	154.766000032
1740.0	3.65e-05	154.813000202
1740.0	3.65e-05	154.860000134
1740.0	3.65e-05	154.891000032
1740.0	3.63e-05	154.938000202
1740.0	3.63e-05	154.985000134
1740.0	3.63e-05	155.016000032
1740.0	3.63e-05	155.063000202
1740.0	3.63e-05	155.110000134
1740.0	3.63e-05	155.141000032
1740.0	3.58e-05	155.188000202
1740.0	3.58e-05	155.219000101
1750.0	3.5e-05	155.516000032
1750.0	3.45e-05	155.563000202
1750.0	3.45e-05	155.610000134
1750.0	3.5e-05	155.641000032
1750.0	3.53e-05	155.688000202
1750.0	3.53e-05	155.735000134
1750.0	3.55e-05	155.766000032
1750.0	3.58e-05	155.813000202
1750.0	3.58e-05	155.844000101
1750.0	3.58e-05	155.891000032
1750.0	3.58e-05	155.938000202
1750.0	3.55e-05	155.969000101
1750.0	3.55e-05	156.016000032
1750.0	3.53e-05	156.063000202
1750.0	3.5e-05	156.094000101
1750.0	3.45e-05	156.141000032
1750.0	3.43e-05	156.17200017
1750.0	3.43e-05	156.219000101
1750.0	3.45e-05	156.266000032
1750.0	3.5e-05	156.29700017
1750.0	3.53e-05	156.344000101
1750.0	3.55e-05	156.391000032
1750.0	3.55e-05	156.42200017
1750.0	3.55e-05	156.469000101
1750.0	3.53e-05	156.5
1750.0	3.53e-05	156.54700017
1750.0	3.53e-05	156.594000101
1750.0	3.53e-05	156.625
1750.0	3.53e-05	156.67200017
1750.0	3.53e-05	156.719000101
1750.0	3.53e-05	156.75
1750.0	3.55e-05	156.79700017
1750.0	3.63e-05	156.828000069
1750.0	3.65e-05	156.875
1750.0	3.65e-05	156.92200017
1750.0	3.65e-05	156.953000069
1750.0	3.65e-05	157.0
1760.0	3.55e-05	157.29700017
1760.0	3.5e-05	157.344000101
1760.0	3.53e-05	157.391000032
1760.0	3.53e-05	157.42200017
1760.0	3.55e-05	157.469000101
1760.0	3.53e-05	157.516000032
1760.0	3.53e-05	157.54700017
1760.0	3.53e-05	157.594000101
1760.0	3.5e-05	157.625
1760.0	3.45e-05	157.67200017
1760.0	3.45e-05	157.719000101
1760.0	3.43e-05	157.75
1760.0	3.4e-05	157.79700017
1760.0	3.38e-05	157.844000101
1760.0	3.38e-05	157.875
1760.0	3.4e-05	157.92200017
1760.0	3.43e-05	157.953000069
1760.0	3.43e-05	158.0
1760.0	3.43e-05	158.04700017
1760.0	3.43e-05	158.078000069
1760.0	3.5e-05	158.125
1760.0	3.5e-05	158.17200017
1760.0	3.5e-05	158.203000069
1760.0	3.53e-05	158.25
1760.0	3.5e-05	158.281000137
1760.0	3.53e-05	158.328000069
1760.0	3.53e-05	158.375
1760.0	3.53e-05	158.406000137
1760.0	3.5e-05	158.453000069
1760.0	3.5e-05	158.5
1760.0	3.45e-05	158.531000137
1760.0	3.45e-05	158.578000069
1760.0	3.5e-05	158.625
1760.0	3.5e-05	158.656000137
1760.0	3.45e-05	158.703000069
1760.0	3.4e-05	158.735000134
1760.0	3.4e-05	158.781000137
1770.0	3.33e-05	159.078000069
1770.0	3.3e-05	159.125
1770.0	3.28e-05	159.17200017
1770.0	3.2e-05	159.203000069
1770.0	3.18e-05	159.25
1770.0	3.18e-05	159.29700017
1770.0	3.15e-05	159.328000069
1770.0	3.15e-05	159.375
1770.0	3.15e-05	159.42200017
1770.0	3.18e-05	159.453000069
1770.0	3.18e-05	159.5
1770.0	3.18e-05	159.531000137
1770.0	3.15e-05	159.578000069
1770.0	3.15e-05	159.625
1770.0	3.15e-05	159.656000137
1770.0	3.18e-05	159.703000069
1770.0	3.18e-05	159.75
1770.0	3.2e-05	159.781000137
1770.0	3.2e-05	159.828000069
1770.0	3.25e-05	159.860000134
1770.0	3.25e-05	159.906000137
1770.0	3.25e-05	159.953000069
1770.0	3.25e-05	159.985000134
1770.0	3.28e-05	160.031000137
1770.0	3.28e-05	160.094000101
1770.0	3.25e-05	160.141000032
1770.0	3.25e-05	160.17200017
1770.0	3.28e-05	160.219000101
1770.0	3.28e-05	160.266000032
1770.0	3.3e-05	160.29700017
1770.0	3.3e-05	160.344000101
1770.0	3.3e-05	160.391000032
1770.0	3.38e-05	160.42200017
1770.0	3.38e-05	160.469000101
1770.0	3.38e-05	160.5
1770.0	3.4e-05	160.54700017
1780.0	3.25e-05	160.860000134
1780.0	3.18e-05	160.891000032
1780.0	3.18e-05	160.938000202
1780.0	3.15e-05	160.969000101
1780.0	3.15e-05	161.016000032
1780.0	3.15e-05	161.063000202
1780.0	3.15e-05	161.094000101
1780.0	3.18e-05	161.141000032
1780.0	3.18e-05	161.188000202
1780.0	3.18e-05	161.219000101
1780.0	3.15e-05	161.266000032
1780.0	3.15e-05	161.29700017
1780.0	3.13e-05	161.344000101
1780.0	3.13e-05	161.391000032
1780.0	3.08e-05	161.42200017
1780.0	3.08e-05	161.469000101
1780.0	3.08e-05	161.516000032
1780.0	3.13e-05	161.563000202
1780.0	3.13e-05	161.594000101
1780.0	3.13e-05	161.641000032
1780.0	3.13e-05	161.67200017
1780.0	3.13e-05	161.719000101
1780.0	3.13e-05	161.766000032
1780.0	3.13e-05	161.79700017
1780.0	3.08e-05	161.844000101
1780.0	3.05e-05	161.891000032
1780.0	3.05e-05	161.92200017
1780.0	3.05e-05	161.969000101
1780.0	3.05e-05	162.0
1780.0	3.03e-05	162.04700017
1780.0	3.03e-05	162.094000101
1780.0	3.05e-05	162.125
1780.0	3.05e-05	162.17200017
1780.0	3.03e-05	162.219000101
1780.0	3.03e-05	162.25
1780.0	3.05e-05	162.29700017
1780.0	3.03e-05	162.328000069
1790.0	2.88e-05	162.641000032
1790.0	2.88e-05	162.688000202
1790.0	2.88e-05	162.735000134
1790.0	2.88e-05	162.781000137
1790.0	2.83e-05	162.813000202
1790.0	2.83e-05	162.860000134
1790.0	2.8e-05	162.891000032
1790.0	2.78e-05	162.938000202
1790.0	2.75e-05	162.985000134
1790.0	2.78e-05	163.016000032
1790.0	2.75e-05	163.063000202
1790.0	2.75e-05	163.110000134
1790.0	2.78e-05	163.141000032
1790.0	2.78e-05	163.188000202
1790.0	2.78e-05	163.235000134
1790.0	2.78e-05	163.266000032
1790.0	2.78e-05	163.313000202
1790.0	2.78e-05	163.344000101
1790.0	2.78e-05	163.391000032
1790.0	2.8e-05	163.438000202
1790.0	2.8e-05	163.469000101
1790.0	2.78e-05	163.516000032
1790.0	2.78e-05	163.563000202
1790.0	2.75e-05	163.594000101
1790.0	2.78e-05	163.641000032
1790.0	2.8e-05	163.67200017
1790.0	2.8e-05	163.719000101
1790.0	2.83e-05	163.766000032
1790.0	2.83e-05	163.79700017
1790.0	2.83e-05	163.844000101
1790.0	2.88e-05	163.891000032
1790.0	2.88e-05	163.92200017
1790.0	2.88e-05	163.969000101
1790.0	2.9e-05	164.0
1790.0	2.9e-05	164.04700017
1790.0	2.9e-05	164.094000101
1790.0	2.93e-05	164.125
1800.0	2.83e-05	164.42200017
1800.0	2.78e-05	164.469000101
1800.0	2.75e-05	164.516000032
1800.0	2.75e-05	164.54700017
1800.0	2.7e-05	164.594000101
1800.0	2.68e-05	164.641000032
1800.0	2.68e-05	164.67200017
1800.0	2.65e-05	164.719000101
1800.0	2.65e-05	164.766000032
1800.0	2.63e-05	164.79700017
1800.0	2.65e-05	164.844000101
1800.0	2.65e-05	164.875
1800.0	2.63e-05	164.92200017
1800.0	2.65e-05	164.969000101
1800.0	2.65e-05	165.0
1800.0	2.65e-05	165.04700017
1800.0	2.68e-05	165.094000101
1800.0	2.68e-05	165.125
1800.0	2.68e-05	165.17200017
1800.0	2.68e-05	165.203000069
1800.0	2.68e-05	165.25
1800.0	2.65e-05	165.29700017
1800.0	2.68e-05	165.328000069
1800.0	2.68e-05	165.375
1800.0	2.7e-05	165.42200017
1800.0	2.75e-05	165.453000069
1800.0	2.75e-05	165.5
1800.0	2.7e-05	165.531000137
1800.0	2.68e-05	165.578000069
1800.0	2.65e-05	165.625
1800.0	2.63e-05	165.656000137
1800.0	2.58e-05	165.703000069
1800.0	2.63e-05	165.75
1800.0	2.63e-05	165.781000137
1800.0	2.63e-05	165.828000069
1800.0	2.63e-05	165.875
1800.0	2.58e-05	165.906000137
