Your edit line - do NOT delete this line
Wavelength [nm], Voltage [V], Elapsed time [s]
800.0	6.35e-05	16.0
800.0	6.31e-05	16.0320000648
800.0	6.27e-05	16.0789999962
800.0	6.26e-05	16.1100001335
800.0	6.2e-05	16.1410000324
800.0	6.15e-05	16.1879999638
800.0	6.12e-05	16.2190001011
800.0	6.1e-05	16.25
800.0	6.12e-05	16.2969999313
800.0	6.13e-05	16.3289999962
800.0	6.13e-05	16.375
800.0	6.12e-05	16.4070000648
800.0	6.13e-05	16.4379999638
800.0	6.13e-05	16.4850001335
800.0	6.16e-05	16.5160000324
800.0	6.15e-05	16.5469999313
800.0	6.12e-05	16.5940001011
800.0	6.12e-05	16.625
800.0	6.1e-05	16.6570000648
800.0	6.08e-05	16.7039999962
800.0	6.06e-05	16.7350001335
800.0	6.03e-05	16.7820000648
800.0	6.07e-05	16.8129999638
800.0	6.1e-05	16.8440001011
800.0	6.1e-05	16.8910000324
800.0	6.13e-05	16.9219999313
800.0	6.13e-05	16.9539999962
800.0	6.15e-05	17.0
800.0	6.16e-05	17.0320000648
800.0	6.13e-05	17.0629999638
800.0	6.12e-05	17.1100001335
800.0	6.12e-05	17.1410000324
800.0	6.1e-05	17.1879999638
800.0	6.07e-05	17.2190001011
800.0	6.06e-05	17.25
800.0	6.06e-05	17.2969999313
800.0	6.06e-05	17.3289999962
800.0	6.07e-05	17.3600001335
800.0	6.08e-05	17.4070000648
800.0	6.12e-05	17.4379999638
800.0	6.1e-05	17.4850001335
810.0	6.26e-05	17.8129999638
810.0	6.31e-05	17.8440001011
810.0	6.35e-05	17.875
810.0	6.35e-05	17.9219999313
810.0	6.37e-05	17.9539999962
810.0	6.38e-05	17.9850001335
810.0	6.38e-05	18.0320000648
810.0	6.38e-05	18.0629999638
810.0	6.38e-05	18.0940001011
810.0	6.43e-05	18.1410000324
810.0	6.46e-05	18.1719999313
810.0	6.5e-05	18.2190001011
810.0	6.51e-05	18.25
810.0	6.52e-05	18.2820000648
810.0	6.56e-05	18.3289999962
810.0	6.57e-05	18.3600001335
810.0	6.57e-05	18.3910000324
810.0	6.58e-05	18.4379999638
810.0	6.58e-05	18.4690001011
810.0	6.6e-05	18.5
810.0	6.62e-05	18.5469999313
810.0	6.65e-05	18.5789999962
810.0	6.62e-05	18.625
810.0	6.58e-05	18.6570000648
810.0	6.56e-05	18.6879999638
810.0	6.52e-05	18.7350001335
810.0	6.46e-05	18.7660000324
810.0	6.43e-05	18.7969999313
810.0	6.43e-05	18.8440001011
810.0	6.43e-05	18.875
810.0	6.43e-05	18.9070000648
810.0	6.43e-05	18.9539999962
810.0	6.46e-05	18.9850001335
810.0	6.45e-05	19.0320000648
810.0	6.41e-05	19.0629999638
810.0	6.38e-05	19.0940001011
810.0	6.41e-05	19.1410000324
810.0	6.43e-05	19.1719999313
810.0	6.47e-05	19.2039999962
810.0	6.52e-05	19.25
810.0	6.56e-05	19.2820000648
820.0	6.65e-05	19.6100001335
820.0	6.75e-05	19.6570000648
820.0	6.82e-05	19.6879999638
820.0	6.88e-05	19.7190001011
820.0	6.96e-05	19.7660000324
820.0	7.01e-05	19.7969999313
820.0	7.02e-05	19.8289999962
820.0	7.03e-05	19.875
820.0	7.03e-05	19.9070000648
820.0	7.02e-05	19.9379999638
820.0	7.03e-05	19.9850001335
820.0	7.07e-05	20.0160000324
820.0	7.07e-05	20.0629999638
820.0	7.07e-05	20.0940001011
820.0	7.07e-05	20.125
820.0	7.03e-05	20.1719999313
820.0	7.06e-05	20.2039999962
820.0	7.07e-05	20.2350001335
820.0	7.08e-05	20.2820000648
820.0	7.06e-05	20.3129999638
820.0	7.03e-05	20.3600001335
820.0	7.02e-05	20.3910000324
820.0	7.02e-05	20.4219999313
820.0	7.06e-05	20.4690001011
820.0	7.08e-05	20.5
820.0	7.08e-05	20.5320000648
820.0	7.1e-05	20.5789999962
820.0	7.1e-05	20.6100001335
820.0	7.1e-05	20.6410000324
820.0	7.12e-05	20.6879999638
820.0	7.1e-05	20.7190001011
820.0	7.07e-05	20.7660000324
820.0	7.06e-05	20.7969999313
820.0	7.02e-05	20.8289999962
820.0	7.02e-05	20.875
820.0	7.01e-05	20.9070000648
820.0	7.02e-05	20.9379999638
820.0	7.03e-05	20.9850001335
820.0	7.06e-05	21.0160000324
820.0	7.06e-05	21.0469999313
820.0	7.08e-05	21.0940001011
830.0	7.35e-05	21.4070000648
830.0	7.45e-05	21.4539999962
830.0	7.47e-05	21.4850001335
830.0	7.51e-05	21.5160000324
830.0	7.52e-05	21.5629999638
830.0	7.51e-05	21.5940001011
830.0	7.52e-05	21.625
830.0	7.53e-05	21.6719999313
830.0	7.58e-05	21.7039999962
830.0	7.6e-05	21.75
830.0	7.65e-05	21.7820000648
830.0	7.68e-05	21.8129999638
830.0	7.7e-05	21.8600001335
830.0	7.71e-05	21.8910000324
830.0	7.71e-05	21.9219999313
830.0	7.71e-05	21.9690001011
830.0	7.68e-05	22.0
830.0	7.7e-05	22.0469999313
830.0	7.68e-05	22.0789999962
830.0	7.66e-05	22.1100001335
830.0	7.66e-05	22.1570000648
830.0	7.68e-05	22.1879999638
830.0	7.68e-05	22.2190001011
830.0	7.68e-05	22.2660000324
830.0	7.72e-05	22.2969999313
830.0	7.75e-05	22.3289999962
830.0	7.77e-05	22.375
830.0	7.77e-05	22.4070000648
830.0	7.72e-05	22.4539999962
830.0	7.75e-05	22.4850001335
830.0	7.75e-05	22.5160000324
830.0	7.72e-05	22.5629999638
830.0	7.71e-05	22.5940001011
830.0	7.71e-05	22.625
830.0	7.71e-05	22.6719999313
830.0	7.68e-05	22.7039999962
830.0	7.68e-05	22.7350001335
830.0	7.66e-05	22.7820000648
830.0	7.68e-05	22.8129999638
830.0	7.7e-05	22.8600001335
830.0	7.7e-05	22.8910000324
840.0	7.9e-05	23.2039999962
840.0	7.97e-05	23.25
840.0	8.07e-05	23.2820000648
840.0	8.15e-05	23.3289999962
840.0	8.21e-05	23.3600001335
840.0	8.27e-05	23.3910000324
840.0	8.32e-05	23.4379999638
840.0	8.35e-05	23.4690001011
840.0	8.38e-05	23.5
840.0	8.37e-05	23.5469999313
840.0	8.37e-05	23.5789999962
840.0	8.35e-05	23.6100001335
840.0	8.33e-05	23.6570000648
840.0	8.31e-05	23.6879999638
840.0	8.27e-05	23.7350001335
840.0	8.25e-05	23.7660000324
840.0	8.22e-05	23.7969999313
840.0	8.22e-05	23.8440001011
840.0	8.25e-05	23.875
840.0	8.27e-05	23.9070000648
840.0	8.26e-05	23.9539999962
840.0	8.21e-05	23.9850001335
840.0	8.21e-05	24.0320000648
840.0	8.25e-05	24.0629999638
840.0	8.31e-05	24.0940001011
840.0	8.33e-05	24.1410000324
840.0	8.37e-05	24.1719999313
840.0	8.35e-05	24.2039999962
840.0	8.37e-05	24.25
840.0	8.4e-05	24.2820000648
840.0	8.43e-05	24.3129999638
840.0	8.43e-05	24.3600001335
840.0	8.41e-05	24.3910000324
840.0	8.4e-05	24.4379999638
840.0	8.4e-05	24.4690001011
840.0	8.38e-05	24.5
840.0	8.35e-05	24.5469999313
840.0	8.37e-05	24.5789999962
840.0	8.35e-05	24.6100001335
840.0	8.31e-05	24.6570000648
840.0	8.28e-05	24.6879999638
850.0	8.7e-05	25.0
850.0	8.78e-05	25.0320000648
850.0	8.87e-05	25.0789999962
850.0	8.93e-05	25.1100001335
850.0	8.95e-05	25.1570000648
850.0	8.96e-05	25.1879999638
850.0	9e-05	25.2190001011
850.0	9.02e-05	25.2660000324
850.0	9.03e-05	25.2969999313
850.0	9.06e-05	25.3289999962
850.0	9.07e-05	25.375
850.0	9.08e-05	25.4070000648
850.0	9.12e-05	25.4379999638
850.0	9.15e-05	25.4850001335
850.0	9.13e-05	25.5160000324
850.0	9.12e-05	25.5629999638
850.0	9.08e-05	25.5940001011
850.0	9.07e-05	25.625
850.0	9.06e-05	25.6719999313
850.0	9.06e-05	25.7039999962
850.0	9.1e-05	25.7350001335
850.0	9.13e-05	25.7820000648
850.0	9.13e-05	25.8129999638
850.0	9.1e-05	25.8440001011
850.0	9.08e-05	25.8910000324
850.0	9.1e-05	25.9219999313
850.0	9.13e-05	25.9690001011
850.0	9.1e-05	26.0
850.0	9.12e-05	26.0320000648
850.0	9.12e-05	26.0789999962
850.0	9.15e-05	26.1100001335
850.0	9.21e-05	26.1410000324
850.0	9.26e-05	26.1879999638
850.0	9.27e-05	26.2190001011
850.0	9.27e-05	26.25
850.0	9.31e-05	26.2969999313
850.0	9.32e-05	26.3289999962
850.0	9.33e-05	26.375
850.0	9.32e-05	26.4070000648
850.0	9.31e-05	26.4379999638
850.0	9.28e-05	26.4850001335
860.0	9.77e-05	26.7969999313
860.0	9.88e-05	26.8289999962
860.0	9.96e-05	26.8600001335
860.0	0.0001001	26.9070000648
860.0	0.0001006	26.9539999962
860.0	0.0001007	26.9850001335
860.0	0.000101	27.0320000648
860.0	0.0001012	27.0789999962
860.0	0.0001013	27.1100001335
860.0	0.0001015	27.1570000648
860.0	0.0001016	27.1879999638
860.0	0.0001016	27.2350001335
860.0	0.000102	27.2820000648
860.0	0.0001021	27.3129999638
860.0	0.0001021	27.3600001335
860.0	0.0001022	27.4070000648
860.0	0.0001021	27.4379999638
860.0	0.0001021	27.4850001335
860.0	0.0001021	27.5160000324
860.0	0.0001022	27.5629999638
860.0	0.0001021	27.6100001335
860.0	0.0001021	27.6410000324
860.0	0.0001022	27.6879999638
860.0	0.0001018	27.7350001335
860.0	0.0001015	27.7660000324
860.0	0.0001015	27.8129999638
860.0	0.0001013	27.8600001335
860.0	0.0001013	27.8910000324
860.0	0.0001015	27.9379999638
860.0	0.0001016	27.9690001011
860.0	0.0001015	28.0160000324
860.0	0.0001015	28.0629999638
860.0	0.0001016	28.0940001011
860.0	0.0001018	28.1410000324
860.0	0.0001022	28.1879999638
860.0	0.0001028	28.2190001011
860.0	0.0001027	28.2660000324
870.0	0.0001068	28.5789999962
870.0	0.0001083	28.6100001335
870.0	0.0001101	28.6570000648
870.0	0.0001115	28.7039999962
870.0	0.0001121	28.7350001335
870.0	0.0001127	28.7820000648
870.0	0.0001132	28.8289999962
870.0	0.0001133	28.8600001335
870.0	0.0001135	28.9070000648
870.0	0.0001137	28.9379999638
870.0	0.0001138	28.9850001335
870.0	0.0001137	29.0320000648
870.0	0.0001137	29.0629999638
870.0	0.0001133	29.1100001335
870.0	0.0001133	29.1570000648
870.0	0.0001137	29.1879999638
870.0	0.000114	29.2350001335
870.0	0.000114	29.2660000324
870.0	0.0001138	29.3129999638
870.0	0.0001138	29.3600001335
870.0	0.0001138	29.3910000324
870.0	0.0001137	29.4379999638
870.0	0.0001137	29.4850001335
870.0	0.0001135	29.5160000324
870.0	0.0001133	29.5629999638
870.0	0.0001128	29.5940001011
870.0	0.0001127	29.6410000324
870.0	0.0001131	29.6879999638
870.0	0.0001137	29.7190001011
870.0	0.000114	29.7660000324
870.0	0.0001138	29.8129999638
870.0	0.0001141	29.8440001011
870.0	0.0001145	29.8910000324
870.0	0.0001143	29.9379999638
870.0	0.0001145	29.9690001011
870.0	0.0001147	30.0160000324
870.0	0.0001147	30.0469999313
880.0	0.0001181	30.3600001335
880.0	0.0001195	30.4070000648
880.0	0.0001212	30.4379999638
880.0	0.0001225	30.4850001335
880.0	0.0001233	30.5320000648
880.0	0.0001243	30.5629999638
880.0	0.0001253	30.6100001335
880.0	0.0001256	30.6410000324
880.0	0.0001257	30.6879999638
880.0	0.0001258	30.7350001335
880.0	0.0001253	30.7660000324
880.0	0.0001253	30.8129999638
880.0	0.0001258	30.8600001335
880.0	0.0001262	30.8910000324
880.0	0.0001262	30.9379999638
880.0	0.000126	30.9850001335
880.0	0.0001263	31.0160000324
880.0	0.0001263	31.0629999638
880.0	0.000126	31.0940001011
880.0	0.0001257	31.1410000324
880.0	0.0001253	31.1879999638
880.0	0.0001256	31.2190001011
880.0	0.0001258	31.2660000324
880.0	0.0001258	31.3129999638
880.0	0.0001258	31.3440001011
880.0	0.0001262	31.3910000324
880.0	0.0001265	31.4219999313
880.0	0.0001268	31.4690001011
880.0	0.0001272	31.5160000324
880.0	0.0001272	31.5469999313
880.0	0.000127	31.5940001011
880.0	0.0001268	31.6410000324
880.0	0.0001266	31.6719999313
880.0	0.0001262	31.7190001011
880.0	0.0001258	31.75
880.0	0.0001253	31.7969999313
880.0	0.0001252	31.8440001011
890.0	0.0001325	32.1410000324
890.0	0.0001338	32.1879999638
890.0	0.0001351	32.2350001335
890.0	0.0001362	32.2660000324
890.0	0.000137	32.3129999638
890.0	0.0001381	32.3600001335
890.0	0.0001387	32.3910000324
890.0	0.0001387	32.4379999638
890.0	0.0001388	32.4850001335
890.0	0.000139	32.5160000324
890.0	0.0001393	32.5629999638
890.0	0.0001393	32.5940001011
890.0	0.0001393	32.6410000324
890.0	0.0001397	32.6879999638
890.0	0.0001403	32.7190001011
890.0	0.0001408	32.7660000324
890.0	0.0001412	32.8129999638
890.0	0.0001413	32.8440001011
890.0	0.0001413	32.8910000324
890.0	0.0001413	32.9219999313
890.0	0.0001407	32.9690001011
890.0	0.0001402	33.0160000324
890.0	0.00014	33.0469999313
890.0	0.0001401	33.0940001011
890.0	0.00014	33.1410000324
890.0	0.0001402	33.1719999313
890.0	0.0001401	33.2190001011
890.0	0.0001393	33.25
890.0	0.000139	33.2969999313
890.0	0.0001388	33.3440001011
890.0	0.0001387	33.375
890.0	0.000139	33.4219999313
890.0	0.0001393	33.4690001011
890.0	0.0001395	33.5
890.0	0.0001396	33.5469999313
890.0	0.0001397	33.5789999962
890.0	0.00014	33.625
900.0	0.0001468	33.9379999638
900.0	0.000149	33.9690001011
900.0	0.0001508	34.0160000324
900.0	0.0001531	34.0629999638
900.0	0.0001543	34.0940001011
900.0	0.0001552	34.1410000324
900.0	0.000156	34.1879999638
900.0	0.0001565	34.2190001011
900.0	0.0001565	34.2660000324
900.0	0.000157	34.2969999313
900.0	0.0001572	34.3440001011
900.0	0.0001577	34.3910000324
900.0	0.0001577	34.4219999313
900.0	0.0001578	34.4690001011
900.0	0.0001578	34.5160000324
900.0	0.0001578	34.5469999313
900.0	0.0001577	34.5940001011
900.0	0.0001577	34.625
900.0	0.0001578	34.6719999313
900.0	0.0001581	34.7190001011
900.0	0.0001582	34.75
900.0	0.0001582	34.7969999313
900.0	0.0001583	34.8440001011
900.0	0.0001582	34.875
900.0	0.0001578	34.9219999313
900.0	0.0001577	34.9539999962
900.0	0.0001577	35.0
900.0	0.0001576	35.0469999313
900.0	0.0001576	35.0789999962
900.0	0.0001575	35.125
900.0	0.0001572	35.1719999313
900.0	0.0001571	35.2039999962
900.0	0.0001572	35.25
900.0	0.0001572	35.2969999313
900.0	0.0001571	35.3289999962
900.0	0.0001571	35.375
900.0	0.000157	35.4070000648
910.0	0.0001647	35.7190001011
910.0	0.0001666	35.7660000324
910.0	0.0001678	35.7969999313
910.0	0.0001693	35.8440001011
910.0	0.0001707	35.8910000324
910.0	0.0001718	35.9219999313
910.0	0.0001726	35.9690001011
910.0	0.0001733	36.0160000324
910.0	0.000174	36.0469999313
910.0	0.0001745	36.0940001011
910.0	0.000175	36.125
910.0	0.0001751	36.1719999313
910.0	0.0001753	36.2190001011
910.0	0.0001753	36.25
910.0	0.0001752	36.2969999313
910.0	0.0001751	36.3440001011
910.0	0.0001751	36.375
910.0	0.0001751	36.4219999313
910.0	0.000175	36.4539999962
910.0	0.000175	36.5
910.0	0.0001747	36.5469999313
910.0	0.0001746	36.5789999962
910.0	0.0001746	36.625
910.0	0.0001746	36.6719999313
910.0	0.0001743	36.7039999962
910.0	0.0001743	36.75
910.0	0.0001743	36.7820000648
910.0	0.0001745	36.8289999962
910.0	0.000175	36.875
910.0	0.0001753	36.9070000648
910.0	0.0001756	36.9539999962
910.0	0.0001757	37.0
910.0	0.0001758	37.0320000648
910.0	0.0001762	37.0789999962
910.0	0.0001763	37.1100001335
910.0	0.0001766	37.1570000648
910.0	0.0001766	37.2039999962
920.0	0.0001825	37.5
920.0	0.0001852	37.5469999313
920.0	0.0001875	37.5789999962
920.0	0.0001893	37.625
920.0	0.0001907	37.6719999313
920.0	0.0001913	37.7039999962
920.0	0.000192	37.75
920.0	0.0001931	37.7969999313
920.0	0.0001938	37.8289999962
920.0	0.0001941	37.875
920.0	0.0001945	37.9070000648
920.0	0.0001945	37.9539999962
920.0	0.0001945	38.0
920.0	0.0001943	38.0320000648
920.0	0.0001943	38.0789999962
920.0	0.0001941	38.125
920.0	0.000194	38.1570000648
920.0	0.000194	38.2039999962
920.0	0.000194	38.25
920.0	0.0001943	38.2820000648
920.0	0.0001945	38.3289999962
920.0	0.0001943	38.3600001335
920.0	0.0001943	38.4070000648
920.0	0.0001945	38.4539999962
920.0	0.0001941	38.4850001335
920.0	0.000194	38.5320000648
920.0	0.0001937	38.5789999962
920.0	0.0001937	38.6100001335
920.0	0.0001938	38.6570000648
920.0	0.0001938	38.6879999638
920.0	0.000194	38.7350001335
920.0	0.000194	38.7820000648
920.0	0.0001943	38.8129999638
920.0	0.0001941	38.8600001335
920.0	0.000194	38.9070000648
920.0	0.0001941	38.9379999638
920.0	0.0001943	38.9850001335
930.0	0.0002025	39.2820000648
930.0	0.0002051	39.3289999962
930.0	0.0002075	39.3600001335
930.0	0.0002091	39.4070000648
930.0	0.000211	39.4539999962
930.0	0.0002125	39.4850001335
930.0	0.0002128	39.5320000648
930.0	0.0002131	39.5629999638
930.0	0.0002137	39.6100001335
930.0	0.000214	39.6570000648
930.0	0.0002143	39.6879999638
930.0	0.0002145	39.7350001335
930.0	0.000215	39.7820000648
930.0	0.0002153	39.8129999638
930.0	0.0002153	39.8600001335
930.0	0.0002156	39.8910000324
930.0	0.0002153	39.9379999638
930.0	0.0002153	39.9850001335
930.0	0.0002153	40.0160000324
930.0	0.0002151	40.0629999638
930.0	0.0002151	40.1100001335
930.0	0.0002147	40.1410000324
930.0	0.000215	40.1879999638
930.0	0.0002151	40.2350001335
930.0	0.0002153	40.2660000324
930.0	0.0002153	40.3129999638
930.0	0.0002152	40.3440001011
930.0	0.0002156	40.3910000324
930.0	0.0002157	40.4379999638
930.0	0.0002153	40.4690001011
930.0	0.0002152	40.5160000324
930.0	0.0002152	40.5629999638
930.0	0.000215	40.5940001011
930.0	0.0002151	40.6410000324
930.0	0.0002152	40.6719999313
930.0	0.0002151	40.7190001011
930.0	0.0002147	40.7660000324
940.0	0.0002237	41.0629999638
940.0	0.0002262	41.0940001011
940.0	0.0002287	41.1410000324
940.0	0.000231	41.1879999638
940.0	0.0002325	41.2190001011
940.0	0.0002335	41.2660000324
940.0	0.0002346	41.3129999638
940.0	0.0002351	41.3440001011
940.0	0.0002352	41.3910000324
940.0	0.0002356	41.4379999638
940.0	0.0002358	41.4690001011
940.0	0.000236	41.5160000324
940.0	0.0002363	41.5469999313
940.0	0.0002363	41.5940001011
940.0	0.0002365	41.6410000324
940.0	0.0002366	41.6719999313
940.0	0.0002366	41.7190001011
940.0	0.0002368	41.7660000324
940.0	0.0002366	41.7969999313
940.0	0.0002363	41.8440001011
940.0	0.0002363	41.875
940.0	0.0002368	41.9219999313
940.0	0.0002372	41.9690001011
940.0	0.000237	42.0
940.0	0.0002362	42.0469999313
940.0	0.0002358	42.0940001011
940.0	0.0002358	42.125
940.0	0.0002357	42.1719999313
940.0	0.0002362	42.2039999962
940.0	0.0002363	42.25
940.0	0.0002358	42.2969999313
940.0	0.000236	42.3289999962
940.0	0.0002362	42.375
940.0	0.0002362	42.4219999313
940.0	0.0002362	42.4539999962
940.0	0.0002362	42.5
940.0	0.0002357	42.5320000648
950.0	0.0002443	42.8289999962
950.0	0.000247	42.875
950.0	0.0002493	42.9070000648
950.0	0.0002513	42.9539999962
950.0	0.0002531	43.0
950.0	0.0002545	43.0320000648
950.0	0.0002553	43.0789999962
950.0	0.0002562	43.125
950.0	0.0002563	43.1570000648
950.0	0.0002563	43.2039999962
950.0	0.0002563	43.2350001335
950.0	0.000256	43.2820000648
950.0	0.0002553	43.3289999962
950.0	0.0002553	43.3600001335
950.0	0.0002558	43.4070000648
950.0	0.0002557	43.4539999962
950.0	0.0002557	43.4850001335
950.0	0.000256	43.5320000648
950.0	0.0002558	43.5629999638
950.0	0.0002557	43.6100001335
950.0	0.000256	43.6570000648
950.0	0.0002562	43.6879999638
950.0	0.0002563	43.7350001335
950.0	0.0002563	43.7820000648
950.0	0.0002565	43.8129999638
950.0	0.0002565	43.8600001335
950.0	0.0002568	43.9070000648
950.0	0.0002571	43.9379999638
950.0	0.000257	43.9850001335
950.0	0.0002571	44.0160000324
950.0	0.0002572	44.0629999638
950.0	0.0002572	44.1100001335
950.0	0.0002575	44.1410000324
950.0	0.0002578	44.1879999638
950.0	0.0002577	44.2350001335
950.0	0.0002577	44.2660000324
950.0	0.0002576	44.3129999638
960.0	0.0002645	44.5940001011
960.0	0.0002668	44.625
960.0	0.0002688	44.6719999313
960.0	0.0002707	44.7190001011
960.0	0.0002722	44.75
960.0	0.0002733	44.7969999313
960.0	0.0002743	44.8440001011
960.0	0.000275	44.875
960.0	0.0002756	44.9219999313
960.0	0.0002762	44.9690001011
960.0	0.0002765	45.0
960.0	0.0002765	45.0469999313
960.0	0.0002766	45.0789999962
960.0	0.0002772	45.125
960.0	0.0002775	45.1719999313
960.0	0.0002776	45.2039999962
960.0	0.0002778	45.25
960.0	0.0002781	45.2969999313
960.0	0.0002778	45.3289999962
960.0	0.0002776	45.375
960.0	0.0002772	45.4070000648
960.0	0.0002768	45.4539999962
960.0	0.0002766	45.5
960.0	0.0002765	45.5320000648
960.0	0.0002765	45.5789999962
960.0	0.000277	45.625
960.0	0.0002776	45.6570000648
960.0	0.0002777	45.7039999962
960.0	0.0002777	45.7350001335
960.0	0.0002777	45.7820000648
960.0	0.0002776	45.8289999962
960.0	0.0002772	45.8600001335
960.0	0.000277	45.9070000648
960.0	0.0002768	45.9539999962
960.0	0.0002766	45.9850001335
960.0	0.0002768	46.0320000648
960.0	0.0002771	46.0789999962
970.0	0.000284	46.3440001011
970.0	0.0002858	46.3910000324
970.0	0.0002877	46.4379999638
970.0	0.0002895	46.4690001011
970.0	0.0002915	46.5160000324
970.0	0.0002931	46.5629999638
970.0	0.0002945	46.5940001011
970.0	0.0002952	46.6410000324
970.0	0.0002956	46.6719999313
970.0	0.0002956	46.7190001011
970.0	0.0002958	46.7660000324
970.0	0.000296	46.7969999313
970.0	0.0002962	46.8440001011
970.0	0.0002963	46.8910000324
970.0	0.0002965	46.9219999313
970.0	0.0002965	46.9690001011
970.0	0.0002971	47.0160000324
970.0	0.0002971	47.0469999313
970.0	0.000297	47.0940001011
970.0	0.0002971	47.125
970.0	0.0002976	47.1719999313
970.0	0.0002976	47.2190001011
970.0	0.0002975	47.25
970.0	0.0002976	47.2969999313
970.0	0.0002978	47.3289999962
970.0	0.0002981	47.375
970.0	0.0002983	47.4219999313
970.0	0.0002987	47.4539999962
970.0	0.0002985	47.5
970.0	0.0002983	47.5469999313
970.0	0.0002983	47.5789999962
970.0	0.0002981	47.625
970.0	0.0002983	47.6719999313
970.0	0.0002982	47.7039999962
970.0	0.0002978	47.75
970.0	0.0002976	47.7820000648
970.0	0.0002975	47.8289999962
980.0	0.0003052	48.1100001335
980.0	0.0003076	48.1570000648
980.0	0.0003093	48.1879999638
980.0	0.0003108	48.2350001335
980.0	0.0003121	48.2820000648
980.0	0.0003127	48.3129999638
980.0	0.0003137	48.3600001335
980.0	0.0003143	48.4070000648
980.0	0.0003145	48.4379999638
980.0	0.000315	48.4850001335
980.0	0.0003153	48.5160000324
980.0	0.0003157	48.5629999638
980.0	0.0003162	48.6100001335
980.0	0.0003163	48.6570000648
980.0	0.0003162	48.6879999638
980.0	0.0003165	48.7350001335
980.0	0.0003168	48.7820000648
980.0	0.0003166	48.8129999638
980.0	0.0003168	48.8600001335
980.0	0.0003168	48.8910000324
980.0	0.0003168	48.9379999638
980.0	0.000317	48.9850001335
980.0	0.0003172	49.0160000324
980.0	0.0003171	49.0629999638
980.0	0.0003171	49.1100001335
980.0	0.0003172	49.1410000324
980.0	0.0003171	49.1879999638
980.0	0.0003175	49.2190001011
980.0	0.0003177	49.2660000324
980.0	0.0003172	49.3129999638
980.0	0.0003168	49.3440001011
980.0	0.0003163	49.3910000324
980.0	0.0003163	49.4379999638
980.0	0.000316	49.4690001011
980.0	0.0003158	49.5160000324
980.0	0.0003162	49.5469999313
980.0	0.0003165	49.5940001011
990.0	0.0003237	49.875
990.0	0.0003257	49.9219999313
990.0	0.0003277	49.9539999962
990.0	0.00033	50.0
990.0	0.0003315	50.0320000648
990.0	0.0003327	50.0789999962
990.0	0.0003336	50.125
990.0	0.0003336	50.1570000648
990.0	0.0003337	50.2039999962
990.0	0.0003342	50.25
990.0	0.0003345	50.2820000648
990.0	0.0003345	50.3289999962
990.0	0.0003348	50.3600001335
990.0	0.0003345	50.4070000648
990.0	0.0003342	50.4539999962
990.0	0.0003343	50.4850001335
990.0	0.0003342	50.5320000648
990.0	0.0003337	50.5789999962
990.0	0.0003338	50.6100001335
990.0	0.0003345	50.6570000648
990.0	0.000335	50.7039999962
990.0	0.0003352	50.7350001335
990.0	0.0003355	50.7820000648
990.0	0.0003356	50.8129999638
990.0	0.0003356	50.8600001335
990.0	0.0003355	50.9070000648
990.0	0.0003352	50.9379999638
990.0	0.000335	50.9850001335
990.0	0.0003351	51.0320000648
990.0	0.0003352	51.0629999638
990.0	0.000335	51.1100001335
990.0	0.0003345	51.1410000324
990.0	0.0003343	51.1879999638
990.0	0.0003342	51.2350001335
990.0	0.0003342	51.2660000324
990.0	0.0003342	51.3129999638
990.0	0.0003337	51.3600001335
1000.0	0.0003418	51.625
1000.0	0.000344	51.6719999313
1000.0	0.0003458	51.7190001011
1000.0	0.0003475	51.75
1000.0	0.0003486	51.7969999313
1000.0	0.0003498	51.8440001011
1000.0	0.0003507	51.875
1000.0	0.0003513	51.9219999313
1000.0	0.0003517	51.9539999962
1000.0	0.0003521	52.0
1000.0	0.0003521	52.0469999313
1000.0	0.0003521	52.0789999962
1000.0	0.000352	52.125
1000.0	0.0003526	52.1719999313
1000.0	0.000353	52.2039999962
1000.0	0.0003532	52.25
1000.0	0.0003537	52.2820000648
1000.0	0.0003536	52.3289999962
1000.0	0.0003532	52.375
1000.0	0.0003533	52.4070000648
1000.0	0.0003532	52.4539999962
1000.0	0.0003532	52.5
1000.0	0.0003536	52.5320000648
1000.0	0.0003533	52.5789999962
1000.0	0.0003531	52.625
1000.0	0.0003533	52.6570000648
1000.0	0.0003536	52.7039999962
1000.0	0.0003533	52.7350001335
1000.0	0.0003532	52.7820000648
1000.0	0.0003531	52.8289999962
1000.0	0.0003527	52.8600001335
1000.0	0.0003527	52.9070000648
1000.0	0.0003527	52.9539999962
1000.0	0.0003526	52.9850001335
1000.0	0.000353	53.0320000648
1000.0	0.0003533	53.0629999638
1000.0	0.0003533	53.1100001335
1010.0	0.0003593	53.3910000324
1010.0	0.0003618	53.4379999638
1010.0	0.0003638	53.4690001011
1010.0	0.0003656	53.5160000324
1010.0	0.000367	53.5469999313
1010.0	0.0003683	53.5940001011
1010.0	0.0003696	53.6410000324
1010.0	0.0003702	53.6719999313
1010.0	0.0003708	53.7190001011
1010.0	0.0003712	53.7660000324
1010.0	0.0003713	53.7969999313
1010.0	0.0003713	53.8440001011
1010.0	0.0003711	53.875
1010.0	0.0003708	53.9219999313
1010.0	0.0003707	53.9690001011
1010.0	0.0003707	54.0
1010.0	0.0003711	54.0469999313
1010.0	0.0003712	54.0940001011
1010.0	0.0003713	54.125
1010.0	0.0003713	54.1719999313
1010.0	0.0003711	54.2190001011
1010.0	0.0003708	54.25
1010.0	0.0003711	54.2969999313
1010.0	0.0003713	54.3289999962
1010.0	0.0003717	54.375
1010.0	0.000372	54.4219999313
1010.0	0.0003721	54.4539999962
1010.0	0.0003718	54.5
1010.0	0.0003718	54.5469999313
1010.0	0.0003718	54.5789999962
1010.0	0.0003715	54.625
1010.0	0.0003713	54.6570000648
1010.0	0.0003712	54.7039999962
1010.0	0.0003708	54.75
1010.0	0.0003707	54.7820000648
1010.0	0.0003708	54.8289999962
1010.0	0.0003711	54.875
1020.0	0.0003783	55.1410000324
1020.0	0.0003806	55.1879999638
1020.0	0.000383	55.2350001335
1020.0	0.0003848	55.2660000324
1020.0	0.0003858	55.3129999638
1020.0	0.0003871	55.3600001335
1020.0	0.0003881	55.3910000324
1020.0	0.0003886	55.4379999638
1020.0	0.0003888	55.4850001335
1020.0	0.000389	55.5160000324
1020.0	0.000389	55.5629999638
1020.0	0.000389	55.5940001011
1020.0	0.0003895	55.6410000324
1020.0	0.0003896	55.6879999638
1020.0	0.0003898	55.7190001011
1020.0	0.0003901	55.7660000324
1020.0	0.00039	55.8129999638
1020.0	0.0003896	55.8440001011
1020.0	0.0003896	55.8910000324
1020.0	0.0003898	55.9219999313
1020.0	0.0003898	55.9690001011
1020.0	0.0003895	56.0160000324
1020.0	0.0003893	56.0469999313
1020.0	0.000389	56.0940001011
1020.0	0.000389	56.1410000324
1020.0	0.0003892	56.1719999313
1020.0	0.000389	56.2190001011
1020.0	0.0003892	56.25
1020.0	0.0003898	56.2969999313
1020.0	0.0003898	56.3440001011
1020.0	0.00039	56.375
1020.0	0.0003901	56.4219999313
1020.0	0.0003902	56.4690001011
1020.0	0.00039	56.5
1020.0	0.0003896	56.5469999313
1020.0	0.0003895	56.5789999962
1020.0	0.0003893	56.625
1030.0	0.0003971	56.9070000648
1030.0	0.0003992	56.9539999962
1030.0	0.0004012	56.9850001335
1030.0	0.000403	57.0320000648
1030.0	0.0004042	57.0789999962
1030.0	0.000405	57.1100001335
1030.0	0.0004052	57.1570000648
1030.0	0.0004055	57.2039999962
1030.0	0.0004061	57.2350001335
1030.0	0.0004062	57.2820000648
1030.0	0.0004063	57.3289999962
1030.0	0.0004068	57.3600001335
1030.0	0.0004073	57.4070000648
1030.0	0.0004075	57.4379999638
1030.0	0.0004076	57.4850001335
1030.0	0.0004077	57.5320000648
1030.0	0.0004073	57.5629999638
1030.0	0.0004071	57.6100001335
1030.0	0.0004075	57.6570000648
1030.0	0.0004076	57.6879999638
1030.0	0.0004077	57.7350001335
1030.0	0.000408	57.7660000324
1030.0	0.000408	57.8129999638
1030.0	0.000408	57.8600001335
1030.0	0.0004081	57.8910000324
1030.0	0.0004082	57.9379999638
1030.0	0.0004086	57.9850001335
1030.0	0.0004088	58.0160000324
1030.0	0.0004092	58.0629999638
1030.0	0.0004092	58.0940001011
1030.0	0.0004088	58.1410000324
1030.0	0.0004088	58.1879999638
1030.0	0.0004086	58.2190001011
1030.0	0.0004082	58.2660000324
1030.0	0.000408	58.3129999638
1030.0	0.0004071	58.3440001011
1030.0	0.0004067	58.3910000324
1040.0	0.0004146	58.6719999313
1040.0	0.0004175	58.7190001011
1040.0	0.0004196	58.75
1040.0	0.0004218	58.7969999313
1040.0	0.0004236	58.8289999962
1040.0	0.000425	58.875
1040.0	0.0004258	58.9219999313
1040.0	0.0004262	58.9539999962
1040.0	0.0004265	59.0
1040.0	0.0004265	59.0469999313
1040.0	0.0004267	59.0789999962
1040.0	0.000427	59.125
1040.0	0.0004271	59.1719999313
1040.0	0.0004268	59.2039999962
1040.0	0.000427	59.25
1040.0	0.0004268	59.2820000648
1040.0	0.0004268	59.3289999962
1040.0	0.0004271	59.375
1040.0	0.0004275	59.4070000648
1040.0	0.0004271	59.4539999962
1040.0	0.0004267	59.5
1040.0	0.0004262	59.5320000648
1040.0	0.0004258	59.5789999962
1040.0	0.0004258	59.6100001335
1040.0	0.0004257	59.6570000648
1040.0	0.0004257	59.7039999962
1040.0	0.0004261	59.7350001335
1040.0	0.0004263	59.7820000648
1040.0	0.0004261	59.8289999962
1040.0	0.0004261	59.8600001335
1040.0	0.0004265	59.9070000648
1040.0	0.000427	59.9379999638
1040.0	0.0004267	59.9850001335
1040.0	0.0004261	60.0320000648
1040.0	0.0004258	60.0629999638
1040.0	0.0004257	60.1100001335
1040.0	0.0004257	60.1570000648
1050.0	0.0004337	60.4379999638
1050.0	0.0004368	60.4690001011
1050.0	0.000439	60.5160000324
1050.0	0.0004407	60.5469999313
1050.0	0.000442	60.5940001011
1050.0	0.0004426	60.6410000324
1050.0	0.000443	60.6719999313
1050.0	0.0004436	60.7190001011
1050.0	0.0004438	60.75
1050.0	0.0004438	60.7969999313
1050.0	0.0004443	60.8440001011
1050.0	0.0004451	60.875
1050.0	0.0004452	60.9219999313
1050.0	0.0004452	60.9690001011
1050.0	0.0004452	61.0
1050.0	0.0004452	61.0469999313
1050.0	0.0004451	61.0940001011
1050.0	0.0004452	61.125
1050.0	0.0004455	61.1719999313
1050.0	0.0004457	61.2039999962
1050.0	0.0004458	61.25
1050.0	0.0004462	61.2969999313
1050.0	0.0004463	61.3289999962
1050.0	0.0004465	61.375
1050.0	0.0004463	61.4219999313
1050.0	0.0004462	61.4539999962
1050.0	0.0004462	61.5
1050.0	0.0004461	61.5320000648
1050.0	0.0004456	61.5789999962
1050.0	0.0004452	61.625
1050.0	0.0004455	61.6570000648
1050.0	0.0004451	61.7039999962
1050.0	0.0004448	61.75
1050.0	0.0004452	61.7820000648
1050.0	0.0004457	61.8289999962
1050.0	0.0004462	61.875
1050.0	0.0004465	61.9070000648
1060.0	0.0004538	62.1879999638
1060.0	0.0004563	62.2350001335
1060.0	0.000458	62.2660000324
1060.0	0.000459	62.3129999638
1060.0	0.0004602	62.3600001335
1060.0	0.0004611	62.3910000324
1060.0	0.0004617	62.4379999638
1060.0	0.0004621	62.4690001011
1060.0	0.0004632	62.5160000324
1060.0	0.0004637	62.5629999638
1060.0	0.000464	62.5940001011
1060.0	0.000464	62.6410000324
1060.0	0.0004638	62.6879999638
1060.0	0.0004636	62.7190001011
1060.0	0.0004636	62.7660000324
1060.0	0.0004636	62.7969999313
1060.0	0.0004638	62.8440001011
1060.0	0.000464	62.8910000324
1060.0	0.0004642	62.9219999313
1060.0	0.0004642	62.9690001011
1060.0	0.0004642	63.0160000324
1060.0	0.0004643	63.0469999313
1060.0	0.0004645	63.0940001011
1060.0	0.0004643	63.125
1060.0	0.0004642	63.1719999313
1060.0	0.0004642	63.2190001011
1060.0	0.0004643	63.25
1060.0	0.0004645	63.2969999313
1060.0	0.000465	63.3440001011
1060.0	0.0004651	63.375
1060.0	0.0004651	63.4219999313
1060.0	0.0004652	63.4539999962
1060.0	0.0004651	63.5
1060.0	0.000465	63.5469999313
1060.0	0.0004651	63.5789999962
1060.0	0.0004651	63.625
1060.0	0.0004645	63.6719999313
1070.0	0.00047	63.9539999962
1070.0	0.0004723	63.9850001335
1070.0	0.0004738	64.0320000648
1070.0	0.0004751	64.0629999638
1070.0	0.0004762	64.1100001335
1070.0	0.0004771	64.1570000648
1070.0	0.0004777	64.1879999638
1070.0	0.0004782	64.2350001335
1070.0	0.0004788	64.2820000648
1070.0	0.0004792	64.3129999638
1070.0	0.0004793	64.3600001335
1070.0	0.0004793	64.3910000324
1070.0	0.0004793	64.4379999638
1070.0	0.0004798	64.4850001335
1070.0	0.0004798	64.5160000324
1070.0	0.0004795	64.5629999638
1070.0	0.0004798	64.6100001335
1070.0	0.0004801	64.6410000324
1070.0	0.0004805	64.6879999638
1070.0	0.0004807	64.7190001011
1070.0	0.0004808	64.7660000324
1070.0	0.0004811	64.8129999638
1070.0	0.0004811	64.8440001011
1070.0	0.0004808	64.8910000324
1070.0	0.0004811	64.9379999638
1070.0	0.0004808	64.9690001011
1070.0	0.0004808	65.0160000324
1070.0	0.0004806	65.0629999638
1070.0	0.0004807	65.0940001011
1070.0	0.0004807	65.1410000324
1070.0	0.0004806	65.1719999313
1070.0	0.0004802	65.2190001011
1070.0	0.0004801	65.2660000324
1070.0	0.0004805	65.2969999313
1070.0	0.0004807	65.3440001011
1070.0	0.0004811	65.3910000324
1070.0	0.0004817	65.4219999313
1080.0	0.0004867	65.7039999962
1080.0	0.0004887	65.75
1080.0	0.0004901	65.7820000648
1080.0	0.0004912	65.8289999962
1080.0	0.0004923	65.875
1080.0	0.000493	65.9070000648
1080.0	0.0004933	65.9539999962
1080.0	0.0004942	65.9850001335
1080.0	0.0004946	66.0320000648
1080.0	0.0004948	66.0789999962
1080.0	0.0004951	66.1100001335
1080.0	0.0004952	66.1570000648
1080.0	0.0004955	66.2039999962
1080.0	0.0004955	66.2350001335
1080.0	0.0004955	66.2820000648
1080.0	0.0004952	66.3129999638
1080.0	0.0004951	66.3600001335
1080.0	0.0004952	66.4070000648
1080.0	0.0004955	66.4379999638
1080.0	0.0004958	66.4850001335
1080.0	0.0004962	66.5320000648
1080.0	0.0004963	66.5629999638
1080.0	0.0004961	66.6100001335
1080.0	0.0004956	66.6570000648
1080.0	0.0004955	66.6879999638
1080.0	0.0004952	66.7350001335
1080.0	0.0004956	66.7660000324
1080.0	0.0004962	66.8129999638
1080.0	0.0004962	66.8600001335
1080.0	0.0004961	66.8910000324
1080.0	0.0004957	66.9379999638
1080.0	0.0004955	66.9850001335
1080.0	0.0004952	67.0160000324
1080.0	0.000495	67.0629999638
1080.0	0.000495	67.0940001011
1080.0	0.0004948	67.1410000324
1080.0	0.0004946	67.1879999638
1090.0	0.0004996	67.4539999962
1090.0	0.0005017	67.5
1090.0	0.0005031	67.5469999313
1090.0	0.0005043	67.5789999962
1090.0	0.0005056	67.625
1090.0	0.0005063	67.6570000648
1090.0	0.0005067	67.7039999962
1090.0	0.000507	67.75
1090.0	0.000507	67.7820000648
1090.0	0.000507	67.8289999962
1090.0	0.0005068	67.875
1090.0	0.0005067	67.9070000648
1090.0	0.0005071	67.9539999962
1090.0	0.0005077	67.9850001335
1090.0	0.0005082	68.0320000648
1090.0	0.0005082	68.0789999962
1090.0	0.0005081	68.1100001335
1090.0	0.0005081	68.1570000648
1090.0	0.000508	68.2039999962
1090.0	0.0005081	68.2350001335
1090.0	0.0005082	68.2820000648
1090.0	0.0005086	68.3129999638
1090.0	0.0005083	68.3600001335
1090.0	0.0005087	68.4070000648
1090.0	0.0005088	68.4379999638
1090.0	0.0005088	68.4850001335
1090.0	0.0005088	68.5320000648
1090.0	0.0005092	68.5629999638
1090.0	0.0005087	68.6100001335
1090.0	0.0005086	68.6570000648
1090.0	0.0005087	68.6879999638
1090.0	0.0005086	68.7350001335
1090.0	0.0005083	68.7660000324
1090.0	0.0005086	68.8129999638
1090.0	0.0005082	68.8600001335
1090.0	0.0005083	68.8910000324
1090.0	0.0005086	68.9379999638
1100.0	0.0005105	69.2039999962
1100.0	0.0005111	69.25
1100.0	0.0005123	69.2820000648
1100.0	0.0005136	69.3289999962
1100.0	0.0005145	69.375
1100.0	0.0005151	69.4070000648
1100.0	0.0005155	69.4539999962
1100.0	0.0005156	69.4850001335
1100.0	0.0005158	69.5320000648
1100.0	0.0005161	69.5789999962
1100.0	0.0005158	69.6100001335
1100.0	0.0005157	69.6570000648
1100.0	0.0005157	69.7039999962
1100.0	0.0005158	69.7350001335
1100.0	0.0005157	69.7820000648
1100.0	0.0005162	69.8129999638
1100.0	0.0005167	69.8600001335
1100.0	0.0005168	69.9070000648
1100.0	0.0005167	69.9379999638
1100.0	0.0005163	69.9850001335
1100.0	0.0005161	70.0320000648
1100.0	0.0005161	70.0629999638
1100.0	0.0005161	70.1100001335
1100.0	0.0005161	70.1410000324
1100.0	0.0005162	70.1879999638
1100.0	0.0005165	70.2350001335
1100.0	0.0005163	70.2660000324
1100.0	0.0005163	70.3129999638
1100.0	0.0005167	70.3600001335
1100.0	0.0005167	70.3910000324
1100.0	0.0005161	70.4379999638
1100.0	0.0005163	70.4690001011
1100.0	0.0005167	70.5160000324
1100.0	0.000517	70.5629999638
1100.0	0.0005175	70.5940001011
1100.0	0.0005176	70.6410000324
1100.0	0.000517	70.6879999638
1110.0	0.0005183	70.9539999962
1110.0	0.0005187	71.0
1110.0	0.000519	71.0320000648
1110.0	0.0005198	71.0789999962
1110.0	0.0005201	71.1100001335
1110.0	0.0005205	71.1570000648
1110.0	0.0005212	71.2039999962
1110.0	0.0005215	71.2350001335
1110.0	0.0005217	71.2820000648
1110.0	0.000522	71.3289999962
1110.0	0.0005218	71.3600001335
1110.0	0.0005212	71.4070000648
1110.0	0.0005212	71.4539999962
1110.0	0.0005212	71.4850001335
1110.0	0.0005213	71.5320000648
1110.0	0.0005217	71.5629999638
1110.0	0.000522	71.6100001335
1110.0	0.0005223	71.6570000648
1110.0	0.0005226	71.6879999638
1110.0	0.0005226	71.7350001335
1110.0	0.0005227	71.7820000648
1110.0	0.0005226	71.8129999638
1110.0	0.0005227	71.8600001335
1110.0	0.0005227	71.8910000324
1110.0	0.0005221	71.9379999638
1110.0	0.000522	71.9850001335
1110.0	0.0005221	72.0160000324
1110.0	0.000522	72.0629999638
1110.0	0.000522	72.1100001335
1110.0	0.0005221	72.1410000324
1110.0	0.000522	72.1879999638
1110.0	0.000522	72.2190001011
1110.0	0.0005221	72.2660000324
1110.0	0.0005223	72.3129999638
1110.0	0.0005226	72.3440001011
1110.0	0.0005231	72.3910000324
1110.0	0.0005233	72.4379999638
1120.0	0.0005242	72.6879999638
1120.0	0.000525	72.7350001335
1120.0	0.0005251	72.7820000648
1120.0	0.0005252	72.8129999638
1120.0	0.0005255	72.8600001335
1120.0	0.0005256	72.9070000648
1120.0	0.0005256	72.9379999638
1120.0	0.0005255	72.9850001335
1120.0	0.0005255	73.0160000324
1120.0	0.0005251	73.0629999638
1120.0	0.0005248	73.1100001335
1120.0	0.0005246	73.1410000324
1120.0	0.0005243	73.1879999638
1120.0	0.0005245	73.2350001335
1120.0	0.000525	73.2660000324
1120.0	0.0005251	73.3129999638
1120.0	0.000525	73.3600001335
1120.0	0.000525	73.3910000324
1120.0	0.0005248	73.4379999638
1120.0	0.0005248	73.4690001011
1120.0	0.000525	73.5160000324
1120.0	0.0005252	73.5629999638
1120.0	0.000525	73.5940001011
1120.0	0.0005245	73.6410000324
1120.0	0.0005243	73.6879999638
1120.0	0.000524	73.7190001011
1120.0	0.000524	73.7660000324
1120.0	0.0005245	73.7969999313
1120.0	0.0005246	73.8440001011
1120.0	0.0005246	73.8910000324
1120.0	0.0005248	73.9219999313
1120.0	0.0005251	73.9690001011
1120.0	0.0005252	74.0160000324
1120.0	0.0005255	74.0469999313
1120.0	0.0005252	74.0940001011
1120.0	0.0005251	74.125
1120.0	0.0005251	74.1719999313
1130.0	0.0005248	74.4379999638
1130.0	0.0005245	74.4850001335
1130.0	0.0005243	74.5160000324
1130.0	0.0005246	74.5629999638
1130.0	0.000525	74.5940001011
1130.0	0.0005251	74.6410000324
1130.0	0.0005255	74.6879999638
1130.0	0.0005257	74.7190001011
1130.0	0.0005257	74.7660000324
1130.0	0.0005257	74.8129999638
1130.0	0.0005261	74.8440001011
1130.0	0.0005257	74.8910000324
1130.0	0.0005258	74.9219999313
1130.0	0.0005263	74.9690001011
1130.0	0.0005263	75.0160000324
1130.0	0.0005261	75.0469999313
1130.0	0.0005262	75.0940001011
1130.0	0.0005257	75.1410000324
1130.0	0.0005256	75.1719999313
1130.0	0.0005257	75.2190001011
1130.0	0.0005257	75.25
1130.0	0.0005252	75.2969999313
1130.0	0.0005256	75.3440001011
1130.0	0.0005258	75.375
1130.0	0.0005256	75.4219999313
1130.0	0.0005251	75.4690001011
1130.0	0.000525	75.5
1130.0	0.0005251	75.5469999313
1130.0	0.0005252	75.5789999962
1130.0	0.0005251	75.625
1130.0	0.0005251	75.6719999313
1130.0	0.0005251	75.7039999962
1130.0	0.0005252	75.75
1130.0	0.0005255	75.7969999313
1130.0	0.0005255	75.8289999962
1130.0	0.0005255	75.875
1130.0	0.0005255	75.9219999313
1140.0	0.0005251	76.1879999638
1140.0	0.000525	76.2190001011
1140.0	0.0005245	76.2660000324
1140.0	0.0005245	76.3129999638
1140.0	0.0005248	76.3440001011
1140.0	0.0005246	76.3910000324
1140.0	0.0005242	76.4219999313
1140.0	0.000524	76.4690001011
1140.0	0.0005243	76.5160000324
1140.0	0.0005245	76.5469999313
1140.0	0.0005246	76.5940001011
1140.0	0.0005246	76.6410000324
1140.0	0.000524	76.6719999313
1140.0	0.0005238	76.7190001011
1140.0	0.0005238	76.75
1140.0	0.0005242	76.7969999313
1140.0	0.0005242	76.8440001011
1140.0	0.0005243	76.875
1140.0	0.0005243	76.9219999313
1140.0	0.0005242	76.9690001011
1140.0	0.0005243	77.0
1140.0	0.0005242	77.0469999313
1140.0	0.0005238	77.0789999962
1140.0	0.0005237	77.125
1140.0	0.0005233	77.1719999313
1140.0	0.0005231	77.2039999962
1140.0	0.0005232	77.25
1140.0	0.0005232	77.2969999313
1140.0	0.0005227	77.3289999962
1140.0	0.0005226	77.375
1140.0	0.0005226	77.4070000648
1140.0	0.0005226	77.4539999962
1140.0	0.0005226	77.5
1140.0	0.000523	77.5320000648
1140.0	0.0005232	77.5789999962
1140.0	0.0005232	77.625
1140.0	0.0005236	77.6570000648
1150.0	0.0005225	77.9219999313
1150.0	0.0005218	77.9690001011
1150.0	0.0005217	78.0160000324
1150.0	0.0005215	78.0469999313
1150.0	0.0005211	78.0940001011
1150.0	0.0005211	78.125
1150.0	0.0005211	78.1719999313
1150.0	0.0005208	78.2190001011
1150.0	0.0005211	78.25
1150.0	0.0005212	78.2969999313
1150.0	0.0005213	78.3440001011
1150.0	0.0005213	78.375
1150.0	0.0005215	78.4219999313
1150.0	0.0005211	78.4539999962
1150.0	0.0005211	78.5
1150.0	0.0005212	78.5469999313
1150.0	0.0005212	78.5789999962
1150.0	0.0005208	78.625
1150.0	0.0005211	78.6719999313
1150.0	0.0005208	78.7039999962
1150.0	0.0005207	78.75
1150.0	0.0005208	78.7820000648
1150.0	0.0005208	78.8289999962
1150.0	0.0005207	78.875
1150.0	0.0005207	78.9070000648
1150.0	0.0005207	78.9539999962
1150.0	0.0005206	79.0
1150.0	0.0005208	79.0320000648
1150.0	0.0005208	79.0789999962
1150.0	0.0005207	79.125
1150.0	0.0005206	79.1570000648
1150.0	0.0005205	79.2039999962
1150.0	0.0005206	79.2350001335
1150.0	0.0005208	79.2820000648
1150.0	0.0005211	79.3289999962
1150.0	0.0005207	79.3600001335
1150.0	0.0005208	79.4070000648
1160.0	0.0005213	79.6719999313
1160.0	0.0005211	79.7190001011
1160.0	0.0005205	79.75
1160.0	0.0005202	79.7969999313
1160.0	0.00052	79.8440001011
1160.0	0.0005201	79.875
1160.0	0.0005201	79.9219999313
1160.0	0.00052	79.9539999962
1160.0	0.0005198	80.0
1160.0	0.00052	80.0469999313
1160.0	0.00052	80.0789999962
1160.0	0.0005198	80.125
1160.0	0.0005198	80.1719999313
1160.0	0.0005196	80.2039999962
1160.0	0.0005192	80.25
1160.0	0.000519	80.2820000648
1160.0	0.0005188	80.3289999962
1160.0	0.0005187	80.375
1160.0	0.0005182	80.4070000648
1160.0	0.000518	80.4539999962
1160.0	0.0005181	80.5
1160.0	0.0005183	80.5320000648
1160.0	0.0005188	80.5789999962
1160.0	0.0005188	80.6100001335
1160.0	0.0005193	80.6570000648
1160.0	0.0005196	80.7039999962
1160.0	0.00052	80.7350001335
1160.0	0.0005198	80.7820000648
1160.0	0.0005195	80.8289999962
1160.0	0.0005195	80.8600001335
1160.0	0.0005192	80.9070000648
1160.0	0.0005188	80.9539999962
1160.0	0.0005188	80.9850001335
1160.0	0.0005188	81.0320000648
1160.0	0.0005187	81.0629999638
1160.0	0.0005188	81.1100001335
1160.0	0.0005188	81.1570000648
1170.0	0.0005183	81.4219999313
1170.0	0.000518	81.4539999962
1170.0	0.0005175	81.5
1170.0	0.0005173	81.5469999313
1170.0	0.0005173	81.5789999962
1170.0	0.0005171	81.625
1170.0	0.0005167	81.6719999313
1170.0	0.0005167	81.7039999962
1170.0	0.000517	81.75
1170.0	0.0005175	81.7820000648
1170.0	0.000518	81.8289999962
1170.0	0.0005182	81.875
1170.0	0.0005181	81.9070000648
1170.0	0.0005177	81.9539999962
1170.0	0.0005173	82.0
1170.0	0.000517	82.0320000648
1170.0	0.0005168	82.0789999962
1170.0	0.000517	82.1100001335
1170.0	0.000517	82.1570000648
1170.0	0.0005171	82.2039999962
1170.0	0.0005171	82.2350001335
1170.0	0.0005173	82.2820000648
1170.0	0.0005171	82.3289999962
1170.0	0.0005171	82.3600001335
1170.0	0.0005173	82.4070000648
1170.0	0.0005173	82.4379999638
1170.0	0.0005173	82.4850001335
1170.0	0.0005175	82.5320000648
1170.0	0.0005171	82.5629999638
1170.0	0.000517	82.6100001335
1170.0	0.000517	82.6570000648
1170.0	0.000517	82.6879999638
1170.0	0.0005168	82.7350001335
1170.0	0.0005167	82.7660000324
1170.0	0.0005167	82.8129999638
1170.0	0.0005167	82.8600001335
1170.0	0.000517	82.8910000324
1180.0	0.0005173	83.1719999313
1180.0	0.0005171	83.2039999962
1180.0	0.0005175	83.25
1180.0	0.0005176	83.2969999313
1180.0	0.0005177	83.3289999962
1180.0	0.0005182	83.375
1180.0	0.0005182	83.4070000648
1180.0	0.0005182	83.4539999962
1180.0	0.0005182	83.5
1180.0	0.0005182	83.5320000648
1180.0	0.0005181	83.5789999962
1180.0	0.0005181	83.625
1180.0	0.000518	83.6570000648
1180.0	0.0005176	83.7039999962
1180.0	0.0005173	83.75
1180.0	0.0005168	83.7820000648
1180.0	0.0005163	83.8289999962
1180.0	0.0005161	83.8600001335
1180.0	0.0005162	83.9070000648
1180.0	0.0005162	83.9539999962
1180.0	0.0005158	83.9850001335
1180.0	0.0005158	84.0320000648
1180.0	0.0005158	84.0789999962
1180.0	0.0005161	84.1100001335
1180.0	0.0005165	84.1570000648
1180.0	0.0005168	84.1879999638
1180.0	0.0005167	84.2350001335
1180.0	0.0005168	84.2820000648
1180.0	0.0005173	84.3129999638
1180.0	0.0005175	84.3600001335
1180.0	0.0005173	84.4070000648
1180.0	0.000517	84.4379999638
1180.0	0.0005168	84.4850001335
1180.0	0.0005167	84.5160000324
1180.0	0.0005167	84.5629999638
1180.0	0.000517	84.6100001335
1180.0	0.0005171	84.6410000324
1190.0	0.0005176	84.9219999313
1190.0	0.000518	84.9539999962
1190.0	0.0005181	85.0
1190.0	0.0005182	85.0469999313
1190.0	0.0005183	85.0789999962
1190.0	0.0005186	85.125
1190.0	0.0005187	85.1570000648
1190.0	0.000519	85.2039999962
1190.0	0.0005192	85.25
1190.0	0.00052	85.2820000648
1190.0	0.0005205	85.3289999962
1190.0	0.0005207	85.375
1190.0	0.0005206	85.4070000648
1190.0	0.0005206	85.4539999962
1190.0	0.0005201	85.4850001335
1190.0	0.0005198	85.5320000648
1190.0	0.0005195	85.5789999962
1190.0	0.0005192	85.6100001335
1190.0	0.000519	85.6570000648
1190.0	0.000519	85.7039999962
1190.0	0.0005192	85.7350001335
1190.0	0.0005192	85.7820000648
1190.0	0.0005193	85.8289999962
1190.0	0.0005193	85.8600001335
1190.0	0.0005192	85.9070000648
1190.0	0.0005193	85.9379999638
1190.0	0.0005196	85.9850001335
1190.0	0.00052	86.0320000648
1190.0	0.0005201	86.0629999638
1190.0	0.0005201	86.1100001335
1190.0	0.0005198	86.1570000648
1190.0	0.0005198	86.1879999638
1190.0	0.0005196	86.2350001335
1190.0	0.0005198	86.2660000324
1190.0	0.00052	86.3129999638
1190.0	0.0005201	86.3600001335
1190.0	0.0005202	86.3910000324
1200.0	0.0005207	86.6719999313
1200.0	0.0005213	86.7039999962
1200.0	0.000522	86.75
1200.0	0.0005223	86.7969999313
1200.0	0.0005227	86.8289999962
1200.0	0.000523	86.875
1200.0	0.0005231	86.9070000648
1200.0	0.0005236	86.9539999962
1200.0	0.0005236	87.0
1200.0	0.0005233	87.0320000648
1200.0	0.0005237	87.0789999962
1200.0	0.0005237	87.125
1200.0	0.000524	87.1570000648
1200.0	0.0005245	87.2039999962
1200.0	0.0005242	87.2350001335
1200.0	0.0005238	87.2820000648
1200.0	0.0005238	87.3289999962
1200.0	0.000524	87.3600001335
1200.0	0.000524	87.4070000648
1200.0	0.0005238	87.4539999962
1200.0	0.000524	87.4850001335
1200.0	0.0005238	87.5320000648
1200.0	0.000524	87.5789999962
1200.0	0.0005242	87.6100001335
1200.0	0.0005243	87.6570000648
1200.0	0.0005243	87.6879999638
1200.0	0.0005243	87.7350001335
1200.0	0.0005243	87.7820000648
1200.0	0.0005246	87.8129999638
1200.0	0.0005251	87.8600001335
1200.0	0.0005251	87.9070000648
1200.0	0.0005252	87.9379999638
1200.0	0.0005256	87.9850001335
1200.0	0.0005257	88.0160000324
1200.0	0.0005256	88.0629999638
1200.0	0.0005255	88.1100001335
1200.0	0.0005256	88.1410000324
1210.0	0.0005281	88.4219999313
1210.0	0.0005288	88.4539999962
1210.0	0.0005296	88.5
1210.0	0.0005302	88.5469999313
1210.0	0.0005307	88.5789999962
1210.0	0.0005311	88.625
1210.0	0.0005311	88.6570000648
1210.0	0.0005313	88.7039999962
1210.0	0.0005317	88.75
1210.0	0.0005318	88.7820000648
1210.0	0.000532	88.8289999962
1210.0	0.0005318	88.875
1210.0	0.0005313	88.9070000648
1210.0	0.0005311	88.9539999962
1210.0	0.0005311	88.9850001335
1210.0	0.0005311	89.0320000648
1210.0	0.0005312	89.0789999962
1210.0	0.0005317	89.1100001335
1210.0	0.0005317	89.1570000648
1210.0	0.0005317	89.2039999962
1210.0	0.0005313	89.2350001335
1210.0	0.0005313	89.2820000648
1210.0	0.0005317	89.3129999638
1210.0	0.0005315	89.3600001335
1210.0	0.0005315	89.4070000648
1210.0	0.0005315	89.4379999638
1210.0	0.0005315	89.4850001335
1210.0	0.0005318	89.5320000648
1210.0	0.0005317	89.5629999638
1210.0	0.0005315	89.6100001335
1210.0	0.0005317	89.6570000648
1210.0	0.0005315	89.6879999638
1210.0	0.0005315	89.7350001335
1210.0	0.000532	89.7660000324
1210.0	0.0005321	89.8129999638
1210.0	0.000532	89.8600001335
1210.0	0.0005318	89.8910000324
1220.0	0.000535	90.1570000648
1220.0	0.0005361	90.2039999962
1220.0	0.0005375	90.2350001335
1220.0	0.0005388	90.2820000648
1220.0	0.0005395	90.3289999962
1220.0	0.0005401	90.3600001335
1220.0	0.0005405	90.4070000648
1220.0	0.0005405	90.4539999962
1220.0	0.0005405	90.4850001335
1220.0	0.0005402	90.5320000648
1220.0	0.00054	90.5629999638
1220.0	0.00054	90.6100001335
1220.0	0.0005402	90.6570000648
1220.0	0.0005402	90.6879999638
1220.0	0.00054	90.7350001335
1220.0	0.0005401	90.7820000648
1220.0	0.0005401	90.8129999638
1220.0	0.00054	90.8600001335
1220.0	0.0005398	90.8910000324
1220.0	0.0005395	90.9379999638
1220.0	0.0005393	90.9850001335
1220.0	0.0005392	91.0160000324
1220.0	0.0005388	91.0629999638
1220.0	0.0005386	91.1100001335
1220.0	0.0005382	91.1410000324
1220.0	0.0005386	91.1879999638
1220.0	0.0005387	91.2190001011
1220.0	0.0005387	91.2660000324
1220.0	0.0005392	91.3129999638
1220.0	0.0005395	91.3440001011
1220.0	0.0005398	91.3910000324
1220.0	0.0005402	91.4379999638
1220.0	0.0005406	91.4690001011
1220.0	0.0005407	91.5160000324
1220.0	0.0005407	91.5629999638
1220.0	0.0005406	91.5940001011
1220.0	0.0005402	91.6410000324
1230.0	0.0005432	91.9070000648
1230.0	0.0005445	91.9379999638
1230.0	0.0005455	91.9850001335
1230.0	0.0005468	92.0160000324
1230.0	0.0005482	92.0629999638
1230.0	0.0005487	92.1100001335
1230.0	0.0005492	92.1410000324
1230.0	0.00055	92.1879999638
1230.0	0.0005505	92.2350001335
1230.0	0.0005505	92.2660000324
1230.0	0.0005502	92.3129999638
1230.0	0.0005505	92.3600001335
1230.0	0.0005508	92.3910000324
1230.0	0.0005507	92.4379999638
1230.0	0.0005511	92.4690001011
1230.0	0.0005511	92.5160000324
1230.0	0.0005511	92.5629999638
1230.0	0.0005511	92.5940001011
1230.0	0.0005512	92.6410000324
1230.0	0.0005511	92.6879999638
1230.0	0.0005507	92.7190001011
1230.0	0.0005505	92.7660000324
1230.0	0.0005505	92.7969999313
1230.0	0.0005506	92.8440001011
1230.0	0.0005508	92.8910000324
1230.0	0.0005511	92.9219999313
1230.0	0.0005511	92.9690001011
1230.0	0.0005507	93.0
1230.0	0.0005501	93.0469999313
1230.0	0.0005502	93.0940001011
1230.0	0.0005508	93.125
1230.0	0.0005512	93.1719999313
1230.0	0.0005512	93.2190001011
1230.0	0.0005517	93.25
1230.0	0.0005513	93.2969999313
1230.0	0.0005511	93.3440001011
1230.0	0.0005511	93.375
1240.0	0.0005548	93.6410000324
1240.0	0.0005557	93.6879999638
1240.0	0.0005565	93.7350001335
1240.0	0.0005571	93.7660000324
1240.0	0.000558	93.8129999638
1240.0	0.0005583	93.8440001011
1240.0	0.0005592	93.8910000324
1240.0	0.0005595	93.9379999638
1240.0	0.0005601	93.9690001011
1240.0	0.0005605	94.0160000324
1240.0	0.0005605	94.0629999638
1240.0	0.0005605	94.0940001011
1240.0	0.0005605	94.1410000324
1240.0	0.0005606	94.1719999313
1240.0	0.0005605	94.2190001011
1240.0	0.0005605	94.2660000324
1240.0	0.0005601	94.2969999313
1240.0	0.0005601	94.3440001011
1240.0	0.0005602	94.3910000324
1240.0	0.0005605	94.4219999313
1240.0	0.0005607	94.4690001011
1240.0	0.0005613	94.5
1240.0	0.0005615	94.5469999313
1240.0	0.0005615	94.5940001011
1240.0	0.0005617	94.625
1240.0	0.000562	94.6719999313
1240.0	0.000562	94.7190001011
1240.0	0.000562	94.75
1240.0	0.000562	94.7969999313
1240.0	0.0005615	94.8440001011
1240.0	0.0005611	94.875
1240.0	0.0005607	94.9219999313
1240.0	0.0005607	94.9539999962
1240.0	0.0005611	95.0
1240.0	0.0005612	95.0469999313
1240.0	0.0005617	95.0789999962
1240.0	0.0005618	95.125
1250.0	0.0005645	95.3910000324
1250.0	0.0005657	95.4379999638
1250.0	0.0005667	95.4690001011
1250.0	0.000568	95.5160000324
1250.0	0.0005688	95.5629999638
1250.0	0.0005693	95.5940001011
1250.0	0.0005696	95.6410000324
1250.0	0.0005698	95.6719999313
1250.0	0.0005698	95.7190001011
1250.0	0.0005701	95.7660000324
1250.0	0.0005701	95.7969999313
1250.0	0.00057	95.8440001011
1250.0	0.00057	95.8910000324
1250.0	0.0005701	95.9219999313
1250.0	0.0005701	95.9690001011
1250.0	0.0005701	96.0
1250.0	0.0005705	96.0469999313
1250.0	0.0005707	96.0940001011
1250.0	0.0005711	96.125
1250.0	0.0005711	96.1719999313
1250.0	0.0005711	96.2190001011
1250.0	0.0005707	96.25
1250.0	0.0005708	96.2969999313
1250.0	0.0005711	96.3289999962
1250.0	0.0005707	96.375
1250.0	0.0005705	96.4219999313
1250.0	0.0005701	96.4539999962
1250.0	0.0005701	96.5
1250.0	0.00057	96.5469999313
1250.0	0.0005702	96.5789999962
1250.0	0.0005705	96.625
1250.0	0.00057	96.6570000648
1250.0	0.00057	96.7039999962
1250.0	0.0005702	96.75
1250.0	0.0005701	96.7820000648
1250.0	0.0005702	96.8289999962
1250.0	0.0005705	96.875
1260.0	0.000575	97.1410000324
1260.0	0.0005761	97.1719999313
1260.0	0.0005768	97.2190001011
1260.0	0.0005773	97.2660000324
1260.0	0.0005777	97.2969999313
1260.0	0.0005783	97.3440001011
1260.0	0.0005782	97.375
1260.0	0.0005782	97.4219999313
1260.0	0.0005783	97.4690001011
1260.0	0.0005783	97.5
1260.0	0.0005787	97.5469999313
1260.0	0.000579	97.5940001011
1260.0	0.0005792	97.625
1260.0	0.0005795	97.6719999313
1260.0	0.0005798	97.7190001011
1260.0	0.0005798	97.75
1260.0	0.0005792	97.7969999313
1260.0	0.000579	97.8289999962
1260.0	0.0005788	97.875
1260.0	0.0005788	97.9219999313
1260.0	0.0005792	97.9539999962
1260.0	0.0005796	98.0
1260.0	0.0005796	98.0469999313
1260.0	0.0005796	98.0789999962
1260.0	0.0005796	98.125
1260.0	0.0005796	98.1570000648
1260.0	0.0005798	98.2039999962
1260.0	0.0005801	98.25
1260.0	0.0005805	98.2820000648
1260.0	0.0005805	98.3289999962
1260.0	0.0005802	98.375
1260.0	0.0005798	98.4070000648
1260.0	0.0005798	98.4539999962
1260.0	0.0005798	98.4850001335
1260.0	0.00058	98.5320000648
1260.0	0.00058	98.5789999962
1260.0	0.0005802	98.6100001335
1270.0	0.0005823	98.875
1270.0	0.0005832	98.9219999313
1270.0	0.000584	98.9690001011
1270.0	0.0005851	99.0
1270.0	0.0005856	99.0469999313
1270.0	0.0005862	99.0940001011
1270.0	0.0005867	99.125
1270.0	0.0005867	99.1719999313
1270.0	0.0005865	99.2039999962
1270.0	0.0005862	99.25
1270.0	0.0005857	99.2969999313
1270.0	0.0005857	99.3289999962
1270.0	0.0005857	99.375
1270.0	0.0005855	99.4219999313
1270.0	0.0005855	99.4539999962
1270.0	0.0005857	99.5
1270.0	0.0005863	99.5320000648
1270.0	0.0005863	99.5789999962
1270.0	0.0005867	99.625
1270.0	0.000587	99.6570000648
1270.0	0.0005867	99.7039999962
1270.0	0.0005863	99.75
1270.0	0.0005863	99.7820000648
1270.0	0.0005863	99.8289999962
1270.0	0.0005863	99.875
1270.0	0.0005865	99.9070000648
1270.0	0.0005863	99.9539999962
1270.0	0.0005862	99.9850001335
1270.0	0.0005863	100.032000065
1270.0	0.0005862	100.078999996
1270.0	0.0005863	100.110000134
1270.0	0.0005868	100.157000065
1270.0	0.0005871	100.203999996
1270.0	0.000587	100.235000134
1270.0	0.000587	100.282000065
1270.0	0.000587	100.312999964
1270.0	0.0005868	100.360000134
1280.0	0.0005886	100.625
1280.0	0.0005895	100.671999931
1280.0	0.00059	100.703999996
1280.0	0.0005906	100.75
1280.0	0.0005911	100.796999931
1280.0	0.0005917	100.828999996
1280.0	0.0005918	100.875
1280.0	0.000592	100.921999931
1280.0	0.0005912	100.953999996
1280.0	0.0005907	101.0
1280.0	0.0005911	101.032000065
1280.0	0.0005911	101.078999996
1280.0	0.0005908	101.125
1280.0	0.0005911	101.157000065
1280.0	0.0005911	101.203999996
1280.0	0.0005911	101.25
1280.0	0.0005913	101.282000065
1280.0	0.0005915	101.328999996
1280.0	0.0005913	101.360000134
1280.0	0.0005917	101.407000065
1280.0	0.0005917	101.453999996
1280.0	0.000592	101.485000134
1280.0	0.0005917	101.532000065
1280.0	0.0005915	101.578999996
1280.0	0.0005911	101.610000134
1280.0	0.0005907	101.657000065
1280.0	0.0005902	101.687999964
1280.0	0.00059	101.735000134
1280.0	0.0005902	101.782000065
1280.0	0.0005907	101.812999964
1280.0	0.0005913	101.860000134
1280.0	0.0005915	101.907000065
1280.0	0.000592	101.937999964
1280.0	0.0005925	101.985000134
1280.0	0.000592	102.032000065
1280.0	0.0005915	102.062999964
1280.0	0.0005913	102.110000134
1290.0	0.0005923	102.375
1290.0	0.0005931	102.421999931
1290.0	0.0005932	102.453999996
1290.0	0.0005933	102.5
1290.0	0.0005938	102.546999931
1290.0	0.000594	102.578999996
1290.0	0.000594	102.625
1290.0	0.0005943	102.671999931
1290.0	0.0005945	102.703999996
1290.0	0.000594	102.75
1290.0	0.0005938	102.782000065
1290.0	0.0005938	102.828999996
1290.0	0.0005937	102.875
1290.0	0.0005936	102.907000065
1290.0	0.0005933	102.953999996
1290.0	0.0005931	103.0
1290.0	0.000593	103.032000065
1290.0	0.0005926	103.078999996
1290.0	0.0005926	103.110000134
1290.0	0.000593	103.157000065
1290.0	0.000593	103.203999996
1290.0	0.000593	103.235000134
1290.0	0.000593	103.282000065
1290.0	0.0005932	103.328999996
1290.0	0.0005933	103.360000134
1290.0	0.0005931	103.407000065
1290.0	0.0005927	103.453999996
1290.0	0.0005926	103.485000134
1290.0	0.0005925	103.532000065
1290.0	0.0005923	103.562999964
1290.0	0.0005925	103.610000134
1290.0	0.0005923	103.657000065
1290.0	0.0005923	103.687999964
1290.0	0.0005921	103.735000134
1290.0	0.0005921	103.782000065
1290.0	0.000592	103.812999964
1290.0	0.0005923	103.860000134
1300.0	0.000592	104.125
1300.0	0.0005915	104.157000065
1300.0	0.0005912	104.203999996
1300.0	0.0005912	104.235000134
1300.0	0.0005908	104.282000065
1300.0	0.0005911	104.328999996
1300.0	0.0005907	104.360000134
1300.0	0.0005902	104.407000065
1300.0	0.0005901	104.453999996
1300.0	0.0005901	104.485000134
1300.0	0.0005898	104.532000065
1300.0	0.0005898	104.562999964
1300.0	0.00059	104.610000134
1300.0	0.0005901	104.657000065
1300.0	0.0005902	104.687999964
1300.0	0.0005906	104.735000134
1300.0	0.0005906	104.782000065
1300.0	0.0005901	104.812999964
1300.0	0.0005905	104.860000134
1300.0	0.0005901	104.907000065
1300.0	0.00059	104.937999964
1300.0	0.00059	104.985000134
1300.0	0.0005901	105.032000065
1300.0	0.0005901	105.062999964
1300.0	0.00059	105.110000134
1300.0	0.0005902	105.157000065
1300.0	0.0005902	105.187999964
1300.0	0.0005902	105.235000134
1300.0	0.0005902	105.266000032
1300.0	0.0005901	105.312999964
1300.0	0.0005898	105.360000134
1300.0	0.0005898	105.391000032
1300.0	0.0005898	105.437999964
1300.0	0.0005893	105.485000134
1300.0	0.0005893	105.516000032
1300.0	0.0005895	105.562999964
1300.0	0.0005895	105.594000101
1310.0	0.000588	105.875
1310.0	0.0005865	105.907000065
1310.0	0.0005852	105.953999996
1310.0	0.0005845	106.0
1310.0	0.0005842	106.032000065
1310.0	0.0005838	106.078999996
1310.0	0.0005837	106.125
1310.0	0.0005833	106.157000065
1310.0	0.0005827	106.203999996
1310.0	0.0005823	106.235000134
1310.0	0.0005823	106.282000065
1310.0	0.000582	106.328999996
1310.0	0.0005821	106.360000134
1310.0	0.000582	106.407000065
1310.0	0.000582	106.453999996
1310.0	0.0005823	106.485000134
1310.0	0.0005826	106.532000065
1310.0	0.0005826	106.578999996
1310.0	0.0005826	106.610000134
1310.0	0.0005823	106.657000065
1310.0	0.0005823	106.687999964
1310.0	0.0005821	106.735000134
1310.0	0.000582	106.782000065
1310.0	0.0005815	106.812999964
1310.0	0.0005808	106.860000134
1310.0	0.0005807	106.907000065
1310.0	0.0005811	106.937999964
1310.0	0.0005813	106.985000134
1310.0	0.000582	107.032000065
1310.0	0.000582	107.062999964
1310.0	0.0005821	107.110000134
1310.0	0.0005823	107.157000065
1310.0	0.0005823	107.187999964
1310.0	0.0005818	107.235000134
1310.0	0.0005818	107.266000032
1310.0	0.0005821	107.312999964
1310.0	0.0005821	107.360000134
1320.0	0.0005762	107.625
1320.0	0.0005737	107.671999931
1320.0	0.0005712	107.703999996
1320.0	0.0005696	107.75
1320.0	0.0005687	107.796999931
1320.0	0.0005677	107.828999996
1320.0	0.0005677	107.875
1320.0	0.000568	107.921999931
1320.0	0.0005681	107.953999996
1320.0	0.0005681	108.0
1320.0	0.000568	108.032000065
1320.0	0.0005677	108.078999996
1320.0	0.0005676	108.125
1320.0	0.0005675	108.157000065
1320.0	0.000567	108.203999996
1320.0	0.0005665	108.25
1320.0	0.0005663	108.282000065
1320.0	0.0005667	108.328999996
1320.0	0.000567	108.360000134
1320.0	0.0005675	108.407000065
1320.0	0.0005676	108.453999996
1320.0	0.0005671	108.485000134
1320.0	0.000567	108.532000065
1320.0	0.0005671	108.578999996
1320.0	0.0005671	108.610000134
1320.0	0.000567	108.657000065
1320.0	0.000567	108.687999964
1320.0	0.000567	108.735000134
1320.0	0.0005667	108.782000065
1320.0	0.0005665	108.812999964
1320.0	0.0005663	108.860000134
1320.0	0.0005661	108.907000065
1320.0	0.0005658	108.937999964
1320.0	0.0005658	108.985000134
1320.0	0.0005663	109.016000032
1320.0	0.0005667	109.062999964
1320.0	0.0005668	109.110000134
1330.0	0.0005583	109.375
1330.0	0.0005556	109.421999931
1330.0	0.0005531	109.453999996
1330.0	0.0005513	109.5
1330.0	0.0005496	109.546999931
1330.0	0.0005482	109.578999996
1330.0	0.000547	109.625
1330.0	0.0005463	109.657000065
1330.0	0.0005455	109.703999996
1330.0	0.0005448	109.75
1330.0	0.0005448	109.782000065
1330.0	0.0005448	109.828999996
1330.0	0.0005448	109.875
1330.0	0.0005446	109.907000065
1330.0	0.0005445	109.953999996
1330.0	0.0005446	109.985000134
1330.0	0.0005451	110.032000065
1330.0	0.0005456	110.078999996
1330.0	0.0005457	110.110000134
1330.0	0.0005455	110.157000065
1330.0	0.0005456	110.203999996
1330.0	0.0005455	110.235000134
1330.0	0.0005451	110.282000065
1330.0	0.0005448	110.312999964
1330.0	0.0005446	110.360000134
1330.0	0.0005445	110.407000065
1330.0	0.0005448	110.437999964
1330.0	0.0005451	110.485000134
1330.0	0.0005448	110.532000065
1330.0	0.0005445	110.562999964
1330.0	0.0005448	110.610000134
1330.0	0.0005442	110.657000065
1330.0	0.0005437	110.687999964
1330.0	0.0005433	110.735000134
1330.0	0.0005432	110.766000032
1330.0	0.0005433	110.812999964
1330.0	0.0005437	110.860000134
1340.0	0.0005333	111.125
1340.0	0.0005295	111.171999931
1340.0	0.0005262	111.203999996
1340.0	0.0005233	111.25
1340.0	0.0005213	111.296999931
1340.0	0.0005196	111.328999996
1340.0	0.0005181	111.375
1340.0	0.0005168	111.407000065
1340.0	0.0005157	111.453999996
1340.0	0.000515	111.5
1340.0	0.0005145	111.532000065
1340.0	0.0005145	111.578999996
1340.0	0.0005142	111.625
1340.0	0.000514	111.657000065
1340.0	0.0005142	111.703999996
1340.0	0.000514	111.735000134
1340.0	0.0005138	111.782000065
1340.0	0.000514	111.828999996
1340.0	0.0005143	111.860000134
1340.0	0.0005142	111.907000065
1340.0	0.0005143	111.953999996
1340.0	0.0005145	111.985000134
1340.0	0.0005145	112.032000065
1340.0	0.0005143	112.062999964
1340.0	0.000514	112.110000134
1340.0	0.0005138	112.157000065
1340.0	0.0005138	112.187999964
1340.0	0.0005138	112.235000134
1340.0	0.0005138	112.282000065
1340.0	0.000514	112.312999964
1340.0	0.0005145	112.360000134
1340.0	0.0005148	112.407000065
1340.0	0.0005148	112.437999964
1340.0	0.000515	112.485000134
1340.0	0.000515	112.516000032
1340.0	0.0005145	112.562999964
1340.0	0.0005142	112.610000134
1350.0	0.0005013	112.875
1350.0	0.0004973	112.907000065
1350.0	0.0004938	112.953999996
1350.0	0.0004915	113.0
1350.0	0.0004895	113.032000065
1350.0	0.0004876	113.078999996
1350.0	0.0004863	113.125
1350.0	0.000485	113.157000065
1350.0	0.0004836	113.203999996
1350.0	0.000483	113.235000134
1350.0	0.0004823	113.282000065
1350.0	0.0004818	113.328999996
1350.0	0.0004818	113.360000134
1350.0	0.0004818	113.407000065
1350.0	0.000482	113.453999996
1350.0	0.0004825	113.485000134
1350.0	0.0004825	113.532000065
1350.0	0.0004821	113.562999964
1350.0	0.000482	113.610000134
1350.0	0.0004821	113.657000065
1350.0	0.000482	113.687999964
1350.0	0.0004818	113.735000134
1350.0	0.0004817	113.782000065
1350.0	0.0004811	113.812999964
1350.0	0.0004801	113.860000134
1350.0	0.0004801	113.891000032
1350.0	0.0004805	113.937999964
1350.0	0.0004807	113.985000134
1350.0	0.0004812	114.016000032
1350.0	0.0004818	114.062999964
1350.0	0.0004821	114.110000134
1350.0	0.0004821	114.141000032
1350.0	0.0004823	114.187999964
1350.0	0.0004821	114.235000134
1350.0	0.0004823	114.266000032
1350.0	0.0004823	114.312999964
1350.0	0.000482	114.344000101
1360.0	0.0004686	114.625
1360.0	0.0004643	114.657000065
1360.0	0.0004606	114.703999996
1360.0	0.0004575	114.75
1360.0	0.0004551	114.782000065
1360.0	0.0004532	114.828999996
1360.0	0.0004515	114.875
1360.0	0.0004502	114.907000065
1360.0	0.0004495	114.953999996
1360.0	0.000449	114.985000134
1360.0	0.0004482	115.032000065
1360.0	0.0004473	115.078999996
1360.0	0.0004465	115.110000134
1360.0	0.0004462	115.157000065
1360.0	0.0004457	115.203999996
1360.0	0.0004456	115.235000134
1360.0	0.0004455	115.282000065
1360.0	0.0004455	115.312999964
1360.0	0.0004455	115.360000134
1360.0	0.0004457	115.407000065
1360.0	0.0004461	115.437999964
1360.0	0.0004461	115.485000134
1360.0	0.0004456	115.532000065
1360.0	0.0004451	115.562999964
1360.0	0.000445	115.610000134
1360.0	0.0004448	115.641000032
1360.0	0.0004446	115.687999964
1360.0	0.0004438	115.735000134
1360.0	0.000443	115.766000032
1360.0	0.0004426	115.812999964
1360.0	0.0004425	115.860000134
1360.0	0.0004426	115.891000032
1360.0	0.0004432	115.937999964
1360.0	0.0004433	115.985000134
1360.0	0.000443	116.016000032
1360.0	0.000443	116.062999964
1360.0	0.0004432	116.094000101
1370.0	0.0004318	116.360000134
1370.0	0.000428	116.407000065
1370.0	0.0004246	116.453999996
1370.0	0.0004217	116.485000134
1370.0	0.0004195	116.532000065
1370.0	0.0004181	116.578999996
1370.0	0.000417	116.610000134
1370.0	0.0004158	116.657000065
1370.0	0.000415	116.687999964
1370.0	0.0004138	116.735000134
1370.0	0.0004131	116.782000065
1370.0	0.0004125	116.812999964
1370.0	0.0004121	116.860000134
1370.0	0.000412	116.907000065
1370.0	0.0004125	116.937999964
1370.0	0.000413	116.985000134
1370.0	0.0004133	117.016000032
1370.0	0.0004137	117.062999964
1370.0	0.0004137	117.110000134
1370.0	0.0004136	117.141000032
1370.0	0.0004137	117.187999964
1370.0	0.0004136	117.235000134
1370.0	0.0004136	117.266000032
1370.0	0.0004133	117.312999964
1370.0	0.0004132	117.360000134
1370.0	0.000413	117.391000032
1370.0	0.0004126	117.437999964
1370.0	0.0004123	117.469000101
1370.0	0.000412	117.516000032
1370.0	0.0004115	117.562999964
1370.0	0.0004113	117.594000101
1370.0	0.0004112	117.641000032
1370.0	0.0004112	117.687999964
1370.0	0.0004113	117.719000101
1370.0	0.0004115	117.766000032
1370.0	0.0004115	117.796999931
1370.0	0.0004117	117.844000101
1380.0	0.0004032	118.110000134
1380.0	0.0004	118.157000065
1380.0	0.0003973	118.187999964
1380.0	0.0003956	118.235000134
1380.0	0.0003936	118.282000065
1380.0	0.000392	118.312999964
1380.0	0.0003908	118.360000134
1380.0	0.0003896	118.407000065
1380.0	0.0003887	118.437999964
1380.0	0.0003887	118.485000134
1380.0	0.0003887	118.516000032
1380.0	0.0003886	118.562999964
1380.0	0.0003888	118.610000134
1380.0	0.000389	118.641000032
1380.0	0.0003893	118.687999964
1380.0	0.0003892	118.735000134
1380.0	0.000389	118.766000032
1380.0	0.0003887	118.812999964
1380.0	0.0003883	118.844000101
1380.0	0.0003881	118.891000032
1380.0	0.0003875	118.937999964
1380.0	0.0003871	118.969000101
1380.0	0.0003868	119.016000032
1380.0	0.000387	119.062999964
1380.0	0.0003873	119.094000101
1380.0	0.0003876	119.141000032
1380.0	0.0003881	119.187999964
1380.0	0.0003886	119.219000101
1380.0	0.0003892	119.266000032
1380.0	0.0003892	119.296999931
1380.0	0.000389	119.344000101
1380.0	0.000389	119.391000032
1380.0	0.0003892	119.421999931
1380.0	0.0003888	119.469000101
1380.0	0.0003887	119.5
1380.0	0.0003886	119.546999931
1380.0	0.0003882	119.594000101
1390.0	0.0003805	119.860000134
1390.0	0.0003776	119.907000065
1390.0	0.0003755	119.937999964
1390.0	0.0003737	119.985000134
1390.0	0.0003726	120.016000032
1390.0	0.0003715	120.062999964
1390.0	0.0003708	120.110000134
1390.0	0.0003706	120.141000032
1390.0	0.0003702	120.187999964
1390.0	0.0003701	120.235000134
1390.0	0.00037	120.266000032
1390.0	0.0003701	120.312999964
1390.0	0.0003701	120.344000101
1390.0	0.0003701	120.391000032
1390.0	0.00037	120.437999964
1390.0	0.0003695	120.469000101
1390.0	0.0003692	120.516000032
1390.0	0.000369	120.562999964
1390.0	0.0003683	120.594000101
1390.0	0.0003683	120.641000032
1390.0	0.0003686	120.671999931
1390.0	0.0003682	120.719000101
1390.0	0.000368	120.766000032
1390.0	0.000368	120.796999931
1390.0	0.000368	120.844000101
1390.0	0.0003677	120.891000032
1390.0	0.0003681	120.921999931
1390.0	0.0003683	120.969000101
1390.0	0.0003681	121.0
1390.0	0.0003682	121.046999931
1390.0	0.0003683	121.094000101
1390.0	0.0003686	121.125
1390.0	0.0003688	121.171999931
1390.0	0.0003692	121.219000101
1390.0	0.0003688	121.25
1390.0	0.0003688	121.296999931
1390.0	0.000369	121.328999996
1400.0	0.000364	121.610000134
1400.0	0.0003627	121.641000032
1400.0	0.0003615	121.687999964
1400.0	0.0003602	121.719000101
1400.0	0.000359	121.766000032
1400.0	0.0003583	121.812999964
1400.0	0.0003577	121.844000101
1400.0	0.0003575	121.891000032
1400.0	0.000357	121.937999964
1400.0	0.0003563	121.969000101
1400.0	0.0003557	122.016000032
1400.0	0.0003557	122.062999964
1400.0	0.0003558	122.094000101
1400.0	0.0003558	122.141000032
1400.0	0.0003558	122.171999931
1400.0	0.0003558	122.219000101
1400.0	0.0003556	122.266000032
1400.0	0.0003555	122.296999931
1400.0	0.0003556	122.344000101
1400.0	0.0003555	122.375
1400.0	0.0003556	122.421999931
1400.0	0.0003557	122.469000101
1400.0	0.0003561	122.5
1400.0	0.0003565	122.546999931
1400.0	0.0003567	122.594000101
1400.0	0.0003563	122.625
1400.0	0.0003561	122.671999931
1400.0	0.0003561	122.719000101
1400.0	0.0003562	122.75
1400.0	0.0003567	122.796999931
1400.0	0.0003568	122.828999996
1400.0	0.0003567	122.875
1400.0	0.0003563	122.921999931
1400.0	0.0003563	122.953999996
1400.0	0.0003561	123.0
1400.0	0.0003558	123.046999931
1400.0	0.0003557	123.078999996
1410.0	0.0003538	123.344000101
1410.0	0.0003536	123.391000032
1410.0	0.0003536	123.437999964
1410.0	0.0003532	123.469000101
1410.0	0.000353	123.516000032
1410.0	0.0003523	123.546999931
1410.0	0.000352	123.594000101
1410.0	0.0003517	123.641000032
1410.0	0.0003515	123.671999931
1410.0	0.0003513	123.719000101
1410.0	0.0003512	123.766000032
1410.0	0.0003508	123.796999931
1410.0	0.0003508	123.844000101
1410.0	0.0003508	123.875
1410.0	0.0003508	123.921999931
1410.0	0.0003507	123.969000101
1410.0	0.0003505	124.0
1410.0	0.0003501	124.046999931
1410.0	0.00035	124.094000101
1410.0	0.0003502	124.125
1410.0	0.0003502	124.171999931
1410.0	0.0003501	124.203999996
1410.0	0.0003505	124.25
1410.0	0.0003505	124.296999931
1410.0	0.0003502	124.328999996
1410.0	0.0003505	124.375
1410.0	0.0003501	124.421999931
1410.0	0.0003498	124.453999996
1410.0	0.0003501	124.5
1410.0	0.0003506	124.546999931
1410.0	0.0003507	124.578999996
1410.0	0.0003507	124.625
1410.0	0.0003506	124.657000065
1410.0	0.0003501	124.703999996
1410.0	0.0003496	124.75
1410.0	0.0003498	124.782000065
1410.0	0.00035	124.828999996
1420.0	0.0003498	125.094000101
1420.0	0.00035	125.141000032
1420.0	0.0003498	125.171999931
1420.0	0.0003495	125.219000101
1420.0	0.0003495	125.266000032
1420.0	0.0003495	125.296999931
1420.0	0.0003496	125.344000101
1420.0	0.0003498	125.375
1420.0	0.0003498	125.421999931
1420.0	0.0003495	125.469000101
1420.0	0.0003495	125.5
1420.0	0.0003495	125.546999931
1420.0	0.0003493	125.594000101
1420.0	0.0003493	125.625
1420.0	0.0003496	125.671999931
1420.0	0.00035	125.703999996
1420.0	0.00035	125.75
1420.0	0.00035	125.796999931
1420.0	0.00035	125.828999996
1420.0	0.0003505	125.875
1420.0	0.0003508	125.921999931
1420.0	0.0003511	125.953999996
1420.0	0.0003512	126.0
1420.0	0.0003515	126.032000065
1420.0	0.0003518	126.078999996
1420.0	0.0003517	126.125
1420.0	0.0003515	126.157000065
1420.0	0.0003515	126.203999996
1420.0	0.0003515	126.25
1420.0	0.0003515	126.282000065
1420.0	0.0003513	126.328999996
1420.0	0.0003511	126.375
1420.0	0.0003507	126.407000065
1420.0	0.0003505	126.453999996
1420.0	0.0003502	126.485000134
1420.0	0.0003502	126.532000065
1420.0	0.0003505	126.578999996
1430.0	0.0003532	126.844000101
1430.0	0.0003542	126.875
1430.0	0.0003548	126.921999931
1430.0	0.000355	126.969000101
1430.0	0.0003552	127.0
1430.0	0.0003557	127.046999931
1430.0	0.0003558	127.078999996
1430.0	0.0003558	127.125
1430.0	0.0003561	127.171999931
1430.0	0.0003561	127.203999996
1430.0	0.0003557	127.25
1430.0	0.0003557	127.296999931
1430.0	0.0003557	127.328999996
1430.0	0.0003558	127.375
1430.0	0.0003565	127.421999931
1430.0	0.0003567	127.453999996
1430.0	0.0003567	127.5
1430.0	0.0003565	127.532000065
1430.0	0.0003567	127.578999996
1430.0	0.000357	127.625
1430.0	0.0003567	127.657000065
1430.0	0.0003562	127.703999996
1430.0	0.0003557	127.75
1430.0	0.0003552	127.782000065
1430.0	0.0003552	127.828999996
1430.0	0.0003552	127.860000134
1430.0	0.0003555	127.907000065
1430.0	0.0003558	127.953999996
1430.0	0.0003563	127.985000134
1430.0	0.0003562	128.032000065
1430.0	0.0003561	128.078999996
1430.0	0.0003557	128.110000134
1430.0	0.0003555	128.157000065
1430.0	0.0003556	128.187999964
1430.0	0.0003558	128.235000134
1430.0	0.0003558	128.282000065
1430.0	0.0003556	128.312999964
1440.0	0.0003602	128.578999996
1440.0	0.0003613	128.625
1440.0	0.0003623	128.671999931
1440.0	0.0003632	128.703999996
1440.0	0.0003637	128.75
1440.0	0.000364	128.796999931
1440.0	0.0003645	128.828999996
1440.0	0.000365	128.875
1440.0	0.0003655	128.907000065
1440.0	0.0003655	128.953999996
1440.0	0.0003655	129.0
1440.0	0.0003651	129.032000065
1440.0	0.0003655	129.078999996
1440.0	0.0003657	129.125
1440.0	0.0003655	129.157000065
1440.0	0.0003655	129.203999996
1440.0	0.0003651	129.25
1440.0	0.000365	129.282000065
1440.0	0.0003648	129.328999996
1440.0	0.0003648	129.360000134
1440.0	0.0003645	129.407000065
1440.0	0.0003642	129.453999996
1440.0	0.0003645	129.485000134
1440.0	0.0003646	129.532000065
1440.0	0.000365	129.578999996
1440.0	0.0003652	129.610000134
1440.0	0.0003655	129.657000065
1440.0	0.0003655	129.687999964
1440.0	0.0003656	129.735000134
1440.0	0.0003657	129.782000065
1440.0	0.0003657	129.812999964
1440.0	0.0003656	129.860000134
1440.0	0.0003656	129.907000065
1440.0	0.0003652	129.937999964
1440.0	0.0003651	129.985000134
1440.0	0.0003655	130.016000032
1440.0	0.0003656	130.062999964
1450.0	0.000369	130.328999996
1450.0	0.0003705	130.375
1450.0	0.0003715	130.407000065
1450.0	0.0003726	130.453999996
1450.0	0.0003736	130.485000134
1450.0	0.0003745	130.532000065
1450.0	0.000375	130.578999996
1450.0	0.0003755	130.610000134
1450.0	0.0003756	130.657000065
1450.0	0.0003752	130.703999996
1450.0	0.0003755	130.735000134
1450.0	0.0003756	130.782000065
1450.0	0.0003755	130.812999964
1450.0	0.0003752	130.860000134
1450.0	0.000375	130.907000065
1450.0	0.0003748	130.937999964
1450.0	0.0003745	130.985000134
1450.0	0.0003748	131.032000065
1450.0	0.0003751	131.062999964
1450.0	0.0003751	131.110000134
1450.0	0.000375	131.157000065
1450.0	0.0003748	131.187999964
1450.0	0.0003748	131.235000134
1450.0	0.000375	131.266000032
1450.0	0.0003748	131.312999964
1450.0	0.0003748	131.360000134
1450.0	0.0003748	131.391000032
1450.0	0.0003748	131.437999964
1450.0	0.000375	131.485000134
1450.0	0.000375	131.516000032
1450.0	0.0003755	131.562999964
1450.0	0.0003756	131.594000101
1450.0	0.0003755	131.641000032
1450.0	0.0003752	131.687999964
1450.0	0.0003752	131.719000101
1450.0	0.0003751	131.766000032
1450.0	0.0003751	131.812999964
1460.0	0.0003786	132.062999964
1460.0	0.0003795	132.110000134
1460.0	0.0003805	132.157000065
1460.0	0.0003811	132.187999964
1460.0	0.0003815	132.235000134
1460.0	0.0003821	132.282000065
1460.0	0.0003827	132.312999964
1460.0	0.0003831	132.360000134
1460.0	0.0003836	132.391000032
1460.0	0.0003836	132.437999964
1460.0	0.0003836	132.485000134
1460.0	0.0003837	132.516000032
1460.0	0.000384	132.562999964
1460.0	0.0003845	132.610000134
1460.0	0.0003848	132.641000032
1460.0	0.0003851	132.687999964
1460.0	0.0003852	132.719000101
1460.0	0.0003848	132.766000032
1460.0	0.0003842	132.812999964
1460.0	0.0003838	132.844000101
1460.0	0.0003836	132.891000032
1460.0	0.0003833	132.937999964
1460.0	0.0003837	132.969000101
1460.0	0.0003838	133.016000032
1460.0	0.0003843	133.046999931
1460.0	0.0003845	133.094000101
1460.0	0.0003846	133.141000032
1460.0	0.0003848	133.171999931
1460.0	0.0003846	133.219000101
1460.0	0.0003846	133.266000032
1460.0	0.0003846	133.296999931
1460.0	0.0003845	133.344000101
1460.0	0.0003846	133.375
1460.0	0.0003848	133.421999931
1460.0	0.0003846	133.469000101
1460.0	0.000385	133.5
1460.0	0.000385	133.546999931
1470.0	0.0003875	133.812999964
1470.0	0.0003882	133.860000134
1470.0	0.0003887	133.907000065
1470.0	0.0003892	133.937999964
1470.0	0.0003896	133.985000134
1470.0	0.00039	134.032000065
1470.0	0.0003905	134.062999964
1470.0	0.0003906	134.110000134
1470.0	0.0003908	134.141000032
1470.0	0.0003908	134.187999964
1470.0	0.0003912	134.235000134
1470.0	0.0003913	134.266000032
1470.0	0.0003915	134.312999964
1470.0	0.0003917	134.360000134
1470.0	0.0003921	134.391000032
1470.0	0.0003923	134.437999964
1470.0	0.0003923	134.469000101
1470.0	0.0003923	134.516000032
1470.0	0.000392	134.562999964
1470.0	0.0003918	134.594000101
1470.0	0.0003917	134.641000032
1470.0	0.0003917	134.687999964
1470.0	0.000392	134.719000101
1470.0	0.0003925	134.766000032
1470.0	0.000393	134.796999931
1470.0	0.000393	134.844000101
1470.0	0.0003931	134.891000032
1470.0	0.0003927	134.921999931
1470.0	0.0003926	134.969000101
1470.0	0.0003925	135.016000032
1470.0	0.0003925	135.046999931
1470.0	0.0003921	135.094000101
1470.0	0.000392	135.125
1470.0	0.0003915	135.171999931
1470.0	0.0003917	135.219000101
1470.0	0.0003915	135.25
1470.0	0.0003918	135.296999931
1480.0	0.0003932	135.562999964
1480.0	0.0003936	135.610000134
1480.0	0.0003938	135.641000032
1480.0	0.0003937	135.687999964
1480.0	0.000394	135.735000134
1480.0	0.0003946	135.766000032
1480.0	0.0003955	135.812999964
1480.0	0.0003957	135.860000134
1480.0	0.0003963	135.891000032
1480.0	0.0003965	135.937999964
1480.0	0.0003968	135.969000101
1480.0	0.000397	136.016000032
1480.0	0.0003971	136.062999964
1480.0	0.0003975	136.094000101
1480.0	0.0003976	136.141000032
1480.0	0.0003976	136.171999931
1480.0	0.0003977	136.219000101
1480.0	0.0003981	136.266000032
1480.0	0.0003983	136.296999931
1480.0	0.0003986	136.344000101
1480.0	0.0003986	136.391000032
1480.0	0.0003983	136.421999931
1480.0	0.000398	136.469000101
1480.0	0.0003975	136.5
1480.0	0.0003975	136.546999931
1480.0	0.0003976	136.594000101
1480.0	0.0003976	136.625
1480.0	0.0003977	136.671999931
1480.0	0.000398	136.719000101
1480.0	0.0003981	136.75
1480.0	0.0003982	136.796999931
1480.0	0.0003982	136.844000101
1480.0	0.000398	136.875
1480.0	0.0003975	136.921999931
1480.0	0.0003971	136.953999996
1480.0	0.0003971	137.0
1480.0	0.0003971	137.046999931
1490.0	0.0003981	137.312999964
1490.0	0.0003986	137.360000134
1490.0	0.0003992	137.391000032
1490.0	0.0003998	137.437999964
1490.0	0.0004001	137.485000134
1490.0	0.0004006	137.516000032
1490.0	0.0004011	137.562999964
1490.0	0.0004015	137.594000101
1490.0	0.000402	137.641000032
1490.0	0.0004025	137.687999964
1490.0	0.0004026	137.719000101
1490.0	0.0004025	137.766000032
1490.0	0.0004025	137.812999964
1490.0	0.0004025	137.844000101
1490.0	0.0004021	137.891000032
1490.0	0.0004021	137.937999964
1490.0	0.0004021	137.969000101
1490.0	0.000402	138.016000032
1490.0	0.0004017	138.046999931
1490.0	0.0004013	138.094000101
1490.0	0.0004012	138.141000032
1490.0	0.0004013	138.171999931
1490.0	0.0004015	138.219000101
1490.0	0.0004015	138.25
1490.0	0.0004013	138.296999931
1490.0	0.0004013	138.344000101
1490.0	0.0004012	138.375
1490.0	0.0004011	138.421999931
1490.0	0.0004011	138.469000101
1490.0	0.0004007	138.5
1490.0	0.0004006	138.546999931
1490.0	0.0004013	138.594000101
1490.0	0.0004017	138.625
1490.0	0.0004013	138.671999931
1490.0	0.0004012	138.703999996
1490.0	0.0004012	138.75
1490.0	0.0004011	138.796999931
1500.0	0.0004021	139.062999964
1500.0	0.0004023	139.110000134
1500.0	0.0004025	139.141000032
1500.0	0.0004026	139.187999964
1500.0	0.0004026	139.235000134
1500.0	0.0004027	139.266000032
1500.0	0.0004031	139.312999964
1500.0	0.0004032	139.344000101
1500.0	0.0004031	139.391000032
1500.0	0.0004032	139.437999964
1500.0	0.0004032	139.469000101
1500.0	0.0004033	139.516000032
1500.0	0.0004033	139.562999964
1500.0	0.0004031	139.594000101
1500.0	0.0004031	139.641000032
1500.0	0.0004027	139.671999931
1500.0	0.000403	139.719000101
1500.0	0.000403	139.766000032
1500.0	0.0004031	139.796999931
1500.0	0.0004033	139.844000101
1500.0	0.0004033	139.891000032
1500.0	0.0004033	139.921999931
1500.0	0.0004037	139.969000101
1500.0	0.0004036	140.0
1500.0	0.0004033	140.046999931
1500.0	0.0004038	140.094000101
1500.0	0.0004042	140.125
1500.0	0.0004042	140.171999931
1500.0	0.0004045	140.219000101
1500.0	0.0004048	140.25
1500.0	0.0004048	140.296999931
1500.0	0.000405	140.328999996
1500.0	0.0004055	140.375
1500.0	0.0004058	140.421999931
1500.0	0.0004057	140.453999996
1500.0	0.0004057	140.5
1500.0	0.0004055	140.546999931
1510.0	0.0004055	140.812999964
1510.0	0.0004052	140.860000134
1510.0	0.0004055	140.907000065
1510.0	0.0004055	140.937999964
1510.0	0.0004051	140.985000134
1510.0	0.0004051	141.016000032
1510.0	0.0004052	141.062999964
1510.0	0.0004056	141.110000134
1510.0	0.0004058	141.141000032
1510.0	0.0004061	141.187999964
1510.0	0.0004065	141.235000134
1510.0	0.0004068	141.266000032
1510.0	0.0004071	141.312999964
1510.0	0.0004075	141.344000101
1510.0	0.0004073	141.391000032
1510.0	0.000407	141.437999964
1510.0	0.000407	141.469000101
1510.0	0.0004071	141.516000032
1510.0	0.0004071	141.562999964
1510.0	0.0004071	141.594000101
1510.0	0.0004073	141.641000032
1510.0	0.0004075	141.671999931
1510.0	0.0004073	141.719000101
1510.0	0.0004073	141.766000032
1510.0	0.0004071	141.796999931
1510.0	0.000407	141.844000101
1510.0	0.0004068	141.891000032
1510.0	0.0004067	141.921999931
1510.0	0.0004067	141.969000101
1510.0	0.0004067	142.0
1510.0	0.0004067	142.046999931
1510.0	0.0004065	142.094000101
1510.0	0.0004067	142.125
1510.0	0.0004068	142.171999931
1510.0	0.000407	142.219000101
1510.0	0.000407	142.25
1510.0	0.0004068	142.296999931
1520.0	0.0004068	142.562999964
1520.0	0.0004071	142.610000134
1520.0	0.0004071	142.657000065
1520.0	0.0004075	142.687999964
1520.0	0.0004077	142.735000134
1520.0	0.0004077	142.766000032
1520.0	0.0004076	142.812999964
1520.0	0.0004076	142.860000134
1520.0	0.0004075	142.891000032
1520.0	0.0004073	142.937999964
1520.0	0.000408	142.985000134
1520.0	0.0004081	143.016000032
1520.0	0.000408	143.062999964
1520.0	0.0004081	143.094000101
1520.0	0.0004081	143.141000032
1520.0	0.000408	143.187999964
1520.0	0.0004075	143.219000101
1520.0	0.0004077	143.266000032
1520.0	0.0004076	143.312999964
1520.0	0.0004075	143.344000101
1520.0	0.0004076	143.391000032
1520.0	0.0004077	143.421999931
1520.0	0.0004075	143.469000101
1520.0	0.0004071	143.516000032
1520.0	0.0004071	143.546999931
1520.0	0.000407	143.594000101
1520.0	0.0004068	143.641000032
1520.0	0.0004068	143.671999931
1520.0	0.0004068	143.719000101
1520.0	0.000407	143.75
1520.0	0.0004071	143.796999931
1520.0	0.000407	143.844000101
1520.0	0.0004065	143.875
1520.0	0.0004065	143.921999931
1520.0	0.0004068	143.969000101
1520.0	0.0004068	144.0
1520.0	0.000407	144.046999931
1530.0	0.0004071	144.312999964
1530.0	0.000407	144.360000134
1530.0	0.0004068	144.407000065
1530.0	0.0004067	144.437999964
1530.0	0.0004067	144.485000134
1530.0	0.0004065	144.532000065
1530.0	0.0004062	144.562999964
1530.0	0.0004058	144.610000134
1530.0	0.0004057	144.657000065
1530.0	0.0004051	144.687999964
1530.0	0.0004043	144.735000134
1530.0	0.0004045	144.766000032
1530.0	0.0004046	144.812999964
1530.0	0.0004046	144.860000134
1530.0	0.0004048	144.891000032
1530.0	0.0004046	144.937999964
1530.0	0.0004048	144.985000134
1530.0	0.000405	145.016000032
1530.0	0.000405	145.062999964
1530.0	0.0004051	145.094000101
1530.0	0.000405	145.141000032
1530.0	0.000405	145.187999964
1530.0	0.0004046	145.219000101
1530.0	0.0004046	145.266000032
1530.0	0.000405	145.312999964
1530.0	0.0004052	145.344000101
1530.0	0.0004056	145.391000032
1530.0	0.0004058	145.421999931
1530.0	0.0004061	145.469000101
1530.0	0.0004061	145.516000032
1530.0	0.0004062	145.546999931
1530.0	0.0004065	145.594000101
1530.0	0.0004062	145.641000032
1530.0	0.0004057	145.671999931
1530.0	0.0004058	145.719000101
1530.0	0.0004057	145.75
1530.0	0.0004061	145.796999931
1540.0	0.0004037	146.078999996
1540.0	0.0004033	146.110000134
1540.0	0.0004032	146.157000065
1540.0	0.0004025	146.203999996
1540.0	0.000402	146.235000134
1540.0	0.000402	146.282000065
1540.0	0.000402	146.328999996
1540.0	0.000402	146.360000134
1540.0	0.0004017	146.407000065
1540.0	0.0004013	146.437999964
1540.0	0.0004013	146.485000134
1540.0	0.0004015	146.532000065
1540.0	0.0004015	146.562999964
1540.0	0.0004011	146.610000134
1540.0	0.0004008	146.657000065
1540.0	0.0004008	146.687999964
1540.0	0.0004008	146.735000134
1540.0	0.0004008	146.766000032
1540.0	0.0004007	146.812999964
1540.0	0.0004006	146.860000134
1540.0	0.0004005	146.891000032
1540.0	0.0004001	146.937999964
1540.0	0.0004	146.985000134
1540.0	0.0003996	147.016000032
1540.0	0.0003998	147.062999964
1540.0	0.0004001	147.094000101
1540.0	0.0004005	147.141000032
1540.0	0.0004008	147.187999964
1540.0	0.0004012	147.219000101
1540.0	0.0004017	147.266000032
1540.0	0.000402	147.312999964
1540.0	0.0004021	147.344000101
1540.0	0.0004018	147.391000032
1540.0	0.0004013	147.421999931
1540.0	0.0004017	147.469000101
1540.0	0.0004013	147.516000032
1540.0	0.0004012	147.546999931
1550.0	0.0003981	147.828999996
1550.0	0.0003968	147.875
1550.0	0.0003957	147.907000065
1550.0	0.000395	147.953999996
1550.0	0.0003945	147.985000134
1550.0	0.0003942	148.032000065
1550.0	0.0003943	148.078999996
1550.0	0.0003942	148.110000134
1550.0	0.0003943	148.157000065
1550.0	0.000394	148.203999996
1550.0	0.0003938	148.235000134
1550.0	0.000394	148.282000065
1550.0	0.0003942	148.328999996
1550.0	0.0003942	148.360000134
1550.0	0.0003942	148.407000065
1550.0	0.0003942	148.437999964
1550.0	0.0003936	148.485000134
1550.0	0.0003932	148.532000065
1550.0	0.0003931	148.562999964
1550.0	0.000393	148.610000134
1550.0	0.0003927	148.657000065
1550.0	0.000393	148.687999964
1550.0	0.0003933	148.735000134
1550.0	0.0003933	148.766000032
1550.0	0.0003938	148.812999964
1550.0	0.0003942	148.860000134
1550.0	0.0003942	148.891000032
1550.0	0.000394	148.937999964
1550.0	0.0003938	148.985000134
1550.0	0.0003938	149.016000032
1550.0	0.0003938	149.062999964
1550.0	0.0003942	149.094000101
1550.0	0.0003938	149.141000032
1550.0	0.0003936	149.187999964
1550.0	0.0003932	149.219000101
1550.0	0.0003931	149.266000032
1550.0	0.0003931	149.312999964
1560.0	0.0003902	149.578999996
1560.0	0.0003883	149.625
1560.0	0.0003867	149.657000065
1560.0	0.0003848	149.703999996
1560.0	0.0003836	149.75
1560.0	0.0003826	149.782000065
1560.0	0.000382	149.828999996
1560.0	0.0003817	149.875
1560.0	0.0003818	149.907000065
1560.0	0.0003818	149.953999996
1560.0	0.0003817	149.985000134
1560.0	0.0003817	150.032000065
1560.0	0.0003817	150.078999996
1560.0	0.0003817	150.110000134
1560.0	0.0003817	150.157000065
1560.0	0.0003815	150.203999996
1560.0	0.0003813	150.235000134
1560.0	0.0003811	150.282000065
1560.0	0.0003806	150.328999996
1560.0	0.0003805	150.360000134
1560.0	0.0003805	150.407000065
1560.0	0.0003807	150.437999964
1560.0	0.0003811	150.485000134
1560.0	0.0003813	150.532000065
1560.0	0.0003817	150.562999964
1560.0	0.0003817	150.610000134
1560.0	0.000382	150.657000065
1560.0	0.0003823	150.687999964
1560.0	0.0003825	150.735000134
1560.0	0.0003825	150.766000032
1560.0	0.0003825	150.812999964
1560.0	0.0003826	150.860000134
1560.0	0.0003827	150.891000032
1560.0	0.0003823	150.937999964
1560.0	0.0003821	150.985000134
1560.0	0.0003821	151.016000032
1560.0	0.0003823	151.062999964
1570.0	0.0003763	151.328999996
1570.0	0.0003743	151.375
1570.0	0.000373	151.421999931
1570.0	0.0003717	151.453999996
1570.0	0.0003706	151.5
1570.0	0.0003696	151.546999931
1570.0	0.0003692	151.578999996
1570.0	0.0003686	151.625
1570.0	0.000368	151.657000065
1570.0	0.000368	151.703999996
1570.0	0.0003677	151.75
1570.0	0.0003675	151.782000065
1570.0	0.0003675	151.828999996
1570.0	0.0003673	151.875
1570.0	0.0003671	151.907000065
1570.0	0.0003673	151.953999996
1570.0	0.0003676	152.0
1570.0	0.0003676	152.032000065
1570.0	0.000368	152.078999996
1570.0	0.0003676	152.110000134
1570.0	0.0003673	152.157000065
1570.0	0.0003673	152.203999996
1570.0	0.0003671	152.235000134
1570.0	0.0003667	152.282000065
1570.0	0.0003663	152.328999996
1570.0	0.0003667	152.360000134
1570.0	0.000367	152.407000065
1570.0	0.0003673	152.437999964
1570.0	0.0003671	152.485000134
1570.0	0.000367	152.532000065
1570.0	0.0003665	152.562999964
1570.0	0.0003663	152.610000134
1570.0	0.0003667	152.657000065
1570.0	0.0003665	152.687999964
1570.0	0.0003663	152.735000134
1570.0	0.0003662	152.766000032
1570.0	0.0003657	152.812999964
1580.0	0.0003595	153.094000101
1580.0	0.000357	153.125
1580.0	0.0003552	153.171999931
1580.0	0.0003533	153.219000101
1580.0	0.000352	153.25
1580.0	0.0003506	153.296999931
1580.0	0.0003498	153.328999996
1580.0	0.000349	153.375
1580.0	0.0003486	153.421999931
1580.0	0.0003483	153.453999996
1580.0	0.0003476	153.5
1580.0	0.0003473	153.546999931
1580.0	0.0003471	153.578999996
1580.0	0.0003475	153.625
1580.0	0.0003476	153.657000065
1580.0	0.0003475	153.703999996
1580.0	0.0003475	153.75
1580.0	0.0003471	153.782000065
1580.0	0.000347	153.828999996
1580.0	0.0003471	153.875
1580.0	0.000347	153.907000065
1580.0	0.000347	153.953999996
1580.0	0.0003468	154.0
1580.0	0.0003468	154.032000065
1580.0	0.0003468	154.078999996
1580.0	0.0003468	154.110000134
1580.0	0.0003467	154.157000065
1580.0	0.0003467	154.203999996
1580.0	0.0003471	154.235000134
1580.0	0.0003475	154.282000065
1580.0	0.0003475	154.328999996
1580.0	0.0003473	154.360000134
1580.0	0.0003475	154.407000065
1580.0	0.0003473	154.437999964
1580.0	0.0003475	154.485000134
1580.0	0.0003473	154.532000065
1580.0	0.000347	154.562999964
1590.0	0.00034	154.844000101
1590.0	0.0003371	154.891000032
1590.0	0.000335	154.921999931
1590.0	0.0003327	154.969000101
1590.0	0.0003307	155.0
1590.0	0.0003292	155.046999931
1590.0	0.0003283	155.094000101
1590.0	0.0003273	155.125
1590.0	0.0003267	155.171999931
1590.0	0.0003265	155.219000101
1590.0	0.0003265	155.25
1590.0	0.0003262	155.296999931
1590.0	0.0003258	155.328999996
1590.0	0.0003257	155.375
1590.0	0.0003251	155.421999931
1590.0	0.0003251	155.453999996
1590.0	0.0003255	155.5
1590.0	0.0003256	155.546999931
1590.0	0.0003258	155.578999996
1590.0	0.0003258	155.625
1590.0	0.0003258	155.671999931
1590.0	0.0003256	155.703999996
1590.0	0.0003258	155.75
1590.0	0.0003257	155.782000065
1590.0	0.0003255	155.828999996
1590.0	0.0003251	155.875
1590.0	0.0003248	155.907000065
1590.0	0.0003248	155.953999996
1590.0	0.0003246	156.0
1590.0	0.0003245	156.032000065
1590.0	0.0003245	156.078999996
1590.0	0.0003248	156.110000134
1590.0	0.0003252	156.157000065
1590.0	0.0003255	156.203999996
1590.0	0.0003256	156.235000134
1590.0	0.0003258	156.282000065
1590.0	0.0003261	156.328999996
1600.0	0.0003172	156.594000101
1600.0	0.0003146	156.641000032
1600.0	0.0003118	156.671999931
1600.0	0.0003095	156.719000101
1600.0	0.0003075	156.75
1600.0	0.0003057	156.796999931
1600.0	0.0003046	156.844000101
1600.0	0.0003037	156.875
1600.0	0.0003027	156.921999931
1600.0	0.0003021	156.969000101
1600.0	0.0003021	157.0
1600.0	0.0003021	157.046999931
1600.0	0.0003018	157.078999996
1600.0	0.0003015	157.125
1600.0	0.0003015	157.171999931
1600.0	0.0003013	157.203999996
1600.0	0.0003012	157.25
1600.0	0.0003013	157.296999931
1600.0	0.0003012	157.328999996
1600.0	0.0003012	157.375
1600.0	0.0003012	157.407000065
1600.0	0.0003013	157.453999996
1600.0	0.0003015	157.5
1600.0	0.0003015	157.532000065
1600.0	0.0003015	157.578999996
1600.0	0.0003015	157.625
1600.0	0.0003015	157.657000065
1600.0	0.0003015	157.703999996
1600.0	0.0003012	157.75
1600.0	0.0003008	157.782000065
1600.0	0.0003007	157.828999996
1600.0	0.0003007	157.860000134
1600.0	0.0003007	157.907000065
1600.0	0.0003008	157.953999996
1600.0	0.000301	157.985000134
1600.0	0.000301	158.032000065
1600.0	0.0003008	158.078999996
1610.0	0.0002922	158.344000101
1610.0	0.000289	158.391000032
1610.0	0.0002858	158.437999964
1610.0	0.0002831	158.469000101
1610.0	0.000281	158.516000032
1610.0	0.0002791	158.562999964
1610.0	0.0002781	158.594000101
1610.0	0.0002771	158.641000032
1610.0	0.0002765	158.671999931
1610.0	0.0002762	158.719000101
1610.0	0.0002765	158.766000032
1610.0	0.0002762	158.796999931
1610.0	0.000276	158.844000101
1610.0	0.0002765	158.891000032
1610.0	0.0002763	158.921999931
1610.0	0.0002757	158.969000101
1610.0	0.0002757	159.0
1610.0	0.0002756	159.046999931
1610.0	0.0002757	159.094000101
1610.0	0.000276	159.125
1610.0	0.000276	159.171999931
1610.0	0.0002758	159.219000101
1610.0	0.0002757	159.25
1610.0	0.0002753	159.296999931
1610.0	0.000275	159.328999996
1610.0	0.0002746	159.375
1610.0	0.0002746	159.421999931
1610.0	0.0002747	159.453999996
1610.0	0.0002747	159.5
1610.0	0.000275	159.546999931
1610.0	0.0002747	159.578999996
1610.0	0.000275	159.625
1610.0	0.0002751	159.671999931
1610.0	0.0002752	159.703999996
1610.0	0.0002752	159.75
1610.0	0.0002752	159.782000065
1610.0	0.0002753	159.828999996
1620.0	0.0002662	160.110000134
1620.0	0.0002631	160.141000032
1620.0	0.00026	160.187999964
1620.0	0.0002575	160.235000134
1620.0	0.0002556	160.266000032
1620.0	0.000254	160.312999964
1620.0	0.0002526	160.344000101
1620.0	0.000252	160.391000032
1620.0	0.0002515	160.437999964
1620.0	0.0002512	160.469000101
1620.0	0.000251	160.516000032
1620.0	0.0002512	160.562999964
1620.0	0.0002512	160.594000101
1620.0	0.000251	160.641000032
1620.0	0.0002506	160.671999931
1620.0	0.0002501	160.719000101
1620.0	0.0002496	160.766000032
1620.0	0.0002496	160.796999931
1620.0	0.0002493	160.844000101
1620.0	0.0002491	160.891000032
1620.0	0.000249	160.921999931
1620.0	0.0002487	160.969000101
1620.0	0.0002482	161.0
1620.0	0.0002481	161.046999931
1620.0	0.0002481	161.094000101
1620.0	0.0002481	161.125
1620.0	0.0002482	161.171999931
1620.0	0.0002483	161.219000101
1620.0	0.0002485	161.25
1620.0	0.0002482	161.296999931
1620.0	0.0002481	161.344000101
1620.0	0.0002482	161.375
1620.0	0.0002485	161.421999931
1620.0	0.0002488	161.453999996
1620.0	0.0002487	161.5
1620.0	0.0002487	161.546999931
1620.0	0.0002487	161.578999996
1630.0	0.0002403	161.860000134
1630.0	0.0002372	161.907000065
1630.0	0.0002343	161.937999964
1630.0	0.0002322	161.985000134
1630.0	0.0002301	162.032000065
1630.0	0.0002281	162.062999964
1630.0	0.0002266	162.110000134
1630.0	0.0002253	162.157000065
1630.0	0.0002246	162.187999964
1630.0	0.000224	162.235000134
1630.0	0.0002238	162.266000032
1630.0	0.0002237	162.312999964
1630.0	0.0002238	162.360000134
1630.0	0.0002235	162.391000032
1630.0	0.0002232	162.437999964
1630.0	0.0002227	162.485000134
1630.0	0.0002227	162.516000032
1630.0	0.0002228	162.562999964
1630.0	0.0002228	162.610000134
1630.0	0.0002227	162.641000032
1630.0	0.0002228	162.687999964
1630.0	0.0002227	162.719000101
1630.0	0.0002227	162.766000032
1630.0	0.0002231	162.812999964
1630.0	0.0002231	162.844000101
1630.0	0.0002227	162.891000032
1630.0	0.0002222	162.921999931
1630.0	0.0002222	162.969000101
1630.0	0.000222	163.016000032
1630.0	0.0002221	163.046999931
1630.0	0.0002226	163.094000101
1630.0	0.0002235	163.141000032
1630.0	0.0002238	163.171999931
1630.0	0.0002238	163.219000101
1630.0	0.0002237	163.266000032
1630.0	0.0002232	163.296999931
1630.0	0.0002231	163.344000101
1640.0	0.000214	163.625
1640.0	0.0002112	163.657000065
1640.0	0.0002082	163.703999996
1640.0	0.0002062	163.75
1640.0	0.0002045	163.782000065
1640.0	0.0002031	163.828999996
1640.0	0.000202	163.860000134
1640.0	0.0002013	163.907000065
1640.0	0.0002003	163.953999996
1640.0	0.0001996	163.985000134
1640.0	0.0001991	164.032000065
1640.0	0.0001988	164.078999996
1640.0	0.0001987	164.110000134
1640.0	0.0001988	164.157000065
1640.0	0.0001991	164.187999964
1640.0	0.0001991	164.235000134
1640.0	0.0001993	164.282000065
1640.0	0.0001993	164.312999964
1640.0	0.0001991	164.360000134
1640.0	0.0001987	164.407000065
1640.0	0.0001985	164.437999964
1640.0	0.0001983	164.485000134
1640.0	0.0001978	164.532000065
1640.0	0.0001981	164.562999964
1640.0	0.0001981	164.610000134
1640.0	0.0001978	164.641000032
1640.0	0.0001981	164.687999964
1640.0	0.0001981	164.735000134
1640.0	0.0001981	164.766000032
1640.0	0.0001978	164.812999964
1640.0	0.0001977	164.860000134
1640.0	0.0001975	164.891000032
1640.0	0.0001975	164.937999964
1640.0	0.0001976	164.969000101
1640.0	0.0001976	165.016000032
1640.0	0.0001976	165.062999964
1640.0	0.0001982	165.094000101
1650.0	0.000191	165.375
1650.0	0.0001883	165.421999931
1650.0	0.0001857	165.453999996
1650.0	0.0001835	165.5
1650.0	0.0001818	165.546999931
1650.0	0.0001802	165.578999996
1650.0	0.000179	165.625
1650.0	0.0001781	165.671999931
1650.0	0.0001776	165.703999996
1650.0	0.0001776	165.75
1650.0	0.0001777	165.782000065
1650.0	0.0001781	165.828999996
1650.0	0.0001778	165.875
1650.0	0.0001772	165.907000065
1650.0	0.0001766	165.953999996
1650.0	0.0001765	166.0
1650.0	0.0001765	166.032000065
1650.0	0.0001765	166.078999996
1650.0	0.000176	166.110000134
1650.0	0.0001758	166.157000065
1650.0	0.0001758	166.203999996
1650.0	0.0001757	166.235000134
1650.0	0.0001758	166.282000065
1650.0	0.0001762	166.328999996
1650.0	0.0001762	166.360000134
1650.0	0.0001763	166.407000065
1650.0	0.000176	166.453999996
1650.0	0.000176	166.485000134
1650.0	0.0001762	166.532000065
1650.0	0.0001766	166.562999964
1650.0	0.0001768	166.610000134
1650.0	0.0001768	166.657000065
1650.0	0.000177	166.687999964
1650.0	0.000177	166.735000134
1650.0	0.0001766	166.782000065
1650.0	0.0001765	166.812999964
1650.0	0.0001765	166.860000134
1660.0	0.0001688	167.141000032
1660.0	0.0001662	167.187999964
1660.0	0.0001641	167.219000101
1660.0	0.0001627	167.266000032
1660.0	0.000161	167.296999931
1660.0	0.0001597	167.344000101
1660.0	0.0001591	167.391000032
1660.0	0.0001588	167.421999931
1660.0	0.0001583	167.469000101
1660.0	0.0001578	167.516000032
1660.0	0.0001578	167.546999931
1660.0	0.0001577	167.594000101
1660.0	0.0001575	167.625
1660.0	0.0001572	167.671999931
1660.0	0.0001571	167.719000101
1660.0	0.0001575	167.75
1660.0	0.0001572	167.796999931
1660.0	0.0001572	167.844000101
1660.0	0.0001575	167.875
1660.0	0.0001576	167.921999931
1660.0	0.0001577	167.969000101
1660.0	0.0001576	168.0
1660.0	0.0001575	168.046999931
1660.0	0.0001577	168.078999996
1660.0	0.0001576	168.125
1660.0	0.0001576	168.171999931
1660.0	0.0001576	168.203999996
1660.0	0.0001577	168.25
1660.0	0.0001576	168.296999931
1660.0	0.0001576	168.328999996
1660.0	0.0001575	168.375
1660.0	0.0001572	168.407000065
1660.0	0.0001572	168.453999996
1660.0	0.0001575	168.5
1660.0	0.0001575	168.532000065
1660.0	0.000157	168.578999996
1660.0	0.0001566	168.625
1670.0	0.0001485	168.907000065
1670.0	0.0001463	168.953999996
1670.0	0.0001447	168.985000134
1670.0	0.0001435	169.032000065
1670.0	0.0001426	169.078999996
1670.0	0.000142	169.110000134
1670.0	0.0001416	169.157000065
1670.0	0.0001413	169.187999964
1670.0	0.0001408	169.235000134
1670.0	0.0001407	169.282000065
1670.0	0.0001406	169.312999964
1670.0	0.0001407	169.360000134
1670.0	0.0001408	169.407000065
1670.0	0.0001406	169.437999964
1670.0	0.0001403	169.485000134
1670.0	0.0001402	169.516000032
1670.0	0.0001402	169.562999964
1670.0	0.0001401	169.610000134
1670.0	0.0001401	169.641000032
1670.0	0.0001401	169.687999964
1670.0	0.0001396	169.735000134
1670.0	0.0001395	169.766000032
1670.0	0.0001396	169.812999964
1670.0	0.0001396	169.844000101
1670.0	0.0001397	169.891000032
1670.0	0.00014	169.937999964
1670.0	0.0001401	169.969000101
1670.0	0.0001397	170.016000032
1670.0	0.0001396	170.062999964
1670.0	0.0001395	170.094000101
1670.0	0.0001393	170.141000032
1670.0	0.0001395	170.171999931
1670.0	0.0001396	170.219000101
1670.0	0.00014	170.266000032
1670.0	0.0001406	170.296999931
1670.0	0.0001402	170.344000101
1670.0	0.0001401	170.391000032
1680.0	0.0001335	170.671999931
1680.0	0.0001318	170.703999996
1680.0	0.0001306	170.75
1680.0	0.0001295	170.796999931
1680.0	0.0001283	170.828999996
1680.0	0.0001275	170.875
1680.0	0.0001263	170.921999931
1680.0	0.0001253	170.953999996
1680.0	0.0001247	171.0
1680.0	0.0001241	171.032000065
1680.0	0.0001238	171.078999996
1680.0	0.000124	171.125
1680.0	0.000124	171.157000065
1680.0	0.000124	171.203999996
1680.0	0.0001246	171.25
1680.0	0.000125	171.282000065
1680.0	0.0001252	171.328999996
1680.0	0.0001251	171.360000134
1680.0	0.0001243	171.407000065
1680.0	0.0001237	171.453999996
1680.0	0.0001231	171.485000134
1680.0	0.0001226	171.532000065
1680.0	0.0001222	171.578999996
1680.0	0.0001226	171.610000134
1680.0	0.0001228	171.657000065
1680.0	0.0001232	171.687999964
1680.0	0.0001232	171.735000134
1680.0	0.0001232	171.782000065
1680.0	0.0001232	171.812999964
1680.0	0.0001232	171.860000134
1680.0	0.0001232	171.907000065
1680.0	0.0001233	171.937999964
1680.0	0.0001235	171.985000134
1680.0	0.0001233	172.016000032
1680.0	0.0001232	172.062999964
1680.0	0.0001232	172.110000134
1680.0	0.0001233	172.141000032
1690.0	0.0001193	172.437999964
1690.0	0.0001172	172.469000101
1690.0	0.0001153	172.516000032
1690.0	0.0001138	172.562999964
1690.0	0.0001131	172.594000101
1690.0	0.0001122	172.641000032
1690.0	0.0001115	172.687999964
1690.0	0.0001103	172.719000101
1690.0	0.0001096	172.766000032
1690.0	0.0001095	172.796999931
1690.0	0.00011	172.844000101
1690.0	0.0001101	172.891000032
1690.0	0.0001103	172.921999931
1690.0	0.0001107	172.969000101
1690.0	0.0001107	173.016000032
1690.0	0.0001103	173.046999931
1690.0	0.0001101	173.094000101
1690.0	0.0001097	173.125
1690.0	0.0001097	173.171999931
1690.0	0.0001097	173.219000101
1690.0	0.00011	173.25
1690.0	0.0001101	173.296999931
1690.0	0.0001102	173.344000101
1690.0	0.0001106	173.375
1690.0	0.0001108	173.421999931
1690.0	0.0001107	173.453999996
1690.0	0.0001107	173.5
1690.0	0.0001108	173.546999931
1690.0	0.0001107	173.578999996
1690.0	0.0001107	173.625
1690.0	0.000111	173.671999931
1690.0	0.0001108	173.703999996
1690.0	0.000111	173.75
1690.0	0.0001113	173.796999931
1690.0	0.000111	173.828999996
1690.0	0.0001106	173.875
1690.0	0.0001107	173.907000065
1700.0	0.0001052	174.203999996
1700.0	0.0001037	174.235000134
1700.0	0.0001022	174.282000065
1700.0	0.0001016	174.312999964
1700.0	0.0001008	174.360000134
1700.0	0.0001001	174.407000065
1700.0	9.95e-05	174.437999964
1700.0	9.9e-05	174.469000101
1700.0	9.87e-05	174.516000032
1700.0	9.85e-05	174.546999931
1700.0	9.85e-05	174.594000101
1700.0	9.83e-05	174.625
1700.0	9.82e-05	174.657000065
1700.0	9.85e-05	174.703999996
1700.0	9.87e-05	174.735000134
1700.0	9.87e-05	174.766000032
1700.0	9.9e-05	174.812999964
1700.0	9.91e-05	174.844000101
1700.0	9.95e-05	174.875
1700.0	9.95e-05	174.921999931
1700.0	9.9e-05	174.953999996
1700.0	9.83e-05	175.0
1700.0	9.82e-05	175.032000065
1700.0	9.81e-05	175.062999964
1700.0	9.83e-05	175.110000134
1700.0	9.83e-05	175.141000032
1700.0	9.83e-05	175.171999931
1700.0	9.85e-05	175.219000101
1700.0	9.87e-05	175.25
1700.0	9.88e-05	175.282000065
1700.0	9.9e-05	175.328999996
1700.0	9.91e-05	175.360000134
1700.0	9.9e-05	175.407000065
1700.0	9.87e-05	175.437999964
1700.0	9.88e-05	175.469000101
1700.0	9.9e-05	175.516000032
1700.0	9.91e-05	175.546999931
1700.0	9.91e-05	175.578999996
1700.0	9.88e-05	175.625
1700.0	9.87e-05	175.657000065
1710.0	9.32e-05	175.937999964
1710.0	9.21e-05	175.969000101
1710.0	9.13e-05	176.016000032
1710.0	9.06e-05	176.046999931
1710.0	9.01e-05	176.078999996
1710.0	8.96e-05	176.125
1710.0	8.93e-05	176.157000065
1710.0	8.93e-05	176.203999996
1710.0	8.93e-05	176.235000134
1710.0	8.93e-05	176.266000032
1710.0	8.93e-05	176.312999964
1710.0	8.9e-05	176.344000101
1710.0	8.88e-05	176.375
1710.0	8.91e-05	176.421999931
1710.0	8.91e-05	176.453999996
1710.0	8.9e-05	176.485000134
1710.0	8.91e-05	176.532000065
1710.0	8.88e-05	176.562999964
1710.0	8.87e-05	176.610000134
1710.0	8.87e-05	176.641000032
1710.0	8.85e-05	176.671999931
1710.0	8.83e-05	176.719000101
1710.0	8.83e-05	176.75
1710.0	8.81e-05	176.782000065
1710.0	8.81e-05	176.828999996
1710.0	8.81e-05	176.860000134
1710.0	8.82e-05	176.907000065
1710.0	8.81e-05	176.937999964
1710.0	8.78e-05	176.969000101
1710.0	8.81e-05	177.016000032
1710.0	8.78e-05	177.046999931
1710.0	8.76e-05	177.094000101
1710.0	8.75e-05	177.125
1710.0	8.75e-05	177.157000065
1710.0	8.75e-05	177.203999996
1710.0	8.72e-05	177.235000134
1710.0	8.71e-05	177.266000032
1710.0	8.72e-05	177.312999964
1710.0	8.76e-05	177.344000101
1710.0	8.77e-05	177.375
1710.0	8.78e-05	177.421999931
1720.0	8.62e-05	177.703999996
1720.0	8.56e-05	177.735000134
1720.0	8.51e-05	177.782000065
1720.0	8.45e-05	177.812999964
1720.0	8.37e-05	177.844000101
1720.0	8.27e-05	177.891000032
1720.0	8.21e-05	177.921999931
1720.0	8.16e-05	177.953999996
1720.0	8.08e-05	178.0
1720.0	8.08e-05	178.032000065
1720.0	8.08e-05	178.062999964
1720.0	8.1e-05	178.110000134
1720.0	8.12e-05	178.141000032
1720.0	8.12e-05	178.187999964
1720.0	8.08e-05	178.219000101
1720.0	8.03e-05	178.25
1720.0	8.02e-05	178.296999931
1720.0	8.01e-05	178.328999996
1720.0	8.02e-05	178.360000134
1720.0	8.02e-05	178.407000065
1720.0	7.97e-05	178.437999964
1720.0	7.97e-05	178.469000101
1720.0	7.97e-05	178.516000032
1720.0	7.97e-05	178.546999931
1720.0	8.01e-05	178.594000101
1720.0	8.02e-05	178.625
1720.0	8.01e-05	178.657000065
1720.0	8.02e-05	178.703999996
1720.0	8.01e-05	178.735000134
1720.0	8.01e-05	178.766000032
1720.0	8.01e-05	178.812999964
1720.0	8.01e-05	178.844000101
1720.0	8.03e-05	178.875
1720.0	8.06e-05	178.921999931
1720.0	8.08e-05	178.953999996
1720.0	8.12e-05	179.0
1720.0	8.16e-05	179.032000065
1720.0	8.2e-05	179.062999964
1720.0	8.18e-05	179.110000134
1720.0	8.16e-05	179.141000032
1720.0	8.15e-05	179.171999931
1730.0	7.93e-05	179.453999996
1730.0	7.82e-05	179.485000134
1730.0	7.72e-05	179.532000065
1730.0	7.63e-05	179.562999964
1730.0	7.57e-05	179.594000101
1730.0	7.52e-05	179.641000032
1730.0	7.46e-05	179.671999931
1730.0	7.43e-05	179.719000101
1730.0	7.4e-05	179.75
1730.0	7.37e-05	179.782000065
1730.0	7.33e-05	179.828999996
1730.0	7.33e-05	179.860000134
1730.0	7.35e-05	179.891000032
1730.0	7.38e-05	179.937999964
1730.0	7.4e-05	179.969000101
1730.0	7.41e-05	180.0
1730.0	7.38e-05	180.046999931
1730.0	7.38e-05	180.078999996
1730.0	7.35e-05	180.125
1730.0	7.32e-05	180.157000065
1730.0	7.31e-05	180.187999964
1730.0	7.31e-05	180.235000134
1730.0	7.33e-05	180.266000032
1730.0	7.33e-05	180.296999931
1730.0	7.33e-05	180.344000101
1730.0	7.31e-05	180.375
1730.0	7.31e-05	180.421999931
1730.0	7.28e-05	180.453999996
1730.0	7.26e-05	180.485000134
1730.0	7.25e-05	180.532000065
1730.0	7.26e-05	180.562999964
1730.0	7.27e-05	180.594000101
1730.0	7.28e-05	180.641000032
1730.0	7.32e-05	180.671999931
1730.0	7.35e-05	180.703999996
1730.0	7.35e-05	180.75
1730.0	7.38e-05	180.782000065
1730.0	7.38e-05	180.828999996
1730.0	7.33e-05	180.860000134
1730.0	7.32e-05	180.891000032
1730.0	7.28e-05	180.937999964
1740.0	7e-05	181.203999996
1740.0	6.9e-05	181.25
1740.0	6.82e-05	181.282000065
1740.0	6.78e-05	181.312999964
1740.0	6.76e-05	181.360000134
1740.0	6.71e-05	181.391000032
1740.0	6.7e-05	181.421999931
1740.0	6.68e-05	181.469000101
1740.0	6.66e-05	181.5
1740.0	6.65e-05	181.546999931
1740.0	6.63e-05	181.578999996
1740.0	6.63e-05	181.610000134
1740.0	6.65e-05	181.657000065
1740.0	6.65e-05	181.687999964
1740.0	6.66e-05	181.719000101
1740.0	6.65e-05	181.766000032
1740.0	6.62e-05	181.796999931
1740.0	6.6e-05	181.828999996
1740.0	6.63e-05	181.875
1740.0	6.62e-05	181.907000065
1740.0	6.62e-05	181.953999996
1740.0	6.58e-05	181.985000134
1740.0	6.57e-05	182.016000032
1740.0	6.58e-05	182.062999964
1740.0	6.56e-05	182.094000101
1740.0	6.53e-05	182.125
1740.0	6.56e-05	182.171999931
1740.0	6.58e-05	182.203999996
1740.0	6.62e-05	182.235000134
1740.0	6.65e-05	182.282000065
1740.0	6.66e-05	182.312999964
1740.0	6.68e-05	182.360000134
1740.0	6.68e-05	182.391000032
1740.0	6.66e-05	182.421999931
1740.0	6.71e-05	182.469000101
1740.0	6.76e-05	182.5
1740.0	6.75e-05	182.532000065
1740.0	6.72e-05	182.578999996
1740.0	6.71e-05	182.610000134
1740.0	6.71e-05	182.657000065
1740.0	6.71e-05	182.687999964
1750.0	6.5e-05	182.969000101
1750.0	6.45e-05	183.0
1750.0	6.38e-05	183.032000065
1750.0	6.32e-05	183.078999996
1750.0	6.27e-05	183.110000134
1750.0	6.21e-05	183.141000032
1750.0	6.18e-05	183.187999964
1750.0	6.15e-05	183.219000101
1750.0	6.13e-05	183.25
1750.0	6.12e-05	183.296999931
1750.0	6.12e-05	183.328999996
1750.0	6.12e-05	183.375
1750.0	6.1e-05	183.407000065
1750.0	6.12e-05	183.437999964
1750.0	6.1e-05	183.485000134
1750.0	6.08e-05	183.516000032
1750.0	6.07e-05	183.546999931
1750.0	6.03e-05	183.594000101
1750.0	6.02e-05	183.625
1750.0	6e-05	183.657000065
1750.0	5.96e-05	183.703999996
1750.0	5.95e-05	183.735000134
1750.0	5.95e-05	183.782000065
1750.0	5.97e-05	183.812999964
1750.0	6.01e-05	183.844000101
1750.0	6.01e-05	183.891000032
1750.0	6.02e-05	183.921999931
1750.0	6.06e-05	183.953999996
1750.0	6.07e-05	184.0
1750.0	6.08e-05	184.032000065
1750.0	6.1e-05	184.062999964
1750.0	6.1e-05	184.110000134
1750.0	6.12e-05	184.141000032
1750.0	6.12e-05	184.187999964
1750.0	6.1e-05	184.219000101
1750.0	6.03e-05	184.25
1750.0	6.02e-05	184.296999931
1750.0	6.06e-05	184.328999996
1750.0	6.06e-05	184.360000134
1750.0	6.06e-05	184.407000065
1750.0	6.07e-05	184.437999964
1760.0	5.75e-05	184.719000101
1760.0	5.66e-05	184.75
1760.0	5.62e-05	184.782000065
1760.0	5.6e-05	184.828999996
1760.0	5.6e-05	184.860000134
1760.0	5.58e-05	184.907000065
1760.0	5.58e-05	184.937999964
1760.0	5.57e-05	184.969000101
1760.0	5.57e-05	185.016000032
1760.0	5.53e-05	185.046999931
1760.0	5.46e-05	185.078999996
1760.0	5.41e-05	185.125
1760.0	5.4e-05	185.157000065
1760.0	5.41e-05	185.187999964
1760.0	5.45e-05	185.235000134
1760.0	5.47e-05	185.266000032
1760.0	5.5e-05	185.312999964
1760.0	5.51e-05	185.344000101
1760.0	5.51e-05	185.375
1760.0	5.51e-05	185.421999931
1760.0	5.5e-05	185.453999996
1760.0	5.5e-05	185.485000134
1760.0	5.5e-05	185.532000065
1760.0	5.5e-05	185.562999964
1760.0	5.51e-05	185.610000134
1760.0	5.52e-05	185.641000032
1760.0	5.53e-05	185.671999931
1760.0	5.52e-05	185.719000101
1760.0	5.51e-05	185.75
1760.0	5.51e-05	185.782000065
1760.0	5.56e-05	185.828999996
1760.0	5.56e-05	185.860000134
1760.0	5.53e-05	185.891000032
1760.0	5.52e-05	185.937999964
1760.0	5.52e-05	185.969000101
1760.0	5.51e-05	186.016000032
1760.0	5.52e-05	186.046999931
1760.0	5.52e-05	186.078999996
1760.0	5.51e-05	186.125
1760.0	5.5e-05	186.157000065
1760.0	5.46e-05	186.187999964
1770.0	5.26e-05	186.469000101
1770.0	5.21e-05	186.516000032
1770.0	5.18e-05	186.546999931
1770.0	5.13e-05	186.578999996
1770.0	5.08e-05	186.625
1770.0	5.06e-05	186.657000065
1770.0	5.01e-05	186.687999964
1770.0	5e-05	186.735000134
1770.0	5e-05	186.766000032
1770.0	4.96e-05	186.812999964
1770.0	4.95e-05	186.844000101
1770.0	4.93e-05	186.875
1770.0	4.9e-05	186.921999931
1770.0	4.88e-05	186.953999996
1770.0	4.88e-05	186.985000134
1770.0	4.9e-05	187.032000065
1770.0	4.9e-05	187.062999964
1770.0	4.88e-05	187.094000101
1770.0	4.85e-05	187.141000032
1770.0	4.87e-05	187.171999931
1770.0	4.9e-05	187.219000101
1770.0	4.9e-05	187.25
1770.0	4.88e-05	187.282000065
1770.0	4.87e-05	187.328999996
1770.0	4.85e-05	187.360000134
1770.0	4.85e-05	187.391000032
1770.0	4.83e-05	187.437999964
1770.0	4.85e-05	187.469000101
1770.0	4.85e-05	187.5
1770.0	4.83e-05	187.546999931
1770.0	4.83e-05	187.578999996
1770.0	4.85e-05	187.625
1770.0	4.9e-05	187.657000065
1770.0	4.9e-05	187.687999964
1770.0	4.85e-05	187.735000134
1770.0	4.88e-05	187.766000032
1770.0	4.93e-05	187.796999931
1770.0	4.95e-05	187.844000101
1770.0	4.95e-05	187.875
1770.0	4.95e-05	187.921999931
1770.0	4.93e-05	187.953999996
1780.0	4.72e-05	188.235000134
1780.0	4.65e-05	188.266000032
1780.0	4.58e-05	188.312999964
1780.0	4.52e-05	188.344000101
1780.0	4.46e-05	188.375
1780.0	4.41e-05	188.421999931
1780.0	4.4e-05	188.453999996
1780.0	4.4e-05	188.485000134
1780.0	4.4e-05	188.532000065
1780.0	4.38e-05	188.562999964
1780.0	4.38e-05	188.594000101
1780.0	4.41e-05	188.641000032
1780.0	4.46e-05	188.671999931
1780.0	4.5e-05	188.703999996
1780.0	4.51e-05	188.75
1780.0	4.52e-05	188.782000065
1780.0	4.51e-05	188.828999996
1780.0	4.5e-05	188.860000134
1780.0	4.47e-05	188.891000032
1780.0	4.47e-05	188.937999964
1780.0	4.5e-05	188.969000101
1780.0	4.5e-05	189.0
1780.0	4.5e-05	189.046999931
1780.0	4.46e-05	189.078999996
1780.0	4.41e-05	189.125
1780.0	4.41e-05	189.157000065
1780.0	4.38e-05	189.187999964
1780.0	4.35e-05	189.235000134
1780.0	4.33e-05	189.266000032
1780.0	4.32e-05	189.296999931
1780.0	4.32e-05	189.344000101
1780.0	4.33e-05	189.375
1780.0	4.38e-05	189.407000065
1780.0	4.43e-05	189.453999996
1780.0	4.47e-05	189.485000134
1780.0	4.51e-05	189.532000065
1780.0	4.56e-05	189.562999964
1780.0	4.6e-05	189.594000101
1780.0	4.6e-05	189.641000032
1780.0	4.57e-05	189.671999931
1780.0	4.56e-05	189.703999996
1790.0	4.21e-05	190.0
1790.0	4.15e-05	190.032000065
1790.0	4.08e-05	190.062999964
1790.0	4.06e-05	190.110000134
1790.0	4.01e-05	190.141000032
1790.0	3.93e-05	190.171999931
1790.0	3.9e-05	190.219000101
1790.0	3.88e-05	190.25
1790.0	3.91e-05	190.282000065
1790.0	3.96e-05	190.328999996
1790.0	3.96e-05	190.360000134
1790.0	3.95e-05	190.407000065
1790.0	3.93e-05	190.437999964
1790.0	3.91e-05	190.469000101
1790.0	3.91e-05	190.516000032
1790.0	3.9e-05	190.546999931
1790.0	3.88e-05	190.578999996
1790.0	3.87e-05	190.625
1790.0	3.87e-05	190.657000065
1790.0	3.83e-05	190.687999964
1790.0	3.82e-05	190.735000134
1790.0	3.82e-05	190.766000032
1790.0	3.83e-05	190.812999964
1790.0	3.87e-05	190.844000101
1790.0	3.93e-05	190.875
1790.0	3.93e-05	190.921999931
1790.0	3.93e-05	190.953999996
1790.0	3.96e-05	190.985000134
1790.0	4e-05	191.032000065
1790.0	4e-05	191.062999964
1790.0	4.01e-05	191.110000134
1790.0	4e-05	191.141000032
1790.0	3.96e-05	191.171999931
1790.0	3.95e-05	191.219000101
1790.0	3.95e-05	191.25
1790.0	3.96e-05	191.282000065
1790.0	3.95e-05	191.328999996
1790.0	3.93e-05	191.360000134
1790.0	3.9e-05	191.391000032
1790.0	3.91e-05	191.437999964
1790.0	3.93e-05	191.469000101
1800.0	3.78e-05	191.75
1800.0	3.71e-05	191.782000065
1800.0	3.66e-05	191.828999996
1800.0	3.63e-05	191.860000134
1800.0	3.57e-05	191.891000032
1800.0	3.56e-05	191.937999964
1800.0	3.52e-05	191.969000101
1800.0	3.52e-05	192.016000032
1800.0	3.5e-05	192.046999931
1800.0	3.45e-05	192.078999996
1800.0	3.38e-05	192.125
1800.0	3.4e-05	192.157000065
1800.0	3.37e-05	192.187999964
1800.0	3.38e-05	192.235000134
1800.0	3.4e-05	192.266000032
1800.0	3.4e-05	192.296999931
1800.0	3.38e-05	192.344000101
1800.0	3.38e-05	192.375
1800.0	3.37e-05	192.421999931
1800.0	3.4e-05	192.453999996
1800.0	3.41e-05	192.485000134
1800.0	3.41e-05	192.532000065
1800.0	3.38e-05	192.562999964
1800.0	3.38e-05	192.594000101
1800.0	3.41e-05	192.641000032
1800.0	3.45e-05	192.671999931
1800.0	3.45e-05	192.719000101
1800.0	3.47e-05	192.75
1800.0	3.51e-05	192.782000065
1800.0	3.52e-05	192.828999996
1800.0	3.53e-05	192.860000134
1800.0	3.56e-05	192.891000032
1800.0	3.56e-05	192.937999964
1800.0	3.53e-05	192.969000101
1800.0	3.51e-05	193.0
1800.0	3.5e-05	193.046999931
1800.0	3.47e-05	193.078999996
1800.0	3.45e-05	193.125
1800.0	3.46e-05	193.157000065
1800.0	3.5e-05	193.187999964
1800.0	3.5e-05	193.235000134
