Your edit line - do NOT delete this line
X-pos [um], Y-pos [um], Max voltage [V]
600	0.0	0.001634
600	-100.0	0.001462
600	-200.0	0.001258
400	-300.0	0.0011
400	-400.0	0.001004
400	-500.0	0.000909
400	-600.0	0.000856
400	-700.0	0.000823
400	-800.0	0.000716
400	-900.0	0.000662
200	-1000.0	0.000624
200	-1100.0	0.000588
200	-1200.0	0.000565
200	-1300.0	0.000529
200	-1400.0	0.000504
200	-1500.0	0.000464
200	-1600.0	0.000438
200	-1700.0	0.000396
0	-1800.0	0.000377
0	-1900.0	0.000349
0	-2000.0	0.000329
0	-2100.0	0.000301
0	-2200.0	0.000278
0	-2300.0	0.000263
-200	-2400.0	0.000245
-200	-2500.0	0.000237
-200	-2600.0	0.000234
-200	-2700.0	0.000219
-200	-2800.0	0.000213
-200	-2900.0	0.000204
-400	-3000.0	0.000186
-400	-3100.0	0.00018
-400	-3200.0	0.000169
-400	-3300.0	0.00016
-400	-3400.0	0.000152
-400	-3500.0	0.000145
-400	-3600.0	0.00013
-400	-3700.0	0.000125
-600	-3800.0	0.00012
-600	-3900.0	0.000112
-600	-4000.0	0.000109
-600	-4100.0	0.000105
-600	-4200.0	0.0001
-600	-4300.0	9.1e-05
-800	-4400.0	8.7e-05
1000	-4500.0	8.3e-05
1000	-4600.0	8.7e-05
-800	-4700.0	7.6e-05
1000	-4800.0	7.6e-05
1000	-4900.0	7.7e-05
1000	-5000.0	7.2e-05
800	-5100.0	7.4e-05
1000	-5200.0	9.2e-05
1000	-5300.0	7.8e-05
1200	-5400.0	6.4e-05
1400	-5500.0	5.9e-05
1000	-5600.0	5.6e-05
1400	-5700.0	6e-05
1400	-5800.0	5.6e-05
-1400	-5900.0	6.9e-05
-1400	-6000.0	9.6e-05
-1400	-6100.0	0.000135
-1400	-6200.0	0.000181
-1400	-6300.0	0.000223
-1400	-6400.0	0.000263
-1400	-6500.0	0.000309
-1400	-6600.0	0.000333
-1400	-6700.0	0.000332
-1400	-6800.0	0.000305
-1400	-6900.0	0.000257
-1400	-7000.0	0.000216

Y_new [um], Max voltage [V]
0.0	0.001634
-104.001569847	0.001462
-208.003139694	0.001258
-312.004709541	0.0011
-416.006279387	0.001004
-520.007849234	0.000909
-624.009419081	0.000856
-728.010988928	0.000823
-832.012558775	0.000716
-936.014128622	0.000662
-1040.01569847	0.000624
-1144.01726832	0.000588
-1248.01883816	0.000565
-1352.02040801	0.000529
-1456.02197786	0.000504
-1560.0235477	0.000464
-1664.02511755	0.000438
-1768.0266874	0.000396
-1872.02825724	0.000377
-1976.02982709	0.000349
-2080.03139694	0.000329
-2184.03296678	0.000301
-2288.03453663	0.000278
-2392.03610648	0.000263
-2496.03767632	0.000245
-2600.03924617	0.000237
-2704.04081602	0.000234
-2808.04238587	0.000219
-2912.04395571	0.000213
-3016.04552556	0.000204
-3120.04709541	0.000186
-3224.04866525	0.00018
-3328.0502351	0.000169
-3432.05180495	0.00016
-3536.05337479	0.000152
-3640.05494464	0.000145
-3744.05651449	0.00013
-3848.05808433	0.000125
-3952.05965418	0.00012
-4056.06122403	0.000112
-4160.06279387	0.000109
-4264.06436372	0.000105
-4368.06593357	0.0001
-4472.06750342	9.1e-05
-4576.06907326	8.7e-05
-4680.07064311	8.3e-05
-4784.07221296	8.7e-05
-4888.0737828	7.6e-05
-4992.07535265	7.6e-05
-5096.0769225	7.7e-05
-5200.07849234	7.2e-05
-5304.08006219	7.4e-05
-5408.08163204	9.2e-05
-5512.08320188	7.8e-05
-5616.08477173	6.4e-05
-5720.08634158	5.9e-05
-5824.08791142	5.6e-05
-5928.08948127	6e-05
-6032.09105112	5.6e-05
-6136.09262097	6.9e-05
-6240.09419081	9.6e-05
-6344.09576066	0.000135
-6448.09733051	0.000181
-6552.09890035	0.000223
-6656.1004702	0.000263
-6760.10204005	0.000309
-6864.10360989	0.000333
-6968.10517974	0.000332
-7072.10674959	0.000305
-7176.10831943	0.000257
-7280.10988928	0.000216
