Your edit line - do NOT delete this line
Wavelength [nm], Voltage [V], Elapsed time [s]
600.0	1e-05	22.0460000038
600.0	1e-05	22.0929999352
600.0	9.5e-06	22.1399998665
600.0	9.3e-06	22.1710000038
600.0	9.3e-06	22.2179999352
600.0	9.3e-06	22.2649998665
600.0	9.3e-06	22.2960000038
600.0	9.3e-06	22.3429999352
600.0	9.3e-06	22.375
600.0	9.5e-06	22.4210000038
600.0	9.5e-06	22.4679999352
600.0	9.3e-06	22.5
600.0	9.5e-06	22.5460000038
600.0	9.5e-06	22.5929999352
600.0	1e-05	22.625
600.0	9.5e-06	22.6710000038
600.0	1e-05	22.7030000687
600.0	1e-05	22.75
600.0	1e-05	22.7960000038
600.0	9.5e-06	22.8280000687
600.0	9e-06	22.875
600.0	9e-06	22.9210000038
600.0	9e-06	22.9530000687
600.0	8.8e-06	23.0
600.0	8.8e-06	23.0460000038
600.0	8.8e-06	23.0780000687
600.0	8.8e-06	23.125
600.0	9e-06	23.1559998989
600.0	9.3e-06	23.2030000687
600.0	9.3e-06	23.25
600.0	9e-06	23.2809998989
600.0	9e-06	23.3280000687
600.0	9e-06	23.375
600.0	9e-06	23.4059998989
600.0	9e-06	23.4530000687
600.0	9.3e-06	23.4839999676
600.0	9e-06	23.5309998989
610.0	8.3e-06	24.0780000687
610.0	8.3e-06	24.1089999676
610.0	8.3e-06	24.1559998989
610.0	8.3e-06	24.2030000687
610.0	8.3e-06	24.2339999676
610.0	8.8e-06	24.2809998989
610.0	8.8e-06	24.3280000687
610.0	8.8e-06	24.3589999676
610.0	9.3e-06	24.4059998989
610.0	1e-05	24.4370000362
610.0	9.5e-06	24.4839999676
610.0	9.3e-06	24.5309998989
610.0	9e-06	24.5620000362
610.0	8.8e-06	24.6089999676
610.0	8.8e-06	24.6559998989
610.0	8.3e-06	24.6870000362
610.0	8e-06	24.7339999676
610.0	8e-06	24.7649998665
610.0	8.3e-06	24.8120000362
610.0	8.8e-06	24.8589999676
610.0	8.8e-06	24.8899998665
610.0	9e-06	24.9370000362
610.0	9e-06	24.9839999676
610.0	9.3e-06	25.0149998665
610.0	9e-06	25.0620000362
610.0	9.3e-06	25.1089999676
610.0	9.3e-06	25.1399998665
610.0	9.5e-06	25.1870000362
610.0	1e-05	25.2339999676
610.0	9.5e-06	25.2649998665
610.0	9.3e-06	25.3120000362
610.0	9e-06	25.3589999676
610.0	8.8e-06	25.3899998665
610.0	8.8e-06	25.4370000362
610.0	8.8e-06	25.4679999352
610.0	8.8e-06	25.5149998665
610.0	9e-06	25.5620000362
620.0	9.3e-06	26.0780000687
620.0	9.5e-06	26.1089999676
620.0	1.03e-05	26.1559998989
620.0	1.05e-05	26.2030000687
620.0	1.05e-05	26.2339999676
620.0	1.05e-05	26.2809998989
620.0	1.05e-05	26.3280000687
620.0	1.08e-05	26.3589999676
620.0	1.08e-05	26.4059998989
620.0	1.08e-05	26.4530000687
620.0	1.08e-05	26.4839999676
620.0	1.08e-05	26.5309998989
620.0	1.08e-05	26.5780000687
620.0	1.08e-05	26.6089999676
620.0	1.13e-05	26.6559998989
620.0	1.13e-05	26.6870000362
620.0	1.08e-05	26.7339999676
620.0	1.08e-05	26.7809998989
620.0	1.13e-05	26.8120000362
620.0	1.05e-05	26.8589999676
620.0	1.05e-05	26.9059998989
620.0	1.05e-05	26.9370000362
620.0	1.08e-05	26.9839999676
620.0	1.08e-05	27.0309998989
620.0	1.05e-05	27.0620000362
620.0	1.05e-05	27.1089999676
620.0	1.05e-05	27.1399998665
620.0	1.05e-05	27.1870000362
620.0	1.05e-05	27.2339999676
620.0	1.03e-05	27.2649998665
620.0	1.05e-05	27.3120000362
620.0	1.05e-05	27.3589999676
620.0	1.08e-05	27.3899998665
620.0	1.05e-05	27.4370000362
620.0	1.03e-05	27.4679999352
620.0	1e-05	27.5149998665
620.0	1e-05	27.5620000362
630.0	1.03e-05	28.0460000038
630.0	1e-05	28.0929999352
630.0	1.03e-05	28.1399998665
630.0	1.05e-05	28.1710000038
630.0	1.05e-05	28.2179999352
630.0	1.05e-05	28.2649998665
630.0	1.08e-05	28.2960000038
630.0	1.08e-05	28.3429999352
630.0	1.08e-05	28.375
630.0	1.13e-05	28.4210000038
630.0	1.13e-05	28.4679999352
630.0	1.08e-05	28.5
630.0	1.13e-05	28.5460000038
630.0	1.15e-05	28.5929999352
630.0	1.15e-05	28.6399998665
630.0	1.15e-05	28.6710000038
630.0	1.15e-05	28.7179999352
630.0	1.08e-05	28.75
630.0	1.08e-05	28.7960000038
630.0	1.05e-05	28.8429999352
630.0	1.05e-05	28.875
630.0	1.05e-05	28.9210000038
630.0	1.13e-05	28.9679999352
630.0	1.13e-05	29.0
630.0	1.15e-05	29.0460000038
630.0	1.13e-05	29.0780000687
630.0	1.13e-05	29.125
630.0	1.08e-05	29.1710000038
630.0	1.05e-05	29.2179999352
630.0	1.05e-05	29.25
630.0	1.05e-05	29.2960000038
630.0	1.03e-05	29.3280000687
630.0	1.03e-05	29.375
630.0	1.03e-05	29.4210000038
630.0	1e-05	29.4530000687
630.0	1.03e-05	29.5
630.0	1.03e-05	29.5460000038
640.0	1.15e-05	30.0309998989
640.0	1.18e-05	30.0620000362
640.0	1.2e-05	30.1089999676
640.0	1.2e-05	30.1559998989
640.0	1.18e-05	30.1870000362
640.0	1.15e-05	30.2339999676
640.0	1.18e-05	30.2649998665
640.0	1.18e-05	30.3120000362
640.0	1.18e-05	30.3589999676
640.0	1.15e-05	30.3899998665
640.0	1.15e-05	30.4370000362
640.0	1.18e-05	30.4839999676
640.0	1.18e-05	30.5149998665
640.0	1.15e-05	30.5620000362
640.0	1.13e-05	30.5929999352
640.0	1.13e-05	30.6399998665
640.0	1.08e-05	30.6870000362
640.0	1.13e-05	30.7179999352
640.0	1.13e-05	30.7649998665
640.0	1.15e-05	30.8120000362
640.0	1.2e-05	30.8429999352
640.0	1.2e-05	30.8899998665
640.0	1.25e-05	30.9210000038
640.0	1.25e-05	30.9679999352
640.0	1.2e-05	31.0149998665
640.0	1.2e-05	31.0460000038
640.0	1.2e-05	31.0929999352
640.0	1.25e-05	31.1399998665
640.0	1.25e-05	31.1710000038
640.0	1.25e-05	31.2179999352
640.0	1.2e-05	31.2649998665
640.0	1.25e-05	31.2960000038
640.0	1.25e-05	31.3429999352
640.0	1.25e-05	31.3899998665
640.0	1.25e-05	31.4210000038
640.0	1.28e-05	31.4679999352
640.0	1.28e-05	31.5149998665
650.0	1.28e-05	31.9839999676
650.0	1.28e-05	32.0309998989
650.0	1.25e-05	32.0620000362
650.0	1.28e-05	32.1089999676
650.0	1.28e-05	32.1559998989
650.0	1.3e-05	32.1870000362
650.0	1.33e-05	32.2339999676
650.0	1.4e-05	32.2649998665
650.0	1.4e-05	32.3120000362
650.0	1.38e-05	32.3589999676
650.0	1.33e-05	32.3899998665
650.0	1.38e-05	32.4370000362
650.0	1.4e-05	32.4839999676
650.0	1.4e-05	32.5149998665
650.0	1.4e-05	32.5620000362
650.0	1.4e-05	32.5929999352
650.0	1.38e-05	32.6399998665
650.0	1.38e-05	32.6870000362
650.0	1.3e-05	32.7179999352
650.0	1.3e-05	32.7649998665
650.0	1.3e-05	32.8120000362
650.0	1.33e-05	32.8429999352
650.0	1.38e-05	32.8899998665
650.0	1.33e-05	32.9210000038
650.0	1.38e-05	32.9679999352
650.0	1.4e-05	33.0149998665
650.0	1.4e-05	33.0620000362
650.0	1.4e-05	33.0929999352
650.0	1.43e-05	33.1399998665
650.0	1.43e-05	33.1870000362
650.0	1.43e-05	33.2179999352
650.0	1.43e-05	33.2649998665
650.0	1.43e-05	33.2960000038
650.0	1.4e-05	33.3429999352
650.0	1.33e-05	33.3899998665
650.0	1.33e-05	33.4210000038
650.0	1.38e-05	33.4679999352
660.0	1.45e-05	33.9370000362
660.0	1.45e-05	33.9839999676
660.0	1.45e-05	34.0149998665
660.0	1.43e-05	34.0620000362
660.0	1.4e-05	34.0929999352
660.0	1.4e-05	34.1399998665
660.0	1.4e-05	34.1870000362
660.0	1.45e-05	34.2179999352
660.0	1.45e-05	34.2649998665
660.0	1.45e-05	34.3120000362
660.0	1.5e-05	34.3429999352
660.0	1.5e-05	34.3899998665
660.0	1.45e-05	34.4210000038
660.0	1.45e-05	34.4679999352
660.0	1.45e-05	34.5149998665
660.0	1.5e-05	34.5460000038
660.0	1.55e-05	34.5929999352
660.0	1.55e-05	34.6399998665
660.0	1.55e-05	34.6710000038
660.0	1.55e-05	34.7179999352
660.0	1.58e-05	34.75
660.0	1.63e-05	34.7960000038
660.0	1.55e-05	34.8429999352
660.0	1.55e-05	34.875
660.0	1.55e-05	34.9210000038
660.0	1.55e-05	34.9679999352
660.0	1.55e-05	35.0
660.0	1.53e-05	35.0460000038
660.0	1.45e-05	35.0780000687
660.0	1.45e-05	35.125
660.0	1.43e-05	35.1710000038
660.0	1.38e-05	35.2030000687
660.0	1.38e-05	35.25
660.0	1.38e-05	35.2960000038
660.0	1.4e-05	35.3280000687
660.0	1.4e-05	35.375
660.0	1.38e-05	35.4210000038
670.0	1.55e-05	35.875
670.0	1.58e-05	35.9059998989
670.0	1.63e-05	35.9530000687
670.0	1.55e-05	36.0
670.0	1.53e-05	36.0309998989
670.0	1.55e-05	36.0780000687
670.0	1.55e-05	36.1089999676
670.0	1.58e-05	36.1559998989
670.0	1.63e-05	36.2030000687
670.0	1.63e-05	36.2339999676
670.0	1.63e-05	36.2809998989
670.0	1.63e-05	36.3280000687
670.0	1.58e-05	36.3589999676
670.0	1.58e-05	36.4059998989
670.0	1.58e-05	36.4530000687
670.0	1.63e-05	36.4839999676
670.0	1.65e-05	36.5309998989
670.0	1.65e-05	36.5620000362
670.0	1.65e-05	36.6089999676
670.0	1.65e-05	36.6559998989
670.0	1.63e-05	36.6870000362
670.0	1.58e-05	36.7339999676
670.0	1.58e-05	36.7809998989
670.0	1.58e-05	36.8120000362
670.0	1.63e-05	36.8589999676
670.0	1.63e-05	36.8899998665
670.0	1.58e-05	36.9370000362
670.0	1.58e-05	36.9839999676
670.0	1.58e-05	37.0149998665
670.0	1.63e-05	37.0620000362
670.0	1.65e-05	37.1089999676
670.0	1.63e-05	37.1399998665
670.0	1.63e-05	37.1870000362
670.0	1.63e-05	37.2179999352
670.0	1.63e-05	37.2649998665
670.0	1.65e-05	37.3120000362
670.0	1.65e-05	37.3589999676
680.0	1.65e-05	37.7960000038
680.0	1.7e-05	37.8429999352
680.0	1.75e-05	37.875
680.0	1.75e-05	37.9210000038
680.0	1.75e-05	37.9530000687
680.0	1.75e-05	38.0
680.0	1.7e-05	38.0460000038
680.0	1.7e-05	38.0780000687
680.0	1.68e-05	38.125
680.0	1.68e-05	38.1710000038
680.0	1.7e-05	38.2030000687
680.0	1.7e-05	38.25
680.0	1.7e-05	38.2960000038
680.0	1.68e-05	38.3280000687
680.0	1.68e-05	38.375
680.0	1.68e-05	38.4059998989
680.0	1.68e-05	38.4530000687
680.0	1.7e-05	38.5
680.0	1.7e-05	38.5309998989
680.0	1.75e-05	38.5780000687
680.0	1.7e-05	38.625
680.0	1.75e-05	38.6559998989
680.0	1.78e-05	38.7030000687
680.0	1.8e-05	38.7339999676
680.0	1.8e-05	38.7809998989
680.0	1.78e-05	38.8280000687
680.0	1.75e-05	38.8589999676
680.0	1.7e-05	38.9059998989
680.0	1.75e-05	38.9530000687
680.0	1.75e-05	38.9839999676
680.0	1.78e-05	39.0309998989
680.0	1.78e-05	39.0620000362
680.0	1.75e-05	39.1089999676
680.0	1.75e-05	39.1559998989
680.0	1.78e-05	39.1870000362
680.0	1.78e-05	39.2339999676
680.0	1.78e-05	39.2809998989
690.0	1.93e-05	39.7030000687
690.0	1.95e-05	39.7339999676
690.0	1.95e-05	39.7809998989
690.0	1.95e-05	39.8280000687
690.0	1.93e-05	39.8589999676
690.0	1.93e-05	39.9059998989
690.0	1.93e-05	39.9370000362
690.0	1.95e-05	39.9839999676
690.0	2e-05	40.0309998989
690.0	2e-05	40.0620000362
690.0	2e-05	40.1089999676
690.0	2.03e-05	40.1559998989
690.0	2.03e-05	40.1870000362
690.0	2e-05	40.2339999676
690.0	2e-05	40.2809998989
690.0	2e-05	40.3120000362
690.0	2e-05	40.3589999676
690.0	2e-05	40.3899998665
690.0	2.03e-05	40.4370000362
690.0	2.03e-05	40.4839999676
690.0	2.03e-05	40.5149998665
690.0	2e-05	40.5620000362
690.0	2e-05	40.6089999676
690.0	1.95e-05	40.6399998665
690.0	1.93e-05	40.6870000362
690.0	1.88e-05	40.7179999352
690.0	1.9e-05	40.7649998665
690.0	1.93e-05	40.8120000362
690.0	1.93e-05	40.8429999352
690.0	1.93e-05	40.8899998665
690.0	1.93e-05	40.9370000362
690.0	1.93e-05	40.9679999352
690.0	1.95e-05	41.0149998665
690.0	2.03e-05	41.0460000038
690.0	2.03e-05	41.0929999352
690.0	2.05e-05	41.1399998665
690.0	2.08e-05	41.1710000038
700.0	2.13e-05	41.5929999352
700.0	2.13e-05	41.625
700.0	2.15e-05	41.6710000038
700.0	2.18e-05	41.7030000687
700.0	2.2e-05	41.75
700.0	2.25e-05	41.7960000038
700.0	2.25e-05	41.8280000687
700.0	2.25e-05	41.875
700.0	2.2e-05	41.9210000038
700.0	2.25e-05	41.9530000687
700.0	2.25e-05	42.0
700.0	2.28e-05	42.0460000038
700.0	2.3e-05	42.0780000687
700.0	2.3e-05	42.125
700.0	2.3e-05	42.1559998989
700.0	2.28e-05	42.2030000687
700.0	2.28e-05	42.25
700.0	2.28e-05	42.2809998989
700.0	2.28e-05	42.3280000687
700.0	2.28e-05	42.375
700.0	2.28e-05	42.4059998989
700.0	2.3e-05	42.4530000687
700.0	2.38e-05	42.5
700.0	2.38e-05	42.5309998989
700.0	2.38e-05	42.5780000687
700.0	2.38e-05	42.625
700.0	2.33e-05	42.6559998989
700.0	2.28e-05	42.7030000687
700.0	2.25e-05	42.75
700.0	2.2e-05	42.7809998989
700.0	2.2e-05	42.8280000687
700.0	2.2e-05	42.875
700.0	2.18e-05	42.9059998989
700.0	2.18e-05	42.9530000687
700.0	2.2e-05	43.0
700.0	2.25e-05	43.0309998989
700.0	2.25e-05	43.0780000687
710.0	2.43e-05	43.4839999676
710.0	2.43e-05	43.5309998989
710.0	2.45e-05	43.5780000687
710.0	2.53e-05	43.6089999676
710.0	2.55e-05	43.6559998989
710.0	2.55e-05	43.7030000687
710.0	2.58e-05	43.7339999676
710.0	2.55e-05	43.7809998989
710.0	2.55e-05	43.8280000687
710.0	2.55e-05	43.8589999676
710.0	2.55e-05	43.9059998989
710.0	2.58e-05	43.9370000362
710.0	2.63e-05	43.9839999676
710.0	2.58e-05	44.0309998989
710.0	2.63e-05	44.0620000362
710.0	2.58e-05	44.1089999676
710.0	2.55e-05	44.1559998989
710.0	2.53e-05	44.1870000362
710.0	2.55e-05	44.2339999676
710.0	2.55e-05	44.2809998989
710.0	2.58e-05	44.3120000362
710.0	2.58e-05	44.3589999676
710.0	2.58e-05	44.3899998665
710.0	2.63e-05	44.4370000362
710.0	2.55e-05	44.4839999676
710.0	2.53e-05	44.5309998989
710.0	2.55e-05	44.5620000362
710.0	2.53e-05	44.6089999676
710.0	2.53e-05	44.6399998665
710.0	2.53e-05	44.6870000362
710.0	2.5e-05	44.7339999676
710.0	2.45e-05	44.7649998665
710.0	2.5e-05	44.8120000362
710.0	2.5e-05	44.8589999676
710.0	2.5e-05	44.8899998665
710.0	2.5e-05	44.9370000362
710.0	2.53e-05	44.9839999676
720.0	2.65e-05	45.375
720.0	2.68e-05	45.4210000038
720.0	2.7e-05	45.4679999352
720.0	2.75e-05	45.5
720.0	2.8e-05	45.5460000038
720.0	2.83e-05	45.5929999352
720.0	2.88e-05	45.625
720.0	2.88e-05	45.6710000038
720.0	2.88e-05	45.7030000687
720.0	2.9e-05	45.75
720.0	2.9e-05	45.7960000038
720.0	2.9e-05	45.8280000687
720.0	2.93e-05	45.875
720.0	2.9e-05	45.9210000038
720.0	2.9e-05	45.9530000687
720.0	2.88e-05	46.0
720.0	2.8e-05	46.0460000038
720.0	2.8e-05	46.0780000687
720.0	2.8e-05	46.125
720.0	2.8e-05	46.1559998989
720.0	2.83e-05	46.2030000687
720.0	2.83e-05	46.25
720.0	2.83e-05	46.2809998989
720.0	2.83e-05	46.3280000687
720.0	2.8e-05	46.375
720.0	2.75e-05	46.4059998989
720.0	2.78e-05	46.4530000687
720.0	2.8e-05	46.4839999676
720.0	2.83e-05	46.5309998989
720.0	2.83e-05	46.5780000687
720.0	2.83e-05	46.6089999676
720.0	2.83e-05	46.6559998989
720.0	2.8e-05	46.7030000687
720.0	2.8e-05	46.7339999676
720.0	2.8e-05	46.7809998989
720.0	2.8e-05	46.8280000687
720.0	2.8e-05	46.8589999676
730.0	3.05e-05	47.2649998665
730.0	3.05e-05	47.2960000038
730.0	3.05e-05	47.3429999352
730.0	3.05e-05	47.3899998665
730.0	3.05e-05	47.4210000038
730.0	3.05e-05	47.4679999352
730.0	3.08e-05	47.5149998665
730.0	3.13e-05	47.5460000038
730.0	3.13e-05	47.5929999352
730.0	3.13e-05	47.6399998665
730.0	3.13e-05	47.6710000038
730.0	3.15e-05	47.7179999352
730.0	3.15e-05	47.75
730.0	3.15e-05	47.7960000038
730.0	3.08e-05	47.8429999352
730.0	3.05e-05	47.875
730.0	3.05e-05	47.9210000038
730.0	3.03e-05	47.9679999352
730.0	3.03e-05	48.0
730.0	3.03e-05	48.0460000038
730.0	3.03e-05	48.0780000687
730.0	3.05e-05	48.125
730.0	3.13e-05	48.1710000038
730.0	3.13e-05	48.2030000687
730.0	3.13e-05	48.25
730.0	3.13e-05	48.2960000038
730.0	3.13e-05	48.3280000687
730.0	3.15e-05	48.375
730.0	3.15e-05	48.4059998989
730.0	3.13e-05	48.4530000687
730.0	3.13e-05	48.5
730.0	3.13e-05	48.5309998989
730.0	3.13e-05	48.5780000687
730.0	3.13e-05	48.625
730.0	3.05e-05	48.6559998989
730.0	3.03e-05	48.7030000687
730.0	3e-05	48.75
740.0	3.38e-05	49.1399998665
740.0	3.4e-05	49.1870000362
740.0	3.43e-05	49.2179999352
740.0	3.43e-05	49.2649998665
740.0	3.43e-05	49.2960000038
740.0	3.4e-05	49.3429999352
740.0	3.43e-05	49.3899998665
740.0	3.43e-05	49.4210000038
740.0	3.4e-05	49.4679999352
740.0	3.43e-05	49.5149998665
740.0	3.43e-05	49.5460000038
740.0	3.43e-05	49.5929999352
740.0	3.43e-05	49.6399998665
740.0	3.4e-05	49.6710000038
740.0	3.4e-05	49.7179999352
740.0	3.43e-05	49.75
740.0	3.43e-05	49.7960000038
740.0	3.43e-05	49.8429999352
740.0	3.43e-05	49.875
740.0	3.43e-05	49.9210000038
740.0	3.45e-05	49.9679999352
740.0	3.43e-05	50.0
740.0	3.43e-05	50.0460000038
740.0	3.4e-05	50.0780000687
740.0	3.4e-05	50.125
740.0	3.4e-05	50.1710000038
740.0	3.38e-05	50.2030000687
740.0	3.38e-05	50.25
740.0	3.38e-05	50.2960000038
740.0	3.33e-05	50.3280000687
740.0	3.33e-05	50.375
740.0	3.3e-05	50.4059998989
740.0	3.3e-05	50.4530000687
740.0	3.3e-05	50.5
740.0	3.33e-05	50.5309998989
740.0	3.33e-05	50.5780000687
740.0	3.38e-05	50.625
750.0	3.55e-05	51.0
750.0	3.58e-05	51.0460000038
750.0	3.63e-05	51.0929999352
750.0	3.63e-05	51.125
750.0	3.63e-05	51.1710000038
750.0	3.58e-05	51.2030000687
750.0	3.58e-05	51.25
750.0	3.63e-05	51.2960000038
750.0	3.63e-05	51.3280000687
750.0	3.63e-05	51.375
750.0	3.63e-05	51.4210000038
750.0	3.65e-05	51.4530000687
750.0	3.65e-05	51.5
750.0	3.68e-05	51.5460000038
750.0	3.68e-05	51.5780000687
750.0	3.68e-05	51.625
750.0	3.68e-05	51.6559998989
750.0	3.68e-05	51.7030000687
750.0	3.68e-05	51.75
750.0	3.65e-05	51.7809998989
750.0	3.65e-05	51.8280000687
750.0	3.68e-05	51.875
750.0	3.68e-05	51.9059998989
750.0	3.65e-05	51.9530000687
750.0	3.65e-05	51.9839999676
750.0	3.65e-05	52.0309998989
750.0	3.65e-05	52.0780000687
750.0	3.63e-05	52.1089999676
750.0	3.63e-05	52.1559998989
750.0	3.65e-05	52.2030000687
750.0	3.68e-05	52.2339999676
750.0	3.68e-05	52.2809998989
750.0	3.65e-05	52.3120000362
750.0	3.65e-05	52.3589999676
750.0	3.65e-05	52.4059998989
750.0	3.65e-05	52.4370000362
750.0	3.65e-05	52.4839999676
760.0	3.88e-05	52.8589999676
760.0	3.93e-05	52.9059998989
760.0	4e-05	52.9370000362
760.0	4e-05	52.9839999676
760.0	4.05e-05	53.0149998665
760.0	4.05e-05	53.0620000362
760.0	4.03e-05	53.1089999676
760.0	4.03e-05	53.1399998665
760.0	4.03e-05	53.1870000362
760.0	4.08e-05	53.2339999676
760.0	4.05e-05	53.2649998665
760.0	4.08e-05	53.3120000362
760.0	4.08e-05	53.3429999352
760.0	4.08e-05	53.3899998665
760.0	4.08e-05	53.4370000362
760.0	4.08e-05	53.4679999352
760.0	4.08e-05	53.5149998665
760.0	4.08e-05	53.5620000362
760.0	4.13e-05	53.5929999352
760.0	4.05e-05	53.6399998665
760.0	4.03e-05	53.6710000038
760.0	4e-05	53.7179999352
760.0	3.95e-05	53.7649998665
760.0	3.95e-05	53.7960000038
760.0	3.93e-05	53.8429999352
760.0	3.93e-05	53.8899998665
760.0	3.95e-05	53.9210000038
760.0	4e-05	53.9679999352
760.0	4.03e-05	54.0
760.0	4.05e-05	54.0460000038
760.0	4.03e-05	54.0929999352
760.0	4.05e-05	54.125
760.0	4.05e-05	54.1710000038
760.0	4.05e-05	54.2179999352
760.0	4.05e-05	54.25
760.0	4.05e-05	54.2960000038
760.0	4.08e-05	54.3429999352
770.0	4.2e-05	54.7030000687
770.0	4.25e-05	54.75
770.0	4.28e-05	54.7809998989
770.0	4.3e-05	54.8280000687
770.0	4.33e-05	54.8589999676
770.0	4.38e-05	54.9059998989
770.0	4.38e-05	54.9530000687
770.0	4.38e-05	54.9839999676
770.0	4.33e-05	55.0309998989
770.0	4.33e-05	55.0780000687
770.0	4.33e-05	55.1089999676
770.0	4.33e-05	55.1559998989
770.0	4.33e-05	55.1870000362
770.0	4.38e-05	55.2339999676
770.0	4.38e-05	55.2809998989
770.0	4.33e-05	55.3120000362
770.0	4.3e-05	55.3589999676
770.0	4.28e-05	55.4059998989
770.0	4.25e-05	55.4370000362
770.0	4.25e-05	55.4839999676
770.0	4.25e-05	55.5149998665
770.0	4.28e-05	55.5620000362
770.0	4.3e-05	55.6089999676
770.0	4.33e-05	55.6399998665
770.0	4.4e-05	55.6870000362
770.0	4.43e-05	55.7339999676
770.0	4.4e-05	55.7649998665
770.0	4.38e-05	55.8120000362
770.0	4.33e-05	55.8589999676
770.0	4.33e-05	55.8899998665
770.0	4.3e-05	55.9370000362
770.0	4.3e-05	55.9679999352
770.0	4.3e-05	56.0149998665
770.0	4.38e-05	56.0620000362
770.0	4.38e-05	56.0929999352
770.0	4.38e-05	56.1399998665
770.0	4.38e-05	56.1870000362
780.0	4.58e-05	56.5309998989
780.0	4.63e-05	56.5780000687
780.0	4.63e-05	56.625
780.0	4.63e-05	56.6710000038
780.0	4.63e-05	56.7030000687
780.0	4.65e-05	56.75
780.0	4.68e-05	56.7809998989
780.0	4.68e-05	56.8280000687
780.0	4.68e-05	56.875
780.0	4.7e-05	56.9059998989
780.0	4.75e-05	56.9530000687
780.0	4.7e-05	57.0
780.0	4.65e-05	57.0309998989
780.0	4.63e-05	57.0780000687
780.0	4.65e-05	57.125
780.0	4.65e-05	57.1559998989
780.0	4.65e-05	57.2030000687
780.0	4.65e-05	57.2339999676
780.0	4.68e-05	57.2809998989
780.0	4.7e-05	57.3280000687
780.0	4.68e-05	57.3589999676
780.0	4.68e-05	57.4059998989
780.0	4.68e-05	57.4530000687
780.0	4.68e-05	57.4839999676
780.0	4.68e-05	57.5309998989
780.0	4.65e-05	57.5620000362
780.0	4.65e-05	57.6089999676
780.0	4.68e-05	57.6559998989
780.0	4.75e-05	57.6870000362
780.0	4.78e-05	57.7339999676
780.0	4.78e-05	57.7809998989
780.0	4.78e-05	57.8120000362
780.0	4.78e-05	57.8589999676
780.0	4.8e-05	57.8899998665
780.0	4.78e-05	57.9370000362
780.0	4.78e-05	57.9839999676
780.0	4.75e-05	58.0149998665
790.0	4.88e-05	58.375
790.0	4.88e-05	58.4059998989
790.0	4.93e-05	58.4530000687
790.0	4.95e-05	58.5
790.0	4.93e-05	58.5309998989
790.0	4.95e-05	58.5780000687
790.0	5e-05	58.6089999676
790.0	5.05e-05	58.6559998989
790.0	5.05e-05	58.7030000687
790.0	5.03e-05	58.7339999676
790.0	5.05e-05	58.7809998989
790.0	5.08e-05	58.8280000687
790.0	5.13e-05	58.8589999676
790.0	5.15e-05	58.9059998989
790.0	5.18e-05	58.9370000362
790.0	5.15e-05	58.9839999676
790.0	5.18e-05	59.0309998989
790.0	5.15e-05	59.0620000362
790.0	5.13e-05	59.1089999676
790.0	5.08e-05	59.1559998989
790.0	5.08e-05	59.1870000362
790.0	5.08e-05	59.2339999676
790.0	5.08e-05	59.2649998665
790.0	5.08e-05	59.3120000362
790.0	5.05e-05	59.3589999676
790.0	5.05e-05	59.3899998665
790.0	5.05e-05	59.4370000362
790.0	5.03e-05	59.4839999676
790.0	5.03e-05	59.5149998665
790.0	5.03e-05	59.5620000362
790.0	5.05e-05	59.6089999676
790.0	5.08e-05	59.6399998665
790.0	5.05e-05	59.6870000362
790.0	5.08e-05	59.7179999352
790.0	5.13e-05	59.7649998665
790.0	5.08e-05	59.8120000362
790.0	5.13e-05	59.8589999676
800.0	5.28e-05	60.2030000687
800.0	5.3e-05	60.2339999676
800.0	5.38e-05	60.2809998989
800.0	5.38e-05	60.3280000687
800.0	5.38e-05	60.3589999676
800.0	5.38e-05	60.4059998989
800.0	5.33e-05	60.4370000362
800.0	5.33e-05	60.4839999676
800.0	5.38e-05	60.5309998989
800.0	5.38e-05	60.5620000362
800.0	5.38e-05	60.6089999676
800.0	5.38e-05	60.6559998989
800.0	5.38e-05	60.6870000362
800.0	5.43e-05	60.7339999676
800.0	5.45e-05	60.7649998665
800.0	5.5e-05	60.8120000362
800.0	5.5e-05	60.8589999676
800.0	5.5e-05	60.8899998665
800.0	5.45e-05	60.9370000362
800.0	5.45e-05	60.9839999676
800.0	5.45e-05	61.0149998665
800.0	5.43e-05	61.0620000362
800.0	5.43e-05	61.0929999352
800.0	5.4e-05	61.1399998665
800.0	5.38e-05	61.1870000362
800.0	5.38e-05	61.2179999352
800.0	5.33e-05	61.2649998665
800.0	5.3e-05	61.3120000362
800.0	5.33e-05	61.3429999352
800.0	5.38e-05	61.3899998665
800.0	5.38e-05	61.4210000038
800.0	5.38e-05	61.4679999352
800.0	5.43e-05	61.5149998665
800.0	5.43e-05	61.5460000038
800.0	5.43e-05	61.5929999352
800.0	5.4e-05	61.6399998665
800.0	5.4e-05	61.6710000038
810.0	5.65e-05	62.0149998665
810.0	5.75e-05	62.0620000362
810.0	5.75e-05	62.0929999352
810.0	5.78e-05	62.1399998665
810.0	5.78e-05	62.1870000362
810.0	5.83e-05	62.2179999352
810.0	5.83e-05	62.2649998665
810.0	5.83e-05	62.2960000038
810.0	5.83e-05	62.3429999352
810.0	5.9e-05	62.3899998665
810.0	5.9e-05	62.4210000038
810.0	5.88e-05	62.4679999352
810.0	5.88e-05	62.5149998665
810.0	5.83e-05	62.5460000038
810.0	5.88e-05	62.5929999352
810.0	5.88e-05	62.625
810.0	5.83e-05	62.6710000038
810.0	5.88e-05	62.7179999352
810.0	5.9e-05	62.75
810.0	5.9e-05	62.7960000038
810.0	5.93e-05	62.8429999352
810.0	5.9e-05	62.875
810.0	5.93e-05	62.9210000038
810.0	5.95e-05	62.9679999352
810.0	5.95e-05	63.0
810.0	6e-05	63.0460000038
810.0	5.95e-05	63.0780000687
810.0	5.95e-05	63.125
810.0	5.95e-05	63.1710000038
810.0	5.93e-05	63.2030000687
810.0	5.88e-05	63.25
810.0	5.9e-05	63.2960000038
810.0	5.88e-05	63.3280000687
810.0	5.9e-05	63.375
810.0	5.9e-05	63.4059998989
810.0	5.88e-05	63.4530000687
810.0	5.88e-05	63.5
820.0	6.13e-05	63.8280000687
820.0	6.2e-05	63.875
820.0	6.3e-05	63.9210000038
820.0	6.38e-05	63.9530000687
820.0	6.43e-05	64.0
820.0	6.43e-05	64.0309998989
820.0	6.4e-05	64.0780000687
820.0	6.38e-05	64.125
820.0	6.3e-05	64.1559998989
820.0	6.38e-05	64.2030000687
820.0	6.33e-05	64.25
820.0	6.3e-05	64.2809998989
820.0	6.28e-05	64.3280000687
820.0	6.28e-05	64.3589999676
820.0	6.28e-05	64.4059998989
820.0	6.28e-05	64.4530000687
820.0	6.28e-05	64.4839999676
820.0	6.3e-05	64.5309998989
820.0	6.38e-05	64.5780000687
820.0	6.4e-05	64.6089999676
820.0	6.38e-05	64.6559998989
820.0	6.38e-05	64.6870000362
820.0	6.38e-05	64.7339999676
820.0	6.38e-05	64.7809998989
820.0	6.4e-05	64.8280000687
820.0	6.38e-05	64.875
820.0	6.4e-05	64.9059998989
820.0	6.38e-05	64.9530000687
820.0	6.38e-05	64.9839999676
820.0	6.33e-05	65.0309998989
820.0	6.33e-05	65.0780000687
820.0	6.3e-05	65.1089999676
820.0	6.3e-05	65.1559998989
820.0	6.33e-05	65.2030000687
820.0	6.38e-05	65.2339999676
820.0	6.33e-05	65.2809998989
820.0	6.33e-05	65.3120000362
830.0	6.55e-05	65.6559998989
830.0	6.63e-05	65.6870000362
830.0	6.65e-05	65.7339999676
830.0	6.68e-05	65.7649998665
830.0	6.75e-05	65.8120000362
830.0	6.8e-05	65.8589999676
830.0	6.8e-05	65.8899998665
830.0	6.83e-05	65.9370000362
830.0	6.88e-05	65.9839999676
830.0	6.9e-05	66.0149998665
830.0	6.9e-05	66.0620000362
830.0	6.88e-05	66.0929999352
830.0	6.88e-05	66.1399998665
830.0	6.88e-05	66.1870000362
830.0	6.93e-05	66.2179999352
830.0	6.93e-05	66.2649998665
830.0	6.93e-05	66.2960000038
830.0	6.9e-05	66.3429999352
830.0	6.93e-05	66.3899998665
830.0	6.93e-05	66.4210000038
830.0	6.93e-05	66.4679999352
830.0	6.93e-05	66.5149998665
830.0	6.93e-05	66.5460000038
830.0	6.95e-05	66.5929999352
830.0	6.93e-05	66.6399998665
830.0	6.93e-05	66.6710000038
830.0	6.88e-05	66.7179999352
830.0	6.9e-05	66.75
830.0	6.9e-05	66.7960000038
830.0	6.88e-05	66.8429999352
830.0	6.88e-05	66.875
830.0	6.9e-05	66.9210000038
830.0	6.93e-05	66.9679999352
830.0	6.9e-05	67.0
830.0	6.9e-05	67.0460000038
830.0	6.93e-05	67.0780000687
830.0	6.95e-05	67.125
840.0	7.3e-05	67.4530000687
840.0	7.33e-05	67.5
840.0	7.4e-05	67.5309998989
840.0	7.45e-05	67.5780000687
840.0	7.5e-05	67.625
840.0	7.5e-05	67.6559998989
840.0	7.5e-05	67.7030000687
840.0	7.53e-05	67.75
840.0	7.5e-05	67.7809998989
840.0	7.53e-05	67.8280000687
840.0	7.53e-05	67.8589999676
840.0	7.55e-05	67.9059998989
840.0	7.55e-05	67.9530000687
840.0	7.55e-05	67.9839999676
840.0	7.58e-05	68.0309998989
840.0	7.63e-05	68.0780000687
840.0	7.63e-05	68.1089999676
840.0	7.63e-05	68.1559998989
840.0	7.63e-05	68.1870000362
840.0	7.63e-05	68.2339999676
840.0	7.63e-05	68.2809998989
840.0	7.58e-05	68.3280000687
840.0	7.58e-05	68.3589999676
840.0	7.58e-05	68.4059998989
840.0	7.55e-05	68.4370000362
840.0	7.58e-05	68.4839999676
840.0	7.58e-05	68.5309998989
840.0	7.55e-05	68.5620000362
840.0	7.53e-05	68.6089999676
840.0	7.45e-05	68.6559998989
840.0	7.45e-05	68.6870000362
840.0	7.5e-05	68.7339999676
840.0	7.5e-05	68.7809998989
840.0	7.5e-05	68.8120000362
840.0	7.5e-05	68.8589999676
840.0	7.53e-05	68.8899998665
840.0	7.55e-05	68.9370000362
850.0	7.8e-05	69.2649998665
850.0	7.93e-05	69.2960000038
850.0	8e-05	69.3429999352
850.0	8.05e-05	69.3899998665
850.0	8.13e-05	69.4210000038
850.0	8.15e-05	69.4679999352
850.0	8.2e-05	69.5149998665
850.0	8.25e-05	69.5460000038
850.0	8.25e-05	69.5929999352
850.0	8.2e-05	69.6399998665
850.0	8.25e-05	69.6710000038
850.0	8.2e-05	69.7179999352
850.0	8.18e-05	69.7649998665
850.0	8.2e-05	69.7960000038
850.0	8.2e-05	69.8429999352
850.0	8.25e-05	69.875
850.0	8.2e-05	69.9210000038
850.0	8.25e-05	69.9679999352
850.0	8.28e-05	70.0
850.0	8.3e-05	70.0460000038
850.0	8.33e-05	70.0929999352
850.0	8.3e-05	70.125
850.0	8.25e-05	70.1710000038
850.0	8.25e-05	70.2179999352
850.0	8.3e-05	70.25
850.0	8.3e-05	70.2960000038
850.0	8.3e-05	70.3280000687
850.0	8.3e-05	70.375
850.0	8.33e-05	70.4210000038
850.0	8.38e-05	70.4530000687
850.0	8.38e-05	70.5
850.0	8.33e-05	70.5460000038
850.0	8.33e-05	70.5780000687
850.0	8.33e-05	70.625
850.0	8.33e-05	70.6559998989
850.0	8.3e-05	70.7030000687
850.0	8.3e-05	70.75
860.0	8.75e-05	71.0620000362
860.0	8.8e-05	71.1559998989
860.0	9.03e-05	71.2030000687
860.0	9.05e-05	71.25
860.0	9.13e-05	71.2809998989
860.0	9.15e-05	71.3280000687
860.0	9.13e-05	71.375
860.0	9.13e-05	71.4059998989
860.0	9.15e-05	71.4530000687
860.0	9.2e-05	71.5
860.0	9.18e-05	71.5309998989
860.0	9.18e-05	71.5780000687
860.0	9.15e-05	71.6089999676
860.0	9.2e-05	71.6559998989
860.0	9.18e-05	71.7030000687
860.0	9.25e-05	71.75
860.0	9.25e-05	71.7809998989
860.0	9.25e-05	71.8280000687
860.0	9.25e-05	71.8589999676
860.0	9.3e-05	71.9059998989
860.0	9.33e-05	71.9530000687
860.0	9.3e-05	71.9839999676
860.0	9.28e-05	72.0309998989
860.0	9.28e-05	72.0780000687
860.0	9.28e-05	72.1089999676
860.0	9.25e-05	72.1559998989
860.0	9.2e-05	72.1870000362
860.0	9.2e-05	72.2339999676
860.0	9.18e-05	72.2809998989
860.0	9.18e-05	72.3120000362
860.0	9.15e-05	72.3589999676
860.0	9.15e-05	72.4059998989
860.0	9.13e-05	72.4370000362
860.0	9.13e-05	72.4839999676
860.0	9.13e-05	72.5309998989
870.0	9.58e-05	72.8429999352
870.0	9.68e-05	72.8899998665
870.0	9.78e-05	72.9210000038
870.0	9.9e-05	72.9679999352
870.0	0.0001	73.0149998665
870.0	0.0001003	73.0460000038
870.0	0.0001005	73.0929999352
870.0	0.0001008	73.1399998665
870.0	0.0001013	73.1710000038
870.0	0.0001015	73.2179999352
870.0	0.0001013	73.2649998665
870.0	0.0001015	73.2960000038
870.0	0.0001015	73.3429999352
870.0	0.0001018	73.375
870.0	0.0001018	73.4210000038
870.0	0.0001018	73.4679999352
870.0	0.0001015	73.5
870.0	0.0001013	73.5460000038
870.0	0.0001018	73.5929999352
870.0	0.000102	73.625
870.0	0.0001015	73.6710000038
870.0	0.0001015	73.7030000687
870.0	0.0001015	73.75
870.0	0.000102	73.7960000038
870.0	0.0001018	73.8280000687
870.0	0.000102	73.875
870.0	0.000102	73.9210000038
870.0	0.000102	73.9530000687
870.0	0.000102	74.0
870.0	0.0001015	74.0309998989
870.0	0.0001015	74.0780000687
870.0	0.0001013	74.125
870.0	0.0001018	74.1559998989
870.0	0.0001013	74.2030000687
870.0	0.0001015	74.25
870.0	0.0001013	74.2960000038
880.0	0.0001068	74.6089999676
880.0	0.000109	74.6399998665
880.0	0.0001095	74.6870000362
880.0	0.0001103	74.7179999352
880.0	0.0001105	74.7649998665
880.0	0.0001118	74.8120000362
880.0	0.0001118	74.8429999352
880.0	0.000112	74.8899998665
880.0	0.0001125	74.9210000038
880.0	0.0001128	74.9679999352
880.0	0.0001133	75.0149998665
880.0	0.000113	75.0460000038
880.0	0.000113	75.0929999352
880.0	0.0001128	75.1399998665
880.0	0.000113	75.1710000038
880.0	0.0001133	75.2179999352
880.0	0.000113	75.2649998665
880.0	0.000113	75.2960000038
880.0	0.000113	75.3429999352
880.0	0.0001138	75.3899998665
880.0	0.0001133	75.4210000038
880.0	0.000113	75.4679999352
880.0	0.0001128	75.5149998665
880.0	0.0001125	75.5460000038
880.0	0.0001128	75.5929999352
880.0	0.0001133	75.625
880.0	0.000113	75.6710000038
880.0	0.0001133	75.7179999352
880.0	0.000113	75.75
880.0	0.0001133	75.7960000038
880.0	0.0001138	75.8429999352
880.0	0.0001133	75.875
880.0	0.0001133	75.9210000038
880.0	0.000113	75.9530000687
880.0	0.0001138	76.0
880.0	0.0001138	76.0460000038
880.0	0.0001133	76.0780000687
890.0	0.0001188	76.3899998665
890.0	0.0001205	76.4370000362
890.0	0.0001218	76.4839999676
890.0	0.0001225	76.5149998665
890.0	0.0001233	76.5620000362
890.0	0.0001243	76.5929999352
890.0	0.000125	76.6399998665
890.0	0.000125	76.6870000362
890.0	0.000125	76.7179999352
890.0	0.0001245	76.7649998665
890.0	0.0001255	76.8120000362
890.0	0.0001255	76.8429999352
890.0	0.0001258	76.8899998665
890.0	0.0001263	76.9210000038
890.0	0.0001263	76.9679999352
890.0	0.0001268	77.0149998665
890.0	0.0001265	77.0460000038
890.0	0.0001265	77.0929999352
890.0	0.0001265	77.1399998665
890.0	0.0001268	77.1710000038
890.0	0.0001265	77.2179999352
890.0	0.0001268	77.2649998665
890.0	0.0001268	77.2960000038
890.0	0.0001265	77.3429999352
890.0	0.0001265	77.3899998665
890.0	0.000127	77.4210000038
890.0	0.0001265	77.4679999352
890.0	0.0001265	77.5149998665
890.0	0.0001265	77.5460000038
890.0	0.0001268	77.5929999352
890.0	0.0001268	77.625
890.0	0.0001263	77.6710000038
890.0	0.0001258	77.7179999352
890.0	0.0001258	77.75
890.0	0.0001263	77.7960000038
890.0	0.0001263	77.8429999352
890.0	0.0001258	77.875
900.0	0.0001305	78.1870000362
900.0	0.0001325	78.2339999676
900.0	0.0001333	78.2649998665
900.0	0.0001343	78.3120000362
900.0	0.0001355	78.3429999352
900.0	0.0001368	78.3899998665
900.0	0.0001375	78.4370000362
900.0	0.000138	78.4679999352
900.0	0.0001383	78.5149998665
900.0	0.000139	78.5620000362
900.0	0.00014	78.5929999352
900.0	0.0001395	78.6399998665
900.0	0.00014	78.6710000038
900.0	0.00014	78.7179999352
900.0	0.0001405	78.7649998665
900.0	0.00014	78.7960000038
900.0	0.00014	78.8429999352
900.0	0.00014	78.8899998665
900.0	0.0001408	78.9210000038
900.0	0.0001408	78.9679999352
900.0	0.0001405	79.0149998665
900.0	0.0001405	79.0460000038
900.0	0.0001405	79.0929999352
900.0	0.0001413	79.125
900.0	0.0001415	79.1710000038
900.0	0.0001413	79.2179999352
900.0	0.0001405	79.25
900.0	0.0001408	79.2960000038
900.0	0.0001413	79.3429999352
900.0	0.0001405	79.375
900.0	0.00014	79.4210000038
900.0	0.0001395	79.4530000687
900.0	0.00014	79.5
900.0	0.0001408	79.5460000038
900.0	0.0001408	79.5929999352
900.0	0.0001408	79.625
900.0	0.0001405	79.6710000038
910.0	0.0001465	79.9839999676
910.0	0.0001493	80.0149998665
910.0	0.0001513	80.0620000362
910.0	0.000153	80.0929999352
910.0	0.0001538	80.1399998665
910.0	0.0001545	80.1870000362
910.0	0.0001543	80.2179999352
910.0	0.0001543	80.2649998665
910.0	0.000155	80.3120000362
910.0	0.0001553	80.3429999352
910.0	0.0001545	80.3899998665
910.0	0.0001545	80.4210000038
910.0	0.000155	80.4679999352
910.0	0.0001558	80.5149998665
910.0	0.0001563	80.5460000038
910.0	0.0001558	80.5929999352
910.0	0.0001555	80.6399998665
910.0	0.0001555	80.6870000362
910.0	0.0001558	80.7179999352
910.0	0.0001558	80.7649998665
910.0	0.0001555	80.7960000038
910.0	0.0001555	80.8429999352
910.0	0.0001553	80.8899998665
910.0	0.0001553	80.9210000038
910.0	0.0001558	80.9679999352
910.0	0.0001553	81.0149998665
910.0	0.0001553	81.0460000038
910.0	0.000155	81.0929999352
910.0	0.0001555	81.125
910.0	0.0001565	81.1710000038
910.0	0.0001563	81.2179999352
910.0	0.0001558	81.25
910.0	0.0001558	81.2960000038
910.0	0.0001565	81.3429999352
910.0	0.0001563	81.375
910.0	0.0001563	81.4210000038
910.0	0.0001563	81.4679999352
920.0	0.000162	81.7649998665
920.0	0.0001643	81.8120000362
920.0	0.0001663	81.8589999676
920.0	0.0001678	81.8899998665
920.0	0.0001695	81.9370000362
920.0	0.0001705	81.9839999676
920.0	0.0001708	82.0149998665
920.0	0.0001715	82.0620000362
920.0	0.0001725	82.0929999352
920.0	0.0001728	82.1399998665
920.0	0.0001725	82.1870000362
920.0	0.000172	82.2179999352
920.0	0.000172	82.2649998665
920.0	0.0001728	82.3120000362
920.0	0.000173	82.3429999352
920.0	0.0001728	82.3899998665
920.0	0.000173	82.4210000038
920.0	0.0001738	82.4679999352
920.0	0.0001738	82.5149998665
920.0	0.0001733	82.5460000038
920.0	0.0001728	82.5929999352
920.0	0.0001728	82.6399998665
920.0	0.0001728	82.6710000038
920.0	0.0001733	82.7179999352
920.0	0.0001725	82.7649998665
920.0	0.0001725	82.7960000038
920.0	0.0001728	82.8429999352
920.0	0.000173	82.875
920.0	0.0001733	82.9210000038
920.0	0.000173	82.9679999352
920.0	0.000173	83.0
920.0	0.000173	83.0460000038
920.0	0.0001733	83.0929999352
920.0	0.0001733	83.125
920.0	0.000173	83.1710000038
920.0	0.0001733	83.2179999352
920.0	0.000173	83.25
930.0	0.0001813	83.5620000362
930.0	0.0001828	83.5929999352
930.0	0.0001855	83.6399998665
930.0	0.000187	83.6870000362
930.0	0.0001878	83.7179999352
930.0	0.0001883	83.7649998665
930.0	0.000189	83.8120000362
930.0	0.0001895	83.8429999352
930.0	0.0001903	83.8899998665
930.0	0.00019	83.9210000038
930.0	0.0001905	83.9679999352
930.0	0.0001918	84.0149998665
930.0	0.0001915	84.0620000362
930.0	0.0001928	84.0929999352
930.0	0.0001918	84.1399998665
930.0	0.0001915	84.1710000038
930.0	0.0001913	84.2179999352
930.0	0.0001918	84.2649998665
930.0	0.0001918	84.2960000038
930.0	0.0001908	84.3429999352
930.0	0.0001905	84.3899998665
930.0	0.0001903	84.4210000038
930.0	0.0001913	84.4679999352
930.0	0.0001905	84.5149998665
930.0	0.00019	84.5460000038
930.0	0.00019	84.5929999352
930.0	0.0001905	84.625
930.0	0.0001908	84.6710000038
930.0	0.0001905	84.7179999352
930.0	0.00019	84.75
930.0	0.00019	84.7960000038
930.0	0.0001913	84.8429999352
930.0	0.0001913	84.875
930.0	0.0001903	84.9210000038
930.0	0.00019	84.9679999352
930.0	0.00019	85.0149998665
940.0	0.000198	85.3120000362
940.0	0.0001995	85.3429999352
940.0	0.000202	85.3899998665
940.0	0.0002043	85.4370000362
940.0	0.000205	85.4679999352
940.0	0.0002063	85.5149998665
940.0	0.0002068	85.5620000362
940.0	0.000208	85.5929999352
940.0	0.0002083	85.6399998665
940.0	0.000208	85.6710000038
940.0	0.000208	85.7179999352
940.0	0.000209	85.7649998665
940.0	0.0002093	85.7960000038
940.0	0.0002093	85.8429999352
940.0	0.0002088	85.8899998665
940.0	0.0002088	85.9210000038
940.0	0.000209	85.9679999352
940.0	0.0002093	86.0
940.0	0.0002088	86.0460000038
940.0	0.000209	86.0929999352
940.0	0.0002093	86.125
940.0	0.0002095	86.1710000038
940.0	0.00021	86.2179999352
940.0	0.000209	86.25
940.0	0.0002088	86.2960000038
940.0	0.0002088	86.3280000687
940.0	0.000209	86.375
940.0	0.000208	86.4210000038
940.0	0.0002083	86.4679999352
940.0	0.0002083	86.5
940.0	0.0002083	86.5460000038
940.0	0.0002093	86.5929999352
940.0	0.00021	86.625
940.0	0.0002095	86.6710000038
940.0	0.000209	86.7030000687
940.0	0.000209	86.75
940.0	0.0002095	86.7960000038
950.0	0.000217	87.0929999352
950.0	0.00022	87.125
950.0	0.0002215	87.1710000038
950.0	0.0002228	87.2030000687
950.0	0.000225	87.25
950.0	0.0002263	87.2960000038
950.0	0.0002263	87.3280000687
950.0	0.0002265	87.375
950.0	0.0002265	87.4210000038
950.0	0.000228	87.4530000687
950.0	0.0002278	87.5
950.0	0.000228	87.5309998989
950.0	0.000228	87.5780000687
950.0	0.000228	87.625
950.0	0.0002288	87.6559998989
950.0	0.0002288	87.7030000687
950.0	0.0002283	87.75
950.0	0.0002283	87.7809998989
950.0	0.0002288	87.8280000687
950.0	0.0002293	87.875
950.0	0.0002288	87.9059998989
950.0	0.0002288	87.9530000687
950.0	0.0002293	87.9839999676
950.0	0.000229	88.0309998989
950.0	0.000229	88.0780000687
950.0	0.0002283	88.1089999676
950.0	0.0002283	88.1559998989
950.0	0.000228	88.2030000687
950.0	0.0002293	88.2339999676
950.0	0.0002288	88.2809998989
950.0	0.0002288	88.3120000362
950.0	0.0002283	88.3589999676
950.0	0.000229	88.4059998989
950.0	0.0002293	88.4370000362
950.0	0.0002283	88.4839999676
950.0	0.000228	88.5309998989
950.0	0.0002278	88.5620000362
960.0	0.0002375	88.8589999676
960.0	0.000239	88.8899998665
960.0	0.0002413	88.9370000362
960.0	0.0002438	88.9679999352
960.0	0.0002443	89.0149998665
960.0	0.000245	89.0620000362
960.0	0.0002455	89.0929999352
960.0	0.0002463	89.1399998665
960.0	0.0002475	89.1870000362
960.0	0.0002468	89.2179999352
960.0	0.0002468	89.2649998665
960.0	0.0002475	89.3120000362
960.0	0.0002475	89.3429999352
960.0	0.000248	89.3899998665
960.0	0.0002478	89.4370000362
960.0	0.0002468	89.4679999352
960.0	0.0002468	89.5149998665
960.0	0.000247	89.5620000362
960.0	0.0002478	89.5929999352
960.0	0.000248	89.6399998665
960.0	0.0002475	89.6710000038
960.0	0.0002475	89.7179999352
960.0	0.0002478	89.7649998665
960.0	0.0002483	89.7960000038
960.0	0.000247	89.8429999352
960.0	0.0002468	89.8899998665
960.0	0.0002468	89.9210000038
960.0	0.0002478	89.9679999352
960.0	0.0002483	90.0
960.0	0.0002478	90.0460000038
960.0	0.0002478	90.0929999352
960.0	0.0002475	90.125
960.0	0.0002483	90.1710000038
960.0	0.000249	90.2179999352
960.0	0.0002483	90.2649998665
960.0	0.0002488	90.2960000038
960.0	0.000249	90.3429999352
970.0	0.0002555	90.625
970.0	0.0002578	90.6710000038
970.0	0.00026	90.7030000687
970.0	0.000262	90.75
970.0	0.000263	90.7960000038
970.0	0.000264	90.8280000687
970.0	0.0002643	90.875
970.0	0.000265	90.9210000038
970.0	0.0002665	90.9530000687
970.0	0.0002668	91.0
970.0	0.0002665	91.0309998989
970.0	0.0002668	91.0780000687
970.0	0.0002665	91.125
970.0	0.0002675	91.1559998989
970.0	0.0002668	91.2030000687
970.0	0.0002668	91.25
970.0	0.0002663	91.2809998989
970.0	0.000267	91.3280000687
970.0	0.0002675	91.3589999676
970.0	0.0002675	91.4059998989
970.0	0.0002668	91.4530000687
970.0	0.0002668	91.4839999676
970.0	0.0002675	91.5309998989
970.0	0.000267	91.5780000687
970.0	0.0002668	91.6089999676
970.0	0.0002663	91.6559998989
970.0	0.0002663	91.7030000687
970.0	0.0002668	91.7339999676
970.0	0.0002678	91.7809998989
970.0	0.0002665	91.8120000362
970.0	0.0002663	91.8589999676
970.0	0.0002663	91.9059998989
970.0	0.000267	91.9370000362
970.0	0.000267	91.9839999676
970.0	0.0002663	92.0309998989
970.0	0.0002658	92.0620000362
970.0	0.0002668	92.1089999676
980.0	0.000275	92.3899998665
980.0	0.0002763	92.4370000362
980.0	0.0002788	92.4679999352
980.0	0.0002813	92.5149998665
980.0	0.0002815	92.5460000038
980.0	0.0002825	92.5929999352
980.0	0.000284	92.6399998665
980.0	0.0002845	92.6710000038
980.0	0.000284	92.7179999352
980.0	0.0002843	92.7649998665
980.0	0.0002845	92.7960000038
980.0	0.0002858	92.8429999352
980.0	0.0002863	92.875
980.0	0.0002855	92.9210000038
980.0	0.0002853	92.9679999352
980.0	0.0002863	93.0
980.0	0.0002863	93.0460000038
980.0	0.0002853	93.0929999352
980.0	0.000285	93.125
980.0	0.000285	93.1710000038
980.0	0.0002855	93.2179999352
980.0	0.0002858	93.25
980.0	0.000285	93.2960000038
980.0	0.0002843	93.3280000687
980.0	0.000284	93.375
980.0	0.000285	93.4210000038
980.0	0.0002853	93.4530000687
980.0	0.0002843	93.5
980.0	0.000284	93.5460000038
980.0	0.0002843	93.5780000687
980.0	0.000284	93.625
980.0	0.000285	93.6710000038
980.0	0.0002858	93.7030000687
980.0	0.000285	93.75
980.0	0.0002845	93.7960000038
980.0	0.0002858	93.8280000687
980.0	0.0002863	93.875
990.0	0.0002918	94.1559998989
990.0	0.0002938	94.2030000687
990.0	0.0002955	94.2339999676
990.0	0.0002968	94.2809998989
990.0	0.0002978	94.3280000687
990.0	0.0002995	94.3589999676
990.0	0.0003008	94.4059998989
990.0	0.0003005	94.4370000362
990.0	0.0003013	94.4839999676
990.0	0.0003015	94.5309998989
990.0	0.000303	94.5620000362
990.0	0.0003033	94.6089999676
990.0	0.0003028	94.6559998989
990.0	0.000302	94.6870000362
990.0	0.000303	94.7339999676
990.0	0.000303	94.7809998989
990.0	0.000303	94.8120000362
990.0	0.0003025	94.8589999676
990.0	0.000302	94.9059998989
990.0	0.000302	94.9370000362
990.0	0.0003025	94.9839999676
990.0	0.0003025	95.0149998665
990.0	0.000302	95.0620000362
990.0	0.000302	95.1089999676
990.0	0.000302	95.1399998665
990.0	0.000303	95.1870000362
990.0	0.000303	95.2339999676
990.0	0.000302	95.2649998665
990.0	0.0003018	95.3120000362
990.0	0.000303	95.3429999352
990.0	0.0003033	95.3899998665
990.0	0.0003025	95.4370000362
990.0	0.000302	95.4679999352
990.0	0.0003018	95.5149998665
990.0	0.0003028	95.5620000362
990.0	0.000303	95.5929999352
990.0	0.000302	95.6399998665
1000.0	0.000308	95.9210000038
1000.0	0.0003105	95.9530000687
1000.0	0.0003125	96.0
1000.0	0.000315	96.0460000038
1000.0	0.0003165	96.0780000687
1000.0	0.0003165	96.125
1000.0	0.0003175	96.1710000038
1000.0	0.000318	96.2030000687
1000.0	0.0003188	96.25
1000.0	0.0003195	96.2960000038
1000.0	0.00032	96.3280000687
1000.0	0.000319	96.375
1000.0	0.000319	96.4210000038
1000.0	0.000319	96.4530000687
1000.0	0.0003195	96.5
1000.0	0.0003188	96.5309998989
1000.0	0.0003188	96.5780000687
1000.0	0.000319	96.625
1000.0	0.0003195	96.6559998989
1000.0	0.0003195	96.7030000687
1000.0	0.0003188	96.75
1000.0	0.000319	96.7809998989
1000.0	0.000319	96.8280000687
1000.0	0.0003205	96.875
1000.0	0.0003195	96.9059998989
1000.0	0.0003203	96.9530000687
1000.0	0.0003195	97.0
1000.0	0.0003193	97.0309998989
1000.0	0.0003193	97.0780000687
1000.0	0.0003203	97.125
1000.0	0.0003193	97.1559998989
1000.0	0.0003193	97.2030000687
1000.0	0.000319	97.2339999676
1000.0	0.00032	97.2809998989
1000.0	0.0003203	97.3280000687
1000.0	0.0003195	97.3589999676
1000.0	0.0003193	97.4059998989
1010.0	0.0003263	97.6870000362
1010.0	0.0003275	97.7179999352
1010.0	0.0003295	97.7649998665
1010.0	0.0003328	97.8120000362
1010.0	0.000333	97.8429999352
1010.0	0.0003338	97.8899998665
1010.0	0.0003343	97.9370000362
1010.0	0.0003358	97.9679999352
1010.0	0.0003358	98.0149998665
1010.0	0.000335	98.0460000038
1010.0	0.0003355	98.0929999352
1010.0	0.0003358	98.1399998665
1010.0	0.0003368	98.1710000038
1010.0	0.0003365	98.2179999352
1010.0	0.0003355	98.2649998665
1010.0	0.0003358	98.2960000038
1010.0	0.0003368	98.3429999352
1010.0	0.0003365	98.375
1010.0	0.0003353	98.4210000038
1010.0	0.0003355	98.4679999352
1010.0	0.0003358	98.5
1010.0	0.0003368	98.5460000038
1010.0	0.000337	98.5929999352
1010.0	0.0003358	98.625
1010.0	0.0003363	98.6710000038
1010.0	0.0003363	98.7030000687
1010.0	0.0003378	98.75
1010.0	0.0003375	98.7960000038
1010.0	0.0003368	98.8280000687
1010.0	0.0003365	98.875
1010.0	0.0003378	98.9210000038
1010.0	0.0003375	98.9530000687
1010.0	0.0003375	99.0
1010.0	0.0003358	99.0460000038
1010.0	0.0003358	99.0780000687
1010.0	0.000337	99.125
1010.0	0.0003375	99.1559998989
1020.0	0.000343	99.4370000362
1020.0	0.0003465	99.4839999676
1020.0	0.000347	99.5309998989
1020.0	0.000348	99.5620000362
1020.0	0.0003503	99.6089999676
1020.0	0.0003513	99.6399998665
1020.0	0.0003508	99.6870000362
1020.0	0.0003513	99.7339999676
1020.0	0.0003518	99.7809998989
1020.0	0.0003518	99.8120000362
1020.0	0.000354	99.8589999676
1020.0	0.0003543	99.8899998665
1020.0	0.0003533	99.9370000362
1020.0	0.000354	99.9839999676
1020.0	0.000353	100.030999899
1020.0	0.0003533	100.062000036
1020.0	0.0003543	100.108999968
1020.0	0.0003538	100.155999899
1020.0	0.0003533	100.187000036
1020.0	0.000354	100.233999968
1020.0	0.000355	100.264999866
1020.0	0.000355	100.312000036
1020.0	0.000354	100.358999968
1020.0	0.0003543	100.389999866
1020.0	0.0003545	100.437000036
1020.0	0.000355	100.467999935
1020.0	0.0003538	100.514999866
1020.0	0.0003533	100.562000036
1020.0	0.0003533	100.592999935
1020.0	0.0003533	100.639999866
1020.0	0.0003543	100.687000036
1020.0	0.000353	100.717999935
1020.0	0.0003533	100.764999866
1020.0	0.000353	100.812000036
1020.0	0.0003545	100.842999935
1020.0	0.0003545	100.889999866
1020.0	0.0003533	100.921000004
1030.0	0.0003593	101.203000069
1030.0	0.0003615	101.25
1030.0	0.0003633	101.296000004
1030.0	0.0003645	101.328000069
1030.0	0.0003675	101.375
1030.0	0.0003675	101.405999899
1030.0	0.0003688	101.453000069
1030.0	0.0003693	101.5
1030.0	0.0003708	101.530999899
1030.0	0.0003713	101.578000069
1030.0	0.0003705	101.625
1030.0	0.0003705	101.655999899
1030.0	0.0003703	101.703000069
1030.0	0.0003718	101.733999968
1030.0	0.0003715	101.780999899
1030.0	0.0003708	101.828000069
1030.0	0.0003708	101.858999968
1030.0	0.0003718	101.905999899
1030.0	0.000372	101.953000069
1030.0	0.0003708	101.983999968
1030.0	0.0003708	102.030999899
1030.0	0.0003705	102.078000069
1030.0	0.0003718	102.108999968
1030.0	0.0003715	102.155999899
1030.0	0.0003705	102.187000036
1030.0	0.0003705	102.233999968
1030.0	0.0003705	102.280999899
1030.0	0.000372	102.312000036
1030.0	0.000372	102.358999968
1030.0	0.0003713	102.405999899
1030.0	0.0003708	102.437000036
1030.0	0.0003718	102.483999968
1030.0	0.0003718	102.514999866
1030.0	0.0003725	102.562000036
1030.0	0.0003708	102.608999968
1030.0	0.0003713	102.639999866
1030.0	0.0003715	102.687000036
1040.0	0.0003765	102.967999935
1040.0	0.00038	103.0
1040.0	0.0003815	103.046000004
1040.0	0.000382	103.092999935
1040.0	0.0003838	103.125
1040.0	0.0003858	103.171000004
1040.0	0.0003868	103.217999935
1040.0	0.0003863	103.25
1040.0	0.0003868	103.296000004
1040.0	0.0003868	103.328000069
1040.0	0.000389	103.375
1040.0	0.0003893	103.421000004
1040.0	0.000388	103.453000069
1040.0	0.0003878	103.5
1040.0	0.000387	103.546000004
1040.0	0.0003875	103.578000069
1040.0	0.0003888	103.625
1040.0	0.0003878	103.671000004
1040.0	0.0003878	103.703000069
1040.0	0.000388	103.75
1040.0	0.0003893	103.796000004
1040.0	0.0003893	103.828000069
1040.0	0.000388	103.875
1040.0	0.0003883	103.921000004
1040.0	0.0003888	103.953000069
1040.0	0.00039	104.0
1040.0	0.0003903	104.030999899
1040.0	0.000389	104.078000069
1040.0	0.000389	104.125
1040.0	0.0003903	104.155999899
1040.0	0.0003903	104.203000069
1040.0	0.0003893	104.25
1040.0	0.000389	104.280999899
1040.0	0.0003888	104.328000069
1040.0	0.0003903	104.358999968
1040.0	0.00039	104.405999899
1040.0	0.000389	104.453000069
1050.0	0.0003938	104.733999968
1050.0	0.0003963	104.764999866
1050.0	0.000398	104.812000036
1050.0	0.0004008	104.842999935
1050.0	0.0004025	104.889999866
1050.0	0.000402	104.937000036
1050.0	0.0004028	104.967999935
1050.0	0.0004033	105.014999866
1050.0	0.0004055	105.062000036
1050.0	0.0004058	105.092999935
1050.0	0.0004053	105.139999866
1050.0	0.0004053	105.171000004
1050.0	0.0004053	105.217999935
1050.0	0.0004075	105.264999866
1050.0	0.0004058	105.296000004
1050.0	0.0004053	105.342999935
1050.0	0.0004055	105.389999866
1050.0	0.0004055	105.437000036
1050.0	0.000407	105.467999935
1050.0	0.0004068	105.514999866
1050.0	0.0004063	105.546000004
1050.0	0.0004063	105.592999935
1050.0	0.0004058	105.639999866
1050.0	0.000407	105.671000004
1050.0	0.0004078	105.717999935
1050.0	0.0004055	105.764999866
1050.0	0.0004055	105.796000004
1050.0	0.0004053	105.842999935
1050.0	0.0004075	105.889999866
1050.0	0.000407	105.921000004
1050.0	0.0004058	105.967999935
1050.0	0.0004065	106.014999866
1050.0	0.0004068	106.046000004
1050.0	0.0004078	106.092999935
1050.0	0.0004075	106.125
1050.0	0.0004065	106.171000004
1050.0	0.0004068	106.217999935
1060.0	0.000413	106.5
1060.0	0.0004138	106.530999899
1060.0	0.000417	106.578000069
1060.0	0.0004188	106.625
1060.0	0.0004188	106.655999899
1060.0	0.0004193	106.703000069
1060.0	0.0004203	106.75
1060.0	0.0004213	106.780999899
1060.0	0.0004233	106.828000069
1060.0	0.0004238	106.875
1060.0	0.0004228	106.905999899
1060.0	0.000423	106.953000069
1060.0	0.000424	106.983999968
1060.0	0.0004245	107.030999899
1060.0	0.0004233	107.078000069
1060.0	0.0004233	107.108999968
1060.0	0.0004238	107.155999899
1060.0	0.0004245	107.203000069
1060.0	0.000425	107.233999968
1060.0	0.0004233	107.280999899
1060.0	0.0004228	107.312000036
1060.0	0.0004225	107.358999968
1060.0	0.0004245	107.405999899
1060.0	0.0004238	107.437000036
1060.0	0.0004238	107.483999968
1060.0	0.000424	107.530999899
1060.0	0.0004253	107.562000036
1060.0	0.0004255	107.608999968
1060.0	0.0004245	107.639999866
1060.0	0.000425	107.687000036
1060.0	0.0004245	107.733999968
1060.0	0.0004255	107.764999866
1060.0	0.0004258	107.812000036
1060.0	0.0004243	107.858999968
1060.0	0.000424	107.889999866
1060.0	0.0004245	107.937000036
1060.0	0.0004253	107.967999935
1070.0	0.0004293	108.25
1070.0	0.0004328	108.296000004
1070.0	0.000433	108.342999935
1070.0	0.000434	108.375
1070.0	0.000435	108.421000004
1070.0	0.0004375	108.467999935
1070.0	0.0004375	108.5
1070.0	0.000438	108.546000004
1070.0	0.0004383	108.578000069
1070.0	0.0004403	108.625
1070.0	0.000439	108.671000004
1070.0	0.0004405	108.717999935
1070.0	0.0004403	108.75
1070.0	0.0004393	108.796000004
1070.0	0.0004388	108.828000069
1070.0	0.00044	108.875
1070.0	0.00044	108.921000004
1070.0	0.0004383	108.953000069
1070.0	0.000438	109.0
1070.0	0.0004383	109.046000004
1070.0	0.0004395	109.078000069
1070.0	0.0004405	109.125
1070.0	0.000439	109.155999899
1070.0	0.00044	109.203000069
1070.0	0.00044	109.25
1070.0	0.0004415	109.280999899
1070.0	0.0004405	109.328000069
1070.0	0.0004403	109.375
1070.0	0.00044	109.405999899
1070.0	0.0004415	109.453000069
1070.0	0.0004408	109.5
1070.0	0.00044	109.530999899
1070.0	0.00044	109.578000069
1070.0	0.0004393	109.608999968
1070.0	0.0004405	109.655999899
1070.0	0.0004405	109.703000069
1070.0	0.0004393	109.733999968
1080.0	0.0004445	110.014999866
1080.0	0.000447	110.062000036
1080.0	0.000449	110.092999935
1080.0	0.000452	110.139999866
1080.0	0.000453	110.187000036
1080.0	0.0004525	110.217999935
1080.0	0.000453	110.264999866
1080.0	0.0004528	110.312000036
1080.0	0.0004545	110.342999935
1080.0	0.0004555	110.389999866
1080.0	0.0004545	110.421000004
1080.0	0.0004543	110.467999935
1080.0	0.0004543	110.514999866
1080.0	0.0004563	110.546000004
1080.0	0.000455	110.592999935
1080.0	0.0004545	110.639999866
1080.0	0.0004545	110.671000004
1080.0	0.000455	110.717999935
1080.0	0.0004545	110.764999866
1080.0	0.0004555	110.796000004
1080.0	0.0004555	110.842999935
1080.0	0.0004555	110.889999866
1080.0	0.0004558	110.921000004
1080.0	0.000457	110.967999935
1080.0	0.0004565	111.014999866
1080.0	0.0004555	111.046000004
1080.0	0.0004555	111.092999935
1080.0	0.0004568	111.125
1080.0	0.0004568	111.171000004
1080.0	0.000455	111.217999935
1080.0	0.000455	111.25
1080.0	0.000455	111.296000004
1080.0	0.0004563	111.342999935
1080.0	0.0004565	111.375
1080.0	0.000455	111.421000004
1080.0	0.000455	111.453000069
1080.0	0.0004545	111.5
1090.0	0.00046	111.780999899
1090.0	0.000462	111.812000036
1090.0	0.0004625	111.858999968
1090.0	0.0004625	111.905999899
1090.0	0.0004638	111.937000036
1090.0	0.0004658	111.983999968
1090.0	0.0004658	112.014999866
1090.0	0.0004653	112.062000036
1090.0	0.000465	112.108999968
1090.0	0.0004655	112.139999866
1090.0	0.0004663	112.187000036
1090.0	0.0004668	112.233999968
1090.0	0.0004658	112.264999866
1090.0	0.0004663	112.312000036
1090.0	0.0004663	112.358999968
1090.0	0.0004668	112.389999866
1090.0	0.0004665	112.437000036
1090.0	0.0004675	112.483999968
1090.0	0.000467	112.530999899
1090.0	0.0004665	112.562000036
1090.0	0.0004663	112.608999968
1090.0	0.0004678	112.639999866
1090.0	0.000468	112.687000036
1090.0	0.0004665	112.733999968
1090.0	0.0004665	112.764999866
1090.0	0.000467	112.812000036
1090.0	0.0004683	112.858999968
1090.0	0.0004665	112.889999866
1090.0	0.0004668	112.937000036
1090.0	0.0004665	112.967999935
1090.0	0.0004678	113.014999866
1090.0	0.000468	113.062000036
1090.0	0.0004663	113.092999935
1090.0	0.0004658	113.139999866
1090.0	0.0004663	113.187000036
1090.0	0.0004675	113.217999935
1090.0	0.0004675	113.264999866
1100.0	0.0004688	113.530999899
1100.0	0.0004703	113.578000069
1100.0	0.0004708	113.625
1100.0	0.000472	113.655999899
1100.0	0.000475	113.703000069
1100.0	0.0004745	113.75
1100.0	0.000475	113.780999899
1100.0	0.0004755	113.828000069
1100.0	0.0004758	113.858999968
1100.0	0.0004763	113.905999899
1100.0	0.000475	113.953000069
1100.0	0.0004755	113.983999968
1100.0	0.0004755	114.030999899
1100.0	0.000477	114.078000069
1100.0	0.0004763	114.108999968
1100.0	0.0004755	114.155999899
1100.0	0.0004758	114.187000036
1100.0	0.0004768	114.233999968
1100.0	0.0004763	114.280999899
1100.0	0.0004768	114.328000069
1100.0	0.0004753	114.358999968
1100.0	0.0004755	114.405999899
1100.0	0.0004763	114.453000069
1100.0	0.0004768	114.483999968
1100.0	0.0004775	114.530999899
1100.0	0.0004758	114.562000036
1100.0	0.0004763	114.608999968
1100.0	0.0004768	114.655999899
1100.0	0.0004775	114.687000036
1100.0	0.0004775	114.733999968
1100.0	0.0004755	114.780999899
1100.0	0.0004765	114.812000036
1100.0	0.000477	114.858999968
1100.0	0.0004765	114.905999899
1100.0	0.0004758	114.937000036
1100.0	0.0004763	114.983999968
1100.0	0.0004753	115.030999899
1110.0	0.0004768	115.296000004
1110.0	0.00048	115.342999935
1110.0	0.00048	115.375
1110.0	0.0004795	115.421000004
1110.0	0.0004803	115.453000069
1110.0	0.0004825	115.5
1110.0	0.0004828	115.546000004
1110.0	0.0004808	115.578000069
1110.0	0.0004805	115.625
1110.0	0.0004808	115.671000004
1110.0	0.000482	115.703000069
1110.0	0.0004815	115.75
1110.0	0.0004808	115.780999899
1110.0	0.0004813	115.828000069
1110.0	0.0004808	115.875
1110.0	0.0004828	115.905999899
1110.0	0.000482	115.953000069
1110.0	0.0004808	116.0
1110.0	0.0004808	116.030999899
1110.0	0.000483	116.078000069
1110.0	0.0004813	116.125
1110.0	0.000483	116.155999899
1110.0	0.0004815	116.203000069
1110.0	0.0004808	116.25
1110.0	0.0004805	116.280999899
1110.0	0.0004818	116.328000069
1110.0	0.0004813	116.375
1110.0	0.00048	116.405999899
1110.0	0.00048	116.453000069
1110.0	0.0004795	116.483999968
1110.0	0.0004815	116.530999899
1110.0	0.0004803	116.578000069
1110.0	0.0004803	116.608999968
1110.0	0.0004805	116.655999899
1110.0	0.0004818	116.703000069
1110.0	0.0004818	116.733999968
1110.0	0.0004808	116.780999899
1120.0	0.0004825	117.046000004
1120.0	0.0004845	117.092999935
1120.0	0.0004838	117.125
1120.0	0.0004838	117.171000004
1120.0	0.0004838	117.203000069
1120.0	0.0004863	117.25
1120.0	0.0004863	117.296000004
1120.0	0.000485	117.328000069
1120.0	0.0004853	117.375
1120.0	0.000485	117.421000004
1120.0	0.0004865	117.453000069
1120.0	0.0004863	117.5
1120.0	0.0004863	117.530999899
1120.0	0.0004843	117.578000069
1120.0	0.0004845	117.625
1120.0	0.0004855	117.655999899
1120.0	0.0004863	117.703000069
1120.0	0.0004853	117.75
1120.0	0.0004853	117.780999899
1120.0	0.0004863	117.828000069
1120.0	0.0004875	117.858999968
1120.0	0.0004868	117.905999899
1120.0	0.000485	117.953000069
1120.0	0.0004863	117.983999968
1120.0	0.0004858	118.030999899
1120.0	0.0004865	118.078000069
1120.0	0.0004853	118.108999968
1120.0	0.0004855	118.155999899
1120.0	0.0004853	118.203000069
1120.0	0.000487	118.233999968
1120.0	0.0004855	118.280999899
1120.0	0.0004853	118.312000036
1120.0	0.000485	118.358999968
1120.0	0.0004853	118.405999899
1120.0	0.0004868	118.437000036
1120.0	0.0004845	118.483999968
1120.0	0.0004845	118.530999899
1130.0	0.0004843	118.796000004
1130.0	0.0004863	118.828000069
1130.0	0.000485	118.875
1130.0	0.000485	118.921000004
1130.0	0.000485	118.953000069
1130.0	0.0004865	119.0
1130.0	0.0004863	119.030999899
1130.0	0.0004858	119.078000069
1130.0	0.0004855	119.125
1130.0	0.0004855	119.155999899
1130.0	0.0004865	119.203000069
1130.0	0.0004875	119.25
1130.0	0.000487	119.280999899
1130.0	0.0004855	119.328000069
1130.0	0.0004858	119.375
1130.0	0.0004875	119.405999899
1130.0	0.0004868	119.453000069
1130.0	0.0004858	119.5
1130.0	0.0004855	119.530999899
1130.0	0.000485	119.578000069
1130.0	0.000487	119.608999968
1130.0	0.0004875	119.655999899
1130.0	0.0004858	119.703000069
1130.0	0.0004855	119.733999968
1130.0	0.0004875	119.780999899
1130.0	0.0004855	119.828000069
1130.0	0.0004865	119.858999968
1130.0	0.0004875	119.905999899
1130.0	0.0004863	119.953000069
1130.0	0.0004865	119.983999968
1130.0	0.000487	120.030999899
1130.0	0.000487	120.078000069
1130.0	0.0004863	120.108999968
1130.0	0.0004868	120.155999899
1130.0	0.0004888	120.203000069
1130.0	0.0004888	120.233999968
1130.0	0.000487	120.280999899
1140.0	0.0004863	120.546000004
1140.0	0.0004868	120.578000069
1140.0	0.0004868	120.625
1140.0	0.0004858	120.671000004
1140.0	0.0004865	120.717999935
1140.0	0.000485	120.75
1140.0	0.0004845	120.796000004
1140.0	0.0004863	120.842999935
1140.0	0.0004863	120.875
1140.0	0.000485	120.921000004
1140.0	0.0004845	120.953000069
1140.0	0.0004845	121.0
1140.0	0.0004865	121.046000004
1140.0	0.0004858	121.078000069
1140.0	0.0004843	121.125
1140.0	0.0004843	121.171000004
1140.0	0.0004858	121.203000069
1140.0	0.0004863	121.25
1140.0	0.000485	121.280999899
1140.0	0.000485	121.328000069
1140.0	0.0004855	121.375
1140.0	0.0004868	121.405999899
1140.0	0.0004865	121.453000069
1140.0	0.0004853	121.5
1140.0	0.0004853	121.530999899
1140.0	0.000485	121.578000069
1140.0	0.0004868	121.608999968
1140.0	0.000487	121.655999899
1140.0	0.0004858	121.703000069
1140.0	0.0004855	121.733999968
1140.0	0.0004875	121.780999899
1140.0	0.000487	121.828000069
1140.0	0.000487	121.858999968
1140.0	0.0004858	121.905999899
1140.0	0.0004853	121.953000069
1140.0	0.0004858	121.983999968
1140.0	0.000487	122.030999899
1150.0	0.0004878	122.296000004
1150.0	0.0004863	122.342999935
1150.0	0.0004865	122.375
1150.0	0.0004868	122.421000004
1150.0	0.0004863	122.467999935
1150.0	0.000485	122.514999866
1150.0	0.0004855	122.546000004
1150.0	0.0004855	122.592999935
1150.0	0.0004858	122.625
1150.0	0.0004863	122.671000004
1150.0	0.000485	122.717999935
1150.0	0.000485	122.75
1150.0	0.0004858	122.796000004
1150.0	0.0004868	122.842999935
1150.0	0.000487	122.875
1150.0	0.0004853	122.921000004
1150.0	0.0004855	122.953000069
1150.0	0.0004855	123.0
1150.0	0.000487	123.046000004
1150.0	0.0004855	123.078000069
1150.0	0.0004858	123.125
1150.0	0.0004863	123.171000004
1150.0	0.0004878	123.203000069
1150.0	0.0004875	123.25
1150.0	0.0004863	123.280999899
1150.0	0.0004858	123.328000069
1150.0	0.0004865	123.375
1150.0	0.000487	123.405999899
1150.0	0.0004875	123.453000069
1150.0	0.0004855	123.5
1150.0	0.0004853	123.530999899
1150.0	0.0004865	123.578000069
1150.0	0.000487	123.625
1150.0	0.0004855	123.655999899
1150.0	0.0004855	123.703000069
1150.0	0.0004858	123.733999968
1150.0	0.0004875	123.780999899
1160.0	0.0004865	124.046000004
1160.0	0.0004843	124.092999935
1160.0	0.000484	124.125
1160.0	0.0004855	124.171000004
1160.0	0.0004843	124.217999935
1160.0	0.0004833	124.25
1160.0	0.0004828	124.296000004
1160.0	0.0004833	124.342999935
1160.0	0.000484	124.375
1160.0	0.0004853	124.421000004
1160.0	0.0004838	124.467999935
1160.0	0.0004838	124.5
1160.0	0.0004843	124.546000004
1160.0	0.0004843	124.592999935
1160.0	0.0004853	124.625
1160.0	0.0004838	124.671000004
1160.0	0.0004838	124.703000069
1160.0	0.0004838	124.75
1160.0	0.0004845	124.796000004
1160.0	0.0004858	124.842999935
1160.0	0.0004843	124.875
1160.0	0.000484	124.921000004
1160.0	0.0004833	124.953000069
1160.0	0.0004843	125.0
1160.0	0.000485	125.046000004
1160.0	0.0004828	125.078000069
1160.0	0.0004828	125.125
1160.0	0.0004833	125.171000004
1160.0	0.0004845	125.203000069
1160.0	0.000485	125.25
1160.0	0.0004838	125.296000004
1160.0	0.0004838	125.328000069
1160.0	0.0004825	125.375
1160.0	0.0004843	125.421000004
1160.0	0.0004845	125.453000069
1160.0	0.0004828	125.5
1170.0	0.0004825	125.764999866
1170.0	0.0004813	125.812000036
1170.0	0.000482	125.842999935
1170.0	0.0004813	125.889999866
1170.0	0.00048	125.937000036
1170.0	0.00048	125.967999935
1170.0	0.0004815	126.014999866
1170.0	0.0004815	126.062000036
1170.0	0.0004815	126.092999935
1170.0	0.0004808	126.139999866
1170.0	0.0004803	126.187000036
1170.0	0.00048	126.217999935
1170.0	0.0004808	126.264999866
1170.0	0.0004825	126.312000036
1170.0	0.0004813	126.342999935
1170.0	0.0004808	126.389999866
1170.0	0.0004803	126.437000036
1170.0	0.000482	126.467999935
1170.0	0.000482	126.514999866
1170.0	0.0004805	126.546000004
1170.0	0.0004803	126.592999935
1170.0	0.0004815	126.639999866
1170.0	0.000482	126.671000004
1170.0	0.0004813	126.717999935
1170.0	0.0004808	126.764999866
1170.0	0.0004815	126.796000004
1170.0	0.000483	126.842999935
1170.0	0.0004828	126.875
1170.0	0.000483	126.921000004
1170.0	0.0004813	126.967999935
1170.0	0.0004805	127.0
1170.0	0.0004825	127.046000004
1170.0	0.000482	127.092999935
1170.0	0.0004803	127.125
1170.0	0.0004808	127.171000004
1170.0	0.0004803	127.217999935
1170.0	0.0004813	127.25
1180.0	0.00048	127.530999899
1180.0	0.00048	127.562000036
1180.0	0.00048	127.608999968
1180.0	0.0004795	127.655999899
1180.0	0.0004815	127.687000036
1180.0	0.0004813	127.733999968
1180.0	0.00048	127.780999899
1180.0	0.0004803	127.812000036
1180.0	0.0004818	127.858999968
1180.0	0.000482	127.889999866
1180.0	0.0004818	127.937000036
1180.0	0.0004805	127.983999968
1180.0	0.0004808	128.014999866
1180.0	0.0004815	128.062000036
1180.0	0.0004825	128.108999968
1180.0	0.0004808	128.139999866
1180.0	0.0004805	128.187000036
1180.0	0.0004813	128.217999935
1180.0	0.000482	128.264999866
1180.0	0.000482	128.312000036
1180.0	0.0004805	128.342999935
1180.0	0.0004803	128.389999866
1180.0	0.0004805	128.437000036
1180.0	0.0004815	128.467999935
1180.0	0.0004825	128.514999866
1180.0	0.0004813	128.562000036
1180.0	0.0004808	128.592999935
1180.0	0.0004815	128.639999866
1180.0	0.000482	128.687000036
1180.0	0.0004818	128.717999935
1180.0	0.0004805	128.764999866
1180.0	0.0004803	128.796000004
1180.0	0.0004808	128.842999935
1180.0	0.000482	128.889999866
1180.0	0.0004818	128.921000004
1180.0	0.00048	128.967999935
1180.0	0.0004803	129.014999866
1190.0	0.00048	129.280999899
1190.0	0.0004808	129.328000069
1190.0	0.0004813	129.358999968
1190.0	0.0004813	129.405999899
1190.0	0.0004815	129.453000069
1190.0	0.0004828	129.483999968
1190.0	0.0004813	129.530999899
1190.0	0.0004833	129.578000069
1190.0	0.0004818	129.608999968
1190.0	0.0004818	129.655999899
1190.0	0.000482	129.703000069
1190.0	0.0004833	129.733999968
1190.0	0.0004818	129.780999899
1190.0	0.0004818	129.812000036
1190.0	0.0004815	129.858999968
1190.0	0.000482	129.905999899
1190.0	0.0004828	129.937000036
1190.0	0.0004818	129.983999968
1190.0	0.0004818	130.030999899
1190.0	0.0004828	130.062000036
1190.0	0.0004838	130.108999968
1190.0	0.0004838	130.139999866
1190.0	0.000482	130.187000036
1190.0	0.000482	130.233999968
1190.0	0.0004828	130.264999866
1190.0	0.000484	130.312000036
1190.0	0.000483	130.358999968
1190.0	0.0004828	130.389999866
1190.0	0.0004843	130.437000036
1190.0	0.0004838	130.483999968
1190.0	0.0004843	130.514999866
1190.0	0.000484	130.562000036
1190.0	0.0004825	130.608999968
1190.0	0.000482	130.639999866
1190.0	0.0004828	130.687000036
1190.0	0.000484	130.717999935
1200.0	0.0004833	131.0
1200.0	0.0004838	131.030999899
1200.0	0.0004843	131.078000069
1200.0	0.000485	131.125
1200.0	0.000487	131.155999899
1200.0	0.0004855	131.203000069
1200.0	0.0004855	131.25
1200.0	0.0004858	131.280999899
1200.0	0.000488	131.328000069
1200.0	0.0004878	131.375
1200.0	0.0004863	131.405999899
1200.0	0.0004863	131.453000069
1200.0	0.0004863	131.483999968
1200.0	0.000488	131.530999899
1200.0	0.0004875	131.578000069
1200.0	0.0004865	131.608999968
1200.0	0.0004863	131.655999899
1200.0	0.0004868	131.703000069
1200.0	0.000487	131.733999968
1200.0	0.0004858	131.780999899
1200.0	0.0004853	131.812000036
1200.0	0.0004858	131.858999968
1200.0	0.000487	131.905999899
1200.0	0.000487	131.937000036
1200.0	0.0004858	131.983999968
1200.0	0.0004858	132.030999899
1200.0	0.0004868	132.062000036
1200.0	0.000488	132.108999968
1200.0	0.0004863	132.139999866
1200.0	0.0004863	132.187000036
1200.0	0.000487	132.233999968
1200.0	0.0004865	132.264999866
1200.0	0.0004875	132.312000036
1200.0	0.0004875	132.358999968
1200.0	0.0004863	132.389999866
1200.0	0.0004868	132.437000036
1200.0	0.0004883	132.467999935
1210.0	0.000488	132.75
1210.0	0.0004888	132.780999899
1210.0	0.0004895	132.828000069
1210.0	0.0004903	132.875
1210.0	0.000492	132.905999899
1210.0	0.0004913	132.953000069
1210.0	0.0004913	133.0
1210.0	0.000493	133.046000004
1210.0	0.000492	133.078000069
1210.0	0.0004938	133.125
1210.0	0.0004933	133.155999899
1210.0	0.0004913	133.203000069
1210.0	0.0004918	133.25
1210.0	0.000493	133.280999899
1210.0	0.0004938	133.328000069
1210.0	0.0004933	133.375
1210.0	0.000492	133.405999899
1210.0	0.0004925	133.453000069
1210.0	0.0004943	133.483999968
1210.0	0.0004943	133.530999899
1210.0	0.0004925	133.578000069
1210.0	0.000492	133.608999968
1210.0	0.0004915	133.655999899
1210.0	0.000493	133.703000069
1210.0	0.000492	133.733999968
1210.0	0.0004918	133.780999899
1210.0	0.0004913	133.812000036
1210.0	0.0004918	133.858999968
1210.0	0.000493	133.905999899
1210.0	0.000493	133.937000036
1210.0	0.0004915	133.983999968
1210.0	0.0004915	134.030999899
1210.0	0.000492	134.062000036
1210.0	0.0004918	134.108999968
1210.0	0.0004933	134.155999899
1210.0	0.0004933	134.187000036
1210.0	0.0004918	134.233999968
1220.0	0.000495	134.5
1220.0	0.0004968	134.530999899
1220.0	0.0004968	134.578000069
1220.0	0.0004975	134.625
1220.0	0.0004995	134.655999899
1220.0	0.0005	134.703000069
1220.0	0.0004988	134.75
1220.0	0.0004993	134.780999899
1220.0	0.0004988	134.828000069
1220.0	0.0004995	134.875
1220.0	0.0005015	134.905999899
1220.0	0.0005	134.953000069
1220.0	0.0005	135.0
1220.0	0.0005015	135.030999899
1220.0	0.0004995	135.078000069
1220.0	0.0005008	135.125
1220.0	0.0005	135.155999899
1220.0	0.0004993	135.203000069
1220.0	0.0004995	135.25
1220.0	0.0004995	135.280999899
1220.0	0.0005008	135.328000069
1220.0	0.0005	135.375
1220.0	0.0004993	135.405999899
1220.0	0.0004993	135.453000069
1220.0	0.0005003	135.483999968
1220.0	0.0005	135.530999899
1220.0	0.0004993	135.578000069
1220.0	0.0004995	135.625
1220.0	0.0005	135.655999899
1220.0	0.0005008	135.703000069
1220.0	0.000502	135.733999968
1220.0	0.0005015	135.780999899
1220.0	0.0005	135.828000069
1220.0	0.0005005	135.875
1220.0	0.0004995	135.905999899
1220.0	0.0005013	135.953000069
1230.0	0.0005033	136.217999935
1230.0	0.0005038	136.264999866
1230.0	0.0005045	136.296000004
1230.0	0.0005068	136.342999935
1230.0	0.0005075	136.375
1230.0	0.0005068	136.421000004
1230.0	0.0005075	136.467999935
1230.0	0.0005088	136.5
1230.0	0.00051	136.546000004
1230.0	0.00051	136.592999935
1230.0	0.0005088	136.625
1230.0	0.000508	136.671000004
1230.0	0.00051	136.703000069
1230.0	0.0005103	136.75
1230.0	0.00051	136.796000004
1230.0	0.000508	136.828000069
1230.0	0.0005093	136.875
1230.0	0.000509	136.921000004
1230.0	0.00051	136.967999935
1230.0	0.00051	137.0
1230.0	0.0005088	137.046000004
1230.0	0.0005088	137.078000069
1230.0	0.0005093	137.125
1230.0	0.0005105	137.171000004
1230.0	0.00051	137.203000069
1230.0	0.0005088	137.25
1230.0	0.0005088	137.296000004
1230.0	0.0005088	137.328000069
1230.0	0.0005105	137.375
1230.0	0.000509	137.421000004
1230.0	0.000508	137.453000069
1230.0	0.0005078	137.5
1230.0	0.000508	137.546000004
1230.0	0.00051	137.578000069
1230.0	0.00051	137.625
1230.0	0.0005083	137.655999899
1230.0	0.0005078	137.703000069
1240.0	0.000512	137.967999935
1240.0	0.0005138	138.014999866
1240.0	0.0005138	138.062000036
1240.0	0.000515	138.092999935
1240.0	0.0005158	138.139999866
1240.0	0.000518	138.187000036
1240.0	0.0005175	138.217999935
1240.0	0.0005165	138.264999866
1240.0	0.0005168	138.296000004
1240.0	0.0005168	138.342999935
1240.0	0.0005188	138.389999866
1240.0	0.0005175	138.421000004
1240.0	0.0005175	138.467999935
1240.0	0.0005175	138.514999866
1240.0	0.000519	138.546000004
1240.0	0.0005188	138.592999935
1240.0	0.000518	138.639999866
1240.0	0.0005175	138.671000004
1240.0	0.0005178	138.717999935
1240.0	0.00052	138.75
1240.0	0.0005188	138.796000004
1240.0	0.0005178	138.842999935
1240.0	0.0005178	138.875
1240.0	0.000519	138.921000004
1240.0	0.00052	138.967999935
1240.0	0.0005188	139.0
1240.0	0.0005178	139.046000004
1240.0	0.000518	139.078000069
1240.0	0.000519	139.125
1240.0	0.0005193	139.171000004
1240.0	0.0005183	139.203000069
1240.0	0.0005183	139.25
1240.0	0.000518	139.296000004
1240.0	0.0005193	139.328000069
1240.0	0.00052	139.375
1240.0	0.0005195	139.421000004
1250.0	0.0005228	139.687000036
1250.0	0.0005225	139.717999935
1250.0	0.000525	139.764999866
1250.0	0.0005258	139.812000036
1250.0	0.0005245	139.842999935
1250.0	0.0005245	139.889999866
1250.0	0.0005245	139.937000036
1250.0	0.000527	139.967999935
1250.0	0.0005255	140.014999866
1250.0	0.000525	140.046000004
1250.0	0.0005263	140.092999935
1250.0	0.0005275	140.139999866
1250.0	0.0005275	140.171000004
1250.0	0.0005258	140.217999935
1250.0	0.0005258	140.264999866
1250.0	0.0005278	140.296000004
1250.0	0.0005258	140.342999935
1250.0	0.000527	140.389999866
1250.0	0.0005275	140.421000004
1250.0	0.0005258	140.467999935
1250.0	0.0005258	140.514999866
1250.0	0.000528	140.546000004
1250.0	0.000528	140.592999935
1250.0	0.0005268	140.639999866
1250.0	0.0005265	140.671000004
1250.0	0.0005278	140.717999935
1250.0	0.0005288	140.75
1250.0	0.000528	140.796000004
1250.0	0.0005263	140.842999935
1250.0	0.0005268	140.889999866
1250.0	0.0005268	140.921000004
1250.0	0.0005268	140.967999935
1250.0	0.000528	141.0
1250.0	0.0005258	141.046000004
1250.0	0.0005245	141.092999935
1250.0	0.000525	141.139999866
1260.0	0.0005283	141.405999899
1260.0	0.0005305	141.437000036
1260.0	0.0005308	141.483999968
1260.0	0.0005308	141.530999899
1260.0	0.000532	141.562000036
1260.0	0.0005345	141.608999968
1260.0	0.0005338	141.639999866
1260.0	0.000533	141.687000036
1260.0	0.0005338	141.733999968
1260.0	0.0005358	141.764999866
1260.0	0.000535	141.812000036
1260.0	0.0005363	141.858999968
1260.0	0.000535	141.889999866
1260.0	0.0005363	141.937000036
1260.0	0.0005375	141.967999935
1260.0	0.0005358	142.014999866
1260.0	0.000535	142.062000036
1260.0	0.000535	142.092999935
1260.0	0.0005365	142.139999866
1260.0	0.0005363	142.187000036
1260.0	0.0005343	142.217999935
1260.0	0.000534	142.264999866
1260.0	0.0005338	142.296000004
1260.0	0.0005343	142.342999935
1260.0	0.0005358	142.389999866
1260.0	0.0005343	142.421000004
1260.0	0.000534	142.467999935
1260.0	0.0005345	142.514999866
1260.0	0.0005358	142.546000004
1260.0	0.0005343	142.592999935
1260.0	0.000534	142.639999866
1260.0	0.0005343	142.671000004
1260.0	0.0005343	142.717999935
1260.0	0.0005368	142.75
1260.0	0.0005345	142.796000004
1260.0	0.000535	142.842999935
1260.0	0.0005343	142.875
1270.0	0.0005368	143.139999866
1270.0	0.000539	143.187000036
1270.0	0.0005388	143.233999968
1270.0	0.0005393	143.264999866
1270.0	0.0005413	143.312000036
1270.0	0.0005425	143.358999968
1270.0	0.0005408	143.389999866
1270.0	0.0005408	143.437000036
1270.0	0.0005428	143.467999935
1270.0	0.0005433	143.514999866
1270.0	0.0005438	143.562000036
1270.0	0.0005415	143.592999935
1270.0	0.0005415	143.639999866
1270.0	0.0005433	143.687000036
1270.0	0.0005413	143.717999935
1270.0	0.0005413	143.764999866
1270.0	0.0005408	143.812000036
1270.0	0.00054	143.842999935
1270.0	0.0005413	143.889999866
1270.0	0.0005428	143.937000036
1270.0	0.0005418	143.967999935
1270.0	0.0005405	144.014999866
1270.0	0.0005405	144.046000004
1270.0	0.0005413	144.092999935
1270.0	0.000543	144.139999866
1270.0	0.0005418	144.171000004
1270.0	0.0005418	144.217999935
1270.0	0.0005425	144.264999866
1270.0	0.0005443	144.296000004
1270.0	0.0005438	144.342999935
1270.0	0.0005418	144.389999866
1270.0	0.0005413	144.421000004
1270.0	0.0005418	144.467999935
1270.0	0.000543	144.5
1270.0	0.0005425	144.546000004
1270.0	0.0005405	144.592999935
1270.0	0.0005408	144.625
1280.0	0.0005425	144.889999866
1280.0	0.000543	144.937000036
1280.0	0.0005438	144.983999968
1280.0	0.0005443	145.014999866
1280.0	0.0005463	145.062000036
1280.0	0.0005475	145.108999968
1280.0	0.0005458	145.139999866
1280.0	0.0005455	145.187000036
1280.0	0.0005463	145.217999935
1280.0	0.0005488	145.264999866
1280.0	0.0005488	145.312000036
1280.0	0.0005468	145.342999935
1280.0	0.0005468	145.389999866
1280.0	0.0005478	145.437000036
1280.0	0.0005475	145.467999935
1280.0	0.000548	145.514999866
1280.0	0.0005463	145.562000036
1280.0	0.0005463	145.592999935
1280.0	0.0005468	145.639999866
1280.0	0.0005483	145.687000036
1280.0	0.0005483	145.717999935
1280.0	0.0005468	145.764999866
1280.0	0.0005463	145.796000004
1280.0	0.000547	145.842999935
1280.0	0.0005483	145.889999866
1280.0	0.0005475	145.921000004
1280.0	0.0005468	145.967999935
1280.0	0.0005465	146.014999866
1280.0	0.000547	146.046000004
1280.0	0.0005483	146.092999935
1280.0	0.0005468	146.139999866
1280.0	0.0005458	146.171000004
1280.0	0.0005465	146.217999935
1280.0	0.0005478	146.264999866
1280.0	0.000549	146.296000004
1280.0	0.0005488	146.342999935
1280.0	0.0005468	146.389999866
1290.0	0.0005468	146.655999899
1290.0	0.000549	146.687000036
1290.0	0.0005478	146.733999968
1290.0	0.000548	146.764999866
1290.0	0.0005478	146.812000036
1290.0	0.0005493	146.858999968
1290.0	0.0005493	146.889999866
1290.0	0.000549	146.937000036
1290.0	0.0005488	146.983999968
1290.0	0.0005488	147.014999866
1290.0	0.0005505	147.062000036
1290.0	0.00055	147.108999968
1290.0	0.000548	147.139999866
1290.0	0.0005478	147.187000036
1290.0	0.000549	147.217999935
1290.0	0.0005495	147.264999866
1290.0	0.0005478	147.312000036
1290.0	0.0005483	147.342999935
1290.0	0.0005483	147.389999866
1290.0	0.0005493	147.437000036
1290.0	0.0005505	147.467999935
1290.0	0.00055	147.514999866
1290.0	0.000549	147.546000004
1290.0	0.000549	147.592999935
1290.0	0.0005508	147.639999866
1290.0	0.0005508	147.671000004
1290.0	0.000549	147.717999935
1290.0	0.0005488	147.764999866
1290.0	0.0005488	147.796000004
1290.0	0.0005483	147.842999935
1290.0	0.00055	147.889999866
1290.0	0.0005483	147.921000004
1290.0	0.0005488	147.967999935
1290.0	0.000548	148.014999866
1290.0	0.0005493	148.046000004
1290.0	0.00055	148.092999935
1290.0	0.0005483	148.139999866
1300.0	0.0005463	148.405999899
1300.0	0.000548	148.437000036
1300.0	0.0005458	148.483999968
1300.0	0.000545	148.514999866
1300.0	0.0005443	148.562000036
1300.0	0.0005445	148.608999968
1300.0	0.0005468	148.639999866
1300.0	0.000545	148.687000036
1300.0	0.000545	148.733999968
1300.0	0.000545	148.764999866
1300.0	0.0005465	148.812000036
1300.0	0.0005475	148.858999968
1300.0	0.0005465	148.889999866
1300.0	0.0005468	148.937000036
1300.0	0.0005478	148.967999935
1300.0	0.000547	149.014999866
1300.0	0.000547	149.062000036
1300.0	0.0005463	149.092999935
1300.0	0.0005458	149.139999866
1300.0	0.0005463	149.187000036
1300.0	0.0005478	149.217999935
1300.0	0.0005475	149.264999866
1300.0	0.0005458	149.296000004
1300.0	0.0005458	149.342999935
1300.0	0.0005468	149.389999866
1300.0	0.0005475	149.421000004
1300.0	0.0005468	149.467999935
1300.0	0.0005463	149.514999866
1300.0	0.0005463	149.546000004
1300.0	0.000548	149.592999935
1300.0	0.0005458	149.625
1300.0	0.0005478	149.671000004
1300.0	0.0005458	149.717999935
1300.0	0.0005468	149.75
1300.0	0.0005483	149.796000004
1300.0	0.0005475	149.842999935
1300.0	0.0005468	149.875
1310.0	0.000545	150.155999899
1310.0	0.0005433	150.187000036
1310.0	0.000543	150.233999968
1310.0	0.0005408	150.264999866
1310.0	0.0005395	150.312000036
1310.0	0.0005403	150.358999968
1310.0	0.0005415	150.389999866
1310.0	0.0005393	150.437000036
1310.0	0.0005388	150.483999968
1310.0	0.0005388	150.514999866
1310.0	0.0005393	150.562000036
1310.0	0.0005403	150.592999935
1310.0	0.000539	150.639999866
1310.0	0.0005383	150.687000036
1310.0	0.0005388	150.717999935
1310.0	0.0005403	150.764999866
1310.0	0.00054	150.812000036
1310.0	0.0005388	150.842999935
1310.0	0.0005383	150.889999866
1310.0	0.0005388	150.921000004
1310.0	0.0005388	150.967999935
1310.0	0.0005388	151.014999866
1310.0	0.000539	151.046000004
1310.0	0.0005388	151.092999935
1310.0	0.0005383	151.139999866
1310.0	0.0005403	151.171000004
1310.0	0.00054	151.217999935
1310.0	0.000538	151.264999866
1310.0	0.0005383	151.296000004
1310.0	0.00054	151.342999935
1310.0	0.0005393	151.389999866
1310.0	0.0005403	151.421000004
1310.0	0.0005383	151.467999935
1310.0	0.0005378	151.514999866
1310.0	0.000537	151.546000004
1310.0	0.000539	151.592999935
1310.0	0.0005388	151.625
1320.0	0.0005333	151.905999899
1320.0	0.0005305	151.937000036
1320.0	0.0005293	151.983999968
1320.0	0.0005295	152.030999899
1320.0	0.0005283	152.062000036
1320.0	0.0005258	152.108999968
1320.0	0.000525	152.155999899
1320.0	0.0005268	152.187000036
1320.0	0.0005255	152.233999968
1320.0	0.0005245	152.264999866
1320.0	0.0005245	152.312000036
1320.0	0.0005255	152.358999968
1320.0	0.000525	152.405999899
1320.0	0.0005263	152.437000036
1320.0	0.000525	152.483999968
1320.0	0.000524	152.514999866
1320.0	0.000524	152.562000036
1320.0	0.0005243	152.608999968
1320.0	0.000525	152.639999866
1320.0	0.0005233	152.687000036
1320.0	0.000525	152.733999968
1320.0	0.0005233	152.780999899
1320.0	0.000525	152.812000036
1320.0	0.0005258	152.858999968
1320.0	0.000524	152.889999866
1320.0	0.000524	152.937000036
1320.0	0.000524	152.983999968
1320.0	0.0005263	153.014999866
1320.0	0.000527	153.062000036
1320.0	0.0005268	153.108999968
1320.0	0.0005255	153.139999866
1320.0	0.0005253	153.187000036
1320.0	0.000527	153.217999935
1320.0	0.000527	153.264999866
1320.0	0.000525	153.312000036
1320.0	0.0005243	153.342999935
1320.0	0.0005258	153.389999866
1330.0	0.0005168	153.655999899
1330.0	0.0005153	153.703000069
1330.0	0.0005128	153.75
1330.0	0.0005108	153.780999899
1330.0	0.0005103	153.828000069
1330.0	0.0005103	153.858999968
1330.0	0.0005075	153.905999899
1330.0	0.0005063	153.953000069
1330.0	0.0005058	153.983999968
1330.0	0.0005075	154.030999899
1330.0	0.0005055	154.078000069
1330.0	0.000505	154.108999968
1330.0	0.0005045	154.155999899
1330.0	0.0005058	154.203000069
1330.0	0.0005055	154.233999968
1330.0	0.000507	154.280999899
1330.0	0.0005063	154.328000069
1330.0	0.0005055	154.358999968
1330.0	0.0005055	154.405999899
1330.0	0.0005055	154.453000069
1330.0	0.0005065	154.483999968
1330.0	0.0005058	154.530999899
1330.0	0.000504	154.562000036
1330.0	0.0005045	154.608999968
1330.0	0.0005055	154.655999899
1330.0	0.0005068	154.687000036
1330.0	0.000505	154.733999968
1330.0	0.000505	154.780999899
1330.0	0.0005068	154.812000036
1330.0	0.0005068	154.858999968
1330.0	0.0005045	154.889999866
1330.0	0.0005043	154.937000036
1330.0	0.000504	154.983999968
1330.0	0.0005055	155.030999899
1330.0	0.0005055	155.062000036
1330.0	0.0005045	155.108999968
1330.0	0.0005038	155.139999866
1340.0	0.0004955	155.421000004
1340.0	0.0004918	155.453000069
1340.0	0.00049	155.5
1340.0	0.000487	155.546000004
1340.0	0.0004843	155.578000069
1340.0	0.000482	155.625
1340.0	0.0004818	155.671000004
1340.0	0.0004815	155.703000069
1340.0	0.0004803	155.75
1340.0	0.00048	155.780999899
1340.0	0.00048	155.828000069
1340.0	0.0004815	155.875
1340.0	0.0004793	155.905999899
1340.0	0.0004793	155.953000069
1340.0	0.0004788	156.0
1340.0	0.00048	156.030999899
1340.0	0.0004788	156.078000069
1340.0	0.00048	156.125
1340.0	0.000478	156.155999899
1340.0	0.000478	156.203000069
1340.0	0.0004778	156.25
1340.0	0.0004803	156.280999899
1340.0	0.00048	156.328000069
1340.0	0.0004788	156.375
1340.0	0.000478	156.405999899
1340.0	0.0004795	156.453000069
1340.0	0.00048	156.483999968
1340.0	0.0004793	156.530999899
1340.0	0.000478	156.578000069
1340.0	0.000478	156.608999968
1340.0	0.0004783	156.655999899
1340.0	0.00048	156.703000069
1340.0	0.00048	156.733999968
1340.0	0.0004788	156.780999899
1340.0	0.0004795	156.828000069
1340.0	0.0004803	156.875
1350.0	0.0004678	157.139999866
1350.0	0.000465	157.171000004
1350.0	0.0004615	157.217999935
1350.0	0.0004593	157.264999866
1350.0	0.0004578	157.296000004
1350.0	0.0004575	157.342999935
1350.0	0.0004553	157.375
1350.0	0.000454	157.421000004
1350.0	0.000453	157.467999935
1350.0	0.0004538	157.5
1350.0	0.0004538	157.546000004
1350.0	0.0004528	157.592999935
1350.0	0.0004515	157.625
1350.0	0.0004518	157.671000004
1350.0	0.0004528	157.703000069
1350.0	0.000453	157.75
1350.0	0.0004513	157.796000004
1350.0	0.0004518	157.828000069
1350.0	0.000452	157.875
1350.0	0.000452	157.921000004
1350.0	0.0004538	157.967999935
1350.0	0.0004525	158.0
1350.0	0.0004518	158.046000004
1350.0	0.0004515	158.078000069
1350.0	0.0004538	158.125
1350.0	0.0004533	158.171000004
1350.0	0.000452	158.203000069
1350.0	0.000452	158.25
1350.0	0.0004518	158.296000004
1350.0	0.0004528	158.328000069
1350.0	0.000453	158.375
1350.0	0.0004518	158.421000004
1350.0	0.0004518	158.453000069
1350.0	0.000452	158.5
1350.0	0.0004538	158.546000004
1350.0	0.0004543	158.578000069
1350.0	0.0004538	158.625
1360.0	0.0004415	158.889999866
1360.0	0.0004388	158.937000036
1360.0	0.0004345	158.967999935
1360.0	0.000432	159.014999866
1360.0	0.0004303	159.046000004
1360.0	0.00043	159.092999935
1360.0	0.0004293	159.139999866
1360.0	0.0004278	159.171000004
1360.0	0.0004263	159.217999935
1360.0	0.0004258	159.264999866
1360.0	0.000427	159.296000004
1360.0	0.000427	159.342999935
1360.0	0.0004268	159.389999866
1360.0	0.000425	159.421000004
1360.0	0.000425	159.467999935
1360.0	0.000425	159.514999866
1360.0	0.0004265	159.546000004
1360.0	0.0004255	159.592999935
1360.0	0.0004245	159.639999866
1360.0	0.0004243	159.671000004
1360.0	0.0004253	159.717999935
1360.0	0.0004263	159.75
1360.0	0.000425	159.796000004
1360.0	0.000425	159.842999935
1360.0	0.0004243	159.875
1360.0	0.0004253	159.921000004
1360.0	0.000425	159.967999935
1360.0	0.0004243	160.0
1360.0	0.0004243	160.046000004
1360.0	0.0004258	160.078000069
1360.0	0.0004265	160.125
1360.0	0.0004253	160.171000004
1360.0	0.000425	160.203000069
1360.0	0.000425	160.25
1360.0	0.0004258	160.296000004
1360.0	0.0004268	160.328000069
1360.0	0.0004255	160.375
1370.0	0.0004153	160.639999866
1370.0	0.0004118	160.687000036
1370.0	0.0004095	160.717999935
1370.0	0.0004053	160.764999866
1370.0	0.0004028	160.796000004
1370.0	0.0004018	160.842999935
1370.0	0.0004018	160.889999866
1370.0	0.0004008	160.921000004
1370.0	0.000399	160.967999935
1370.0	0.0003988	161.014999866
1370.0	0.0003988	161.046000004
1370.0	0.0003995	161.092999935
1370.0	0.0003988	161.125
1370.0	0.0003983	161.171000004
1370.0	0.000398	161.217999935
1370.0	0.000399	161.25
1370.0	0.0003993	161.296000004
1370.0	0.0003975	161.342999935
1370.0	0.0003975	161.375
1370.0	0.0003975	161.421000004
1370.0	0.0003993	161.467999935
1370.0	0.0003993	161.5
1370.0	0.0003983	161.546000004
1370.0	0.0003983	161.578000069
1370.0	0.0003995	161.625
1370.0	0.0004003	161.671000004
1370.0	0.0003988	161.703000069
1370.0	0.0003988	161.75
1370.0	0.000399	161.796000004
1370.0	0.0003993	161.828000069
1370.0	0.0004003	161.875
1370.0	0.0003988	161.905999899
1370.0	0.0003988	161.953000069
1370.0	0.000399	162.0
1370.0	0.0003983	162.030999899
1370.0	0.0003978	162.078000069
1370.0	0.000398	162.125
1380.0	0.0003875	162.389999866
1380.0	0.0003858	162.421000004
1380.0	0.0003828	162.467999935
1380.0	0.0003805	162.514999866
1380.0	0.0003793	162.546000004
1380.0	0.0003788	162.592999935
1380.0	0.0003788	162.625
1380.0	0.0003775	162.671000004
1380.0	0.0003768	162.717999935
1380.0	0.000377	162.75
1380.0	0.0003778	162.796000004
1380.0	0.000377	162.842999935
1380.0	0.0003758	162.875
1380.0	0.0003755	162.921000004
1380.0	0.0003763	162.953000069
1380.0	0.000377	163.0
1380.0	0.0003765	163.046000004
1380.0	0.0003755	163.078000069
1380.0	0.0003753	163.125
1380.0	0.0003763	163.171000004
1380.0	0.0003768	163.203000069
1380.0	0.0003755	163.25
1380.0	0.0003755	163.280999899
1380.0	0.0003753	163.328000069
1380.0	0.0003775	163.375
1380.0	0.0003763	163.405999899
1380.0	0.0003768	163.453000069
1380.0	0.0003758	163.5
1380.0	0.0003768	163.530999899
1380.0	0.0003775	163.578000069
1380.0	0.000378	163.625
1380.0	0.0003763	163.655999899
1380.0	0.0003763	163.703000069
1380.0	0.0003775	163.733999968
1380.0	0.0003778	163.780999899
1380.0	0.0003763	163.828000069
1380.0	0.0003758	163.858999968
1390.0	0.000367	164.125
1390.0	0.0003653	164.171000004
1390.0	0.0003615	164.217999935
1390.0	0.0003595	164.25
1390.0	0.0003583	164.296000004
1390.0	0.0003588	164.342999935
1390.0	0.0003568	164.375
1390.0	0.0003563	164.421000004
1390.0	0.000357	164.467999935
1390.0	0.0003563	164.5
1390.0	0.0003568	164.546000004
1390.0	0.0003575	164.592999935
1390.0	0.0003568	164.625
1390.0	0.0003558	164.671000004
1390.0	0.0003553	164.703000069
1390.0	0.0003565	164.75
1390.0	0.0003568	164.796000004
1390.0	0.0003553	164.828000069
1390.0	0.000355	164.875
1390.0	0.0003563	164.921000004
1390.0	0.0003558	164.953000069
1390.0	0.0003553	165.0
1390.0	0.000355	165.030999899
1390.0	0.000355	165.078000069
1390.0	0.0003545	165.125
1390.0	0.0003555	165.155999899
1390.0	0.0003543	165.203000069
1390.0	0.0003545	165.25
1390.0	0.0003543	165.280999899
1390.0	0.0003558	165.328000069
1390.0	0.0003565	165.358999968
1390.0	0.0003563	165.405999899
1390.0	0.0003555	165.453000069
1390.0	0.0003555	165.483999968
1390.0	0.0003563	165.530999899
1390.0	0.0003568	165.578000069
1390.0	0.0003563	165.625
1400.0	0.0003493	165.889999866
1400.0	0.000347	165.921000004
1400.0	0.0003458	165.967999935
1400.0	0.0003443	166.0
1400.0	0.0003425	166.046000004
1400.0	0.0003413	166.092999935
1400.0	0.0003413	166.125
1400.0	0.0003415	166.171000004
1400.0	0.0003403	166.217999935
1400.0	0.00034	166.25
1400.0	0.0003405	166.296000004
1400.0	0.0003405	166.342999935
1400.0	0.00034	166.375
1400.0	0.0003393	166.421000004
1400.0	0.0003393	166.453000069
1400.0	0.0003393	166.5
1400.0	0.0003405	166.546000004
1400.0	0.00034	166.578000069
1400.0	0.00034	166.625
1400.0	0.0003403	166.671000004
1400.0	0.0003403	166.703000069
1400.0	0.00034	166.75
1400.0	0.00034	166.780999899
1400.0	0.0003395	166.828000069
1400.0	0.0003405	166.875
1400.0	0.0003418	166.905999899
1400.0	0.0003405	166.953000069
1400.0	0.0003403	167.0
1400.0	0.00034	167.030999899
1400.0	0.0003395	167.078000069
1400.0	0.0003405	167.108999968
1400.0	0.0003393	167.155999899
1400.0	0.000339	167.203000069
1400.0	0.0003395	167.233999968
1400.0	0.0003408	167.280999899
1400.0	0.0003405	167.328000069
1400.0	0.0003405	167.358999968
1410.0	0.000337	167.625
1410.0	0.0003355	167.671000004
1410.0	0.000334	167.717999935
1410.0	0.0003325	167.75
1410.0	0.000332	167.796000004
1410.0	0.0003328	167.828000069
1410.0	0.0003328	167.875
1410.0	0.0003318	167.921000004
1410.0	0.0003305	167.953000069
1410.0	0.0003305	168.0
1410.0	0.0003313	168.046000004
1410.0	0.0003308	168.078000069
1410.0	0.0003313	168.125
1410.0	0.0003308	168.171000004
1410.0	0.0003305	168.203000069
1410.0	0.0003313	168.25
1410.0	0.000332	168.296000004
1410.0	0.0003315	168.328000069
1410.0	0.0003308	168.375
1410.0	0.0003308	168.421000004
1410.0	0.0003315	168.453000069
1410.0	0.0003325	168.5
1410.0	0.0003318	168.530999899
1410.0	0.0003313	168.578000069
1410.0	0.0003315	168.625
1410.0	0.000332	168.655999899
1410.0	0.0003318	168.703000069
1410.0	0.0003313	168.75
1410.0	0.0003308	168.780999899
1410.0	0.000332	168.828000069
1410.0	0.000332	168.858999968
1410.0	0.0003313	168.905999899
1410.0	0.0003313	168.953000069
1410.0	0.0003313	168.983999968
1410.0	0.000332	169.030999899
1410.0	0.000333	169.078000069
1410.0	0.0003318	169.108999968
1420.0	0.0003303	169.375
1420.0	0.00033	169.421000004
1420.0	0.0003295	169.467999935
1420.0	0.000328	169.5
1420.0	0.0003278	169.546000004
1420.0	0.0003283	169.578000069
1420.0	0.000329	169.625
1420.0	0.0003283	169.671000004
1420.0	0.0003288	169.717999935
1420.0	0.000328	169.75
1420.0	0.0003275	169.796000004
1420.0	0.0003283	169.828000069
1420.0	0.0003288	169.875
1420.0	0.0003278	169.921000004
1420.0	0.0003275	169.953000069
1420.0	0.0003278	170.0
1420.0	0.000328	170.046000004
1420.0	0.0003275	170.078000069
1420.0	0.0003263	170.125
1420.0	0.0003258	170.171000004
1420.0	0.0003268	170.203000069
1420.0	0.0003275	170.25
1420.0	0.0003265	170.280999899
1420.0	0.0003263	170.328000069
1420.0	0.0003263	170.375
1420.0	0.000327	170.405999899
1420.0	0.0003263	170.453000069
1420.0	0.0003268	170.5
1420.0	0.0003255	170.530999899
1420.0	0.0003255	170.578000069
1420.0	0.000327	170.625
1420.0	0.0003278	170.655999899
1420.0	0.0003275	170.703000069
1420.0	0.0003275	170.75
1420.0	0.000327	170.780999899
1420.0	0.0003283	170.828000069
1420.0	0.0003288	170.858999968
1430.0	0.000328	171.139999866
1430.0	0.0003275	171.171000004
1430.0	0.0003283	171.217999935
1430.0	0.0003295	171.25
1430.0	0.000329	171.296000004
1430.0	0.000329	171.342999935
1430.0	0.0003293	171.375
1430.0	0.0003308	171.421000004
1430.0	0.00033	171.467999935
1430.0	0.0003295	171.5
1430.0	0.0003293	171.546000004
1430.0	0.000329	171.578000069
1430.0	0.0003305	171.625
1430.0	0.00033	171.671000004
1430.0	0.0003293	171.703000069
1430.0	0.00033	171.75
1430.0	0.0003303	171.796000004
1430.0	0.0003305	171.828000069
1430.0	0.00033	171.875
1430.0	0.00033	171.905999899
1430.0	0.0003303	171.953000069
1430.0	0.0003315	172.0
1430.0	0.0003313	172.030999899
1430.0	0.0003303	172.078000069
1430.0	0.00033	172.125
1430.0	0.0003303	172.155999899
1430.0	0.0003308	172.203000069
1430.0	0.00033	172.25
1430.0	0.0003305	172.280999899
1430.0	0.00033	172.328000069
1430.0	0.00033	172.375
1430.0	0.0003313	172.405999899
1430.0	0.0003313	172.453000069
1430.0	0.0003303	172.5
1430.0	0.0003303	172.530999899
1430.0	0.0003305	172.578000069
1430.0	0.0003313	172.608999968
1440.0	0.0003338	172.889999866
1440.0	0.000334	172.921000004
1440.0	0.0003358	172.967999935
1440.0	0.0003375	173.0
1440.0	0.0003365	173.046000004
1440.0	0.0003368	173.092999935
1440.0	0.0003365	173.125
1440.0	0.0003375	173.171000004
1440.0	0.0003375	173.217999935
1440.0	0.0003375	173.25
1440.0	0.0003368	173.296000004
1440.0	0.0003368	173.328000069
1440.0	0.000338	173.375
1440.0	0.000337	173.421000004
1440.0	0.0003375	173.453000069
1440.0	0.0003375	173.5
1440.0	0.0003388	173.546000004
1440.0	0.0003388	173.578000069
1440.0	0.0003388	173.625
1440.0	0.0003375	173.655999899
1440.0	0.0003375	173.703000069
1440.0	0.000338	173.75
1440.0	0.000339	173.780999899
1440.0	0.0003375	173.828000069
1440.0	0.000338	173.875
1440.0	0.0003393	173.905999899
1440.0	0.000339	173.953000069
1440.0	0.0003403	174.0
1440.0	0.0003395	174.030999899
1440.0	0.0003395	174.078000069
1440.0	0.0003395	174.125
1440.0	0.0003403	174.155999899
1440.0	0.0003405	174.203000069
1440.0	0.000339	174.25
1440.0	0.0003383	174.280999899
1440.0	0.0003388	174.328000069
1440.0	0.0003395	174.358999968
1450.0	0.000342	174.639999866
1450.0	0.0003428	174.671000004
1450.0	0.0003443	174.717999935
1450.0	0.0003463	174.75
1450.0	0.0003465	174.796000004
1450.0	0.0003458	174.842999935
1450.0	0.0003455	174.875
1450.0	0.000347	174.921000004
1450.0	0.0003478	174.967999935
1450.0	0.000347	175.0
1450.0	0.000347	175.046000004
1450.0	0.0003475	175.078000069
1450.0	0.0003488	175.125
1450.0	0.0003493	175.171000004
1450.0	0.0003483	175.203000069
1450.0	0.0003478	175.25
1450.0	0.0003488	175.296000004
1450.0	0.0003488	175.328000069
1450.0	0.000348	175.375
1450.0	0.000348	175.405999899
1450.0	0.000348	175.453000069
1450.0	0.0003488	175.5
1450.0	0.0003493	175.530999899
1450.0	0.0003488	175.578000069
1450.0	0.0003483	175.625
1450.0	0.0003483	175.655999899
1450.0	0.0003495	175.703000069
1450.0	0.0003505	175.733999968
1450.0	0.0003495	175.780999899
1450.0	0.00035	175.828000069
1450.0	0.0003505	175.875
1450.0	0.00035	175.905999899
1450.0	0.0003505	175.953000069
1450.0	0.00035	176.0
1450.0	0.000349	176.030999899
1450.0	0.0003488	176.078000069
1450.0	0.00035	176.108999968
1460.0	0.0003533	176.375
1460.0	0.000354	176.421000004
1460.0	0.0003553	176.467999935
1460.0	0.0003578	176.5
1460.0	0.000357	176.546000004
1460.0	0.0003583	176.592999935
1460.0	0.000359	176.639999866
1460.0	0.0003593	176.671000004
1460.0	0.0003603	176.717999935
1460.0	0.0003613	176.75
1460.0	0.00036	176.796000004
1460.0	0.0003595	176.842999935
1460.0	0.0003595	176.875
1460.0	0.0003613	176.921000004
1460.0	0.0003615	176.967999935
1460.0	0.00036	177.0
1460.0	0.0003595	177.046000004
1460.0	0.0003593	177.078000069
1460.0	0.0003603	177.125
1460.0	0.0003603	177.171000004
1460.0	0.0003593	177.217999935
1460.0	0.000359	177.25
1460.0	0.0003588	177.296000004
1460.0	0.00036	177.328000069
1460.0	0.0003605	177.375
1460.0	0.00036	177.421000004
1460.0	0.0003595	177.453000069
1460.0	0.0003605	177.5
1460.0	0.0003608	177.546000004
1460.0	0.0003608	177.578000069
1460.0	0.00036	177.625
1460.0	0.00036	177.671000004
1460.0	0.0003615	177.703000069
1460.0	0.0003625	177.75
1460.0	0.0003613	177.780999899
1460.0	0.0003613	177.828000069
1460.0	0.0003605	177.875
1470.0	0.0003638	178.139999866
1470.0	0.0003655	178.171000004
1470.0	0.0003655	178.217999935
1470.0	0.000367	178.264999866
1470.0	0.0003668	178.296000004
1470.0	0.000368	178.342999935
1470.0	0.0003688	178.389999866
1470.0	0.0003683	178.421000004
1470.0	0.000368	178.467999935
1470.0	0.0003688	178.514999866
1470.0	0.0003695	178.546000004
1470.0	0.0003683	178.592999935
1470.0	0.0003683	178.639999866
1470.0	0.0003683	178.671000004
1470.0	0.00037	178.717999935
1470.0	0.0003703	178.75
1470.0	0.0003693	178.796000004
1470.0	0.000369	178.842999935
1470.0	0.0003695	178.875
1470.0	0.00037	178.921000004
1470.0	0.0003688	178.967999935
1470.0	0.0003683	179.0
1470.0	0.0003688	179.046000004
1470.0	0.0003683	179.092999935
1470.0	0.0003695	179.125
1470.0	0.0003703	179.171000004
1470.0	0.00037	179.217999935
1470.0	0.0003693	179.25
1470.0	0.000369	179.296000004
1470.0	0.00037	179.328000069
1470.0	0.00037	179.375
1470.0	0.0003688	179.421000004
1470.0	0.0003688	179.453000069
1470.0	0.0003695	179.5
1470.0	0.0003705	179.546000004
1470.0	0.0003705	179.578000069
1470.0	0.0003693	179.625
1480.0	0.0003715	179.889999866
1480.0	0.0003728	179.937000036
1480.0	0.000374	179.967999935
1480.0	0.0003733	180.014999866
1480.0	0.0003738	180.062000036
1480.0	0.0003738	180.092999935
1480.0	0.0003753	180.139999866
1480.0	0.0003763	180.187000036
1480.0	0.000375	180.217999935
1480.0	0.000375	180.264999866
1480.0	0.0003745	180.312000036
1480.0	0.0003765	180.342999935
1480.0	0.0003755	180.389999866
1480.0	0.000375	180.421000004
1480.0	0.0003745	180.467999935
1480.0	0.0003763	180.514999866
1480.0	0.0003768	180.546000004
1480.0	0.0003765	180.592999935
1480.0	0.0003755	180.639999866
1480.0	0.0003753	180.671000004
1480.0	0.0003763	180.717999935
1480.0	0.0003775	180.75
1480.0	0.0003755	180.796000004
1480.0	0.0003755	180.842999935
1480.0	0.0003765	180.875
1480.0	0.0003765	180.921000004
1480.0	0.0003758	180.967999935
1480.0	0.0003758	181.0
1480.0	0.0003765	181.046000004
1480.0	0.0003758	181.092999935
1480.0	0.0003775	181.125
1480.0	0.0003775	181.171000004
1480.0	0.0003755	181.217999935
1480.0	0.000375	181.25
1480.0	0.0003753	181.296000004
1480.0	0.0003758	181.328000069
1480.0	0.0003768	181.375
1490.0	0.000378	181.639999866
1490.0	0.0003768	181.687000036
1490.0	0.0003775	181.733999968
1490.0	0.00038	181.764999866
1490.0	0.0003793	181.812000036
1490.0	0.000378	181.858999968
1490.0	0.0003778	181.889999866
1490.0	0.000379	181.937000036
1490.0	0.00038	181.967999935
1490.0	0.000379	182.014999866
1490.0	0.000379	182.062000036
1490.0	0.000379	182.092999935
1490.0	0.00038	182.139999866
1490.0	0.0003813	182.187000036
1490.0	0.0003803	182.217999935
1490.0	0.00038	182.264999866
1490.0	0.0003815	182.312000036
1490.0	0.0003815	182.342999935
1490.0	0.00038	182.389999866
1490.0	0.000379	182.421000004
1490.0	0.0003783	182.467999935
1490.0	0.0003793	182.514999866
1490.0	0.0003803	182.546000004
1490.0	0.000379	182.592999935
1490.0	0.000379	182.639999866
1490.0	0.0003788	182.671000004
1490.0	0.0003795	182.717999935
1490.0	0.0003788	182.75
1490.0	0.0003793	182.796000004
1490.0	0.000379	182.842999935
1490.0	0.0003793	182.875
1490.0	0.0003803	182.921000004
1490.0	0.0003793	182.967999935
1490.0	0.0003788	183.0
1490.0	0.0003788	183.046000004
1490.0	0.0003793	183.078000069
1490.0	0.0003803	183.125
1500.0	0.0003795	183.389999866
1500.0	0.00038	183.437000036
1500.0	0.0003803	183.483999968
1500.0	0.0003818	183.514999866
1500.0	0.0003808	183.562000036
1500.0	0.0003808	183.608999968
1500.0	0.0003813	183.639999866
1500.0	0.0003818	183.687000036
1500.0	0.000383	183.717999935
1500.0	0.000383	183.764999866
1500.0	0.000382	183.812000036
1500.0	0.0003818	183.842999935
1500.0	0.000383	183.889999866
1500.0	0.0003825	183.937000036
1500.0	0.0003825	183.967999935
1500.0	0.000382	184.014999866
1500.0	0.0003818	184.046000004
1500.0	0.0003833	184.092999935
1500.0	0.0003833	184.139999866
1500.0	0.0003818	184.171000004
1500.0	0.000382	184.217999935
1500.0	0.0003833	184.264999866
1500.0	0.0003838	184.296000004
1500.0	0.0003825	184.342999935
1500.0	0.000382	184.389999866
1500.0	0.0003818	184.421000004
1500.0	0.0003833	184.467999935
1500.0	0.000383	184.5
1500.0	0.000382	184.546000004
1500.0	0.0003813	184.592999935
1500.0	0.0003815	184.625
1500.0	0.000382	184.671000004
1500.0	0.0003818	184.717999935
1500.0	0.0003813	184.75
1500.0	0.0003818	184.796000004
1500.0	0.0003825	184.828000069
1500.0	0.000383	184.875
1510.0	0.0003815	185.155999899
1510.0	0.0003815	185.187000036
1510.0	0.0003818	185.233999968
1510.0	0.000382	185.280999899
1510.0	0.000384	185.312000036
1510.0	0.000383	185.358999968
1510.0	0.000383	185.389999866
1510.0	0.000383	185.437000036
1510.0	0.000383	185.483999968
1510.0	0.0003845	185.514999866
1510.0	0.0003833	185.562000036
1510.0	0.0003833	185.608999968
1510.0	0.0003833	185.639999866
1510.0	0.0003843	185.687000036
1510.0	0.0003845	185.717999935
1510.0	0.0003833	185.764999866
1510.0	0.000383	185.812000036
1510.0	0.0003828	185.842999935
1510.0	0.0003845	185.889999866
1510.0	0.000384	185.937000036
1510.0	0.0003833	185.983999968
1510.0	0.0003838	186.014999866
1510.0	0.000384	186.062000036
1510.0	0.0003845	186.092999935
1510.0	0.000385	186.139999866
1510.0	0.0003838	186.187000036
1510.0	0.000383	186.217999935
1510.0	0.0003828	186.264999866
1510.0	0.0003833	186.312000036
1510.0	0.0003845	186.342999935
1510.0	0.0003833	186.389999866
1510.0	0.0003838	186.421000004
1510.0	0.000384	186.467999935
1510.0	0.0003843	186.514999866
1510.0	0.0003843	186.546000004
1510.0	0.000383	186.592999935
1510.0	0.0003833	186.639999866
1520.0	0.000385	186.905999899
1520.0	0.0003855	186.953000069
1520.0	0.0003858	186.983999968
1520.0	0.0003845	187.030999899
1520.0	0.0003843	187.078000069
1520.0	0.000385	187.108999968
1520.0	0.0003855	187.155999899
1520.0	0.000385	187.203000069
1520.0	0.0003838	187.233999968
1520.0	0.0003838	187.280999899
1520.0	0.0003843	187.328000069
1520.0	0.0003855	187.358999968
1520.0	0.0003843	187.405999899
1520.0	0.0003845	187.437000036
1520.0	0.0003845	187.483999968
1520.0	0.0003863	187.530999899
1520.0	0.0003865	187.562000036
1520.0	0.0003858	187.608999968
1520.0	0.0003855	187.655999899
1520.0	0.0003868	187.687000036
1520.0	0.0003863	187.733999968
1520.0	0.0003863	187.780999899
1520.0	0.0003858	187.812000036
1520.0	0.0003863	187.858999968
1520.0	0.0003855	187.905999899
1520.0	0.0003868	187.937000036
1520.0	0.0003875	187.983999968
1520.0	0.0003863	188.014999866
1520.0	0.0003855	188.062000036
1520.0	0.0003845	188.108999968
1520.0	0.0003858	188.139999866
1520.0	0.0003858	188.187000036
1520.0	0.0003845	188.233999968
1520.0	0.0003843	188.264999866
1520.0	0.0003858	188.312000036
1520.0	0.0003855	188.342999935
1530.0	0.0003853	188.625
1530.0	0.0003845	188.671000004
1530.0	0.0003845	188.703000069
1530.0	0.0003845	188.75
1530.0	0.0003855	188.796000004
1530.0	0.0003863	188.828000069
1530.0	0.0003853	188.875
1530.0	0.0003853	188.905999899
1530.0	0.000385	188.953000069
1530.0	0.0003863	189.0
1530.0	0.0003863	189.030999899
1530.0	0.0003855	189.078000069
1530.0	0.0003855	189.125
1530.0	0.0003858	189.155999899
1530.0	0.0003865	189.203000069
1530.0	0.0003853	189.25
1530.0	0.0003845	189.280999899
1530.0	0.000385	189.328000069
1530.0	0.0003855	189.358999968
1530.0	0.0003845	189.405999899
1530.0	0.000385	189.453000069
1530.0	0.0003845	189.5
1530.0	0.0003843	189.530999899
1530.0	0.0003853	189.578000069
1530.0	0.0003855	189.608999968
1530.0	0.0003843	189.655999899
1530.0	0.000384	189.703000069
1530.0	0.0003838	189.733999968
1530.0	0.000385	189.780999899
1530.0	0.0003863	189.828000069
1530.0	0.000385	189.858999968
1530.0	0.000385	189.905999899
1530.0	0.0003845	189.953000069
1530.0	0.0003863	189.983999968
1530.0	0.0003853	190.030999899
1530.0	0.0003855	190.062000036
1530.0	0.000385	190.108999968
1540.0	0.000385	190.389999866
1540.0	0.0003845	190.421000004
1540.0	0.0003845	190.467999935
1540.0	0.0003825	190.514999866
1540.0	0.0003825	190.546000004
1540.0	0.000382	190.592999935
1540.0	0.0003815	190.639999866
1540.0	0.000383	190.671000004
1540.0	0.0003813	190.717999935
1540.0	0.0003818	190.764999866
1540.0	0.0003805	190.796000004
1540.0	0.0003803	190.842999935
1540.0	0.0003803	190.889999866
1540.0	0.0003813	190.921000004
1540.0	0.0003803	190.967999935
1540.0	0.00038	191.014999866
1540.0	0.00038	191.046000004
1540.0	0.0003813	191.092999935
1540.0	0.0003818	191.139999866
1540.0	0.000382	191.171000004
1540.0	0.0003808	191.217999935
1540.0	0.0003805	191.264999866
1540.0	0.0003825	191.296000004
1540.0	0.0003813	191.342999935
1540.0	0.0003818	191.389999866
1540.0	0.0003803	191.421000004
1540.0	0.0003803	191.467999935
1540.0	0.0003803	191.514999866
1540.0	0.0003818	191.546000004
1540.0	0.0003825	191.592999935
1540.0	0.0003815	191.639999866
1540.0	0.0003815	191.671000004
1540.0	0.0003825	191.717999935
1540.0	0.0003833	191.75
1540.0	0.0003825	191.796000004
1540.0	0.0003818	191.842999935
1550.0	0.0003803	192.108999968
1550.0	0.0003778	192.155999899
1550.0	0.0003778	192.203000069
1550.0	0.000377	192.233999968
1550.0	0.0003753	192.280999899
1550.0	0.000375	192.312000036
1550.0	0.0003745	192.358999968
1550.0	0.0003758	192.405999899
1550.0	0.0003743	192.437000036
1550.0	0.0003745	192.483999968
1550.0	0.0003745	192.514999866
1550.0	0.000375	192.562000036
1550.0	0.0003763	192.608999968
1550.0	0.0003753	192.639999866
1550.0	0.0003758	192.687000036
1550.0	0.0003755	192.733999968
1550.0	0.0003763	192.764999866
1550.0	0.0003768	192.812000036
1550.0	0.0003755	192.858999968
1550.0	0.0003755	192.889999866
1550.0	0.0003768	192.937000036
1550.0	0.0003765	192.983999968
1550.0	0.0003763	193.014999866
1550.0	0.0003763	193.062000036
1550.0	0.0003745	193.108999968
1550.0	0.0003743	193.139999866
1550.0	0.0003755	193.187000036
1550.0	0.0003758	193.217999935
1550.0	0.0003745	193.264999866
1550.0	0.0003745	193.312000036
1550.0	0.0003743	193.342999935
1550.0	0.0003755	193.389999866
1550.0	0.0003758	193.437000036
1550.0	0.000375	193.467999935
1550.0	0.0003745	193.514999866
1550.0	0.0003753	193.562000036
1550.0	0.0003763	193.592999935
1560.0	0.0003705	193.875
1560.0	0.0003705	193.921000004
1560.0	0.0003683	193.953000069
1560.0	0.0003678	194.0
1560.0	0.0003675	194.046000004
1560.0	0.000368	194.078000069
1560.0	0.0003675	194.125
1560.0	0.0003663	194.171000004
1560.0	0.0003663	194.203000069
1560.0	0.0003658	194.25
1560.0	0.0003668	194.296000004
1560.0	0.0003675	194.328000069
1560.0	0.0003665	194.375
1560.0	0.0003665	194.421000004
1560.0	0.0003675	194.453000069
1560.0	0.000368	194.5
1560.0	0.0003683	194.530999899
1560.0	0.000367	194.578000069
1560.0	0.0003668	194.625
1560.0	0.0003668	194.655999899
1560.0	0.000368	194.703000069
1560.0	0.000367	194.75
1560.0	0.0003663	194.780999899
1560.0	0.0003658	194.828000069
1560.0	0.0003658	194.858999968
1560.0	0.0003678	194.905999899
1560.0	0.0003668	194.953000069
1560.0	0.0003668	194.983999968
1560.0	0.0003665	195.030999899
1560.0	0.0003678	195.078000069
1560.0	0.000368	195.108999968
1560.0	0.0003668	195.155999899
1560.0	0.0003663	195.187000036
1560.0	0.0003668	195.233999968
1560.0	0.0003675	195.280999899
1560.0	0.0003663	195.312000036
1560.0	0.0003655	195.358999968
1570.0	0.0003615	195.639999866
1570.0	0.0003588	195.671000004
1570.0	0.0003583	195.717999935
1570.0	0.0003578	195.75
1570.0	0.0003555	195.796000004
1570.0	0.0003555	195.842999935
1570.0	0.000355	195.875
1570.0	0.0003563	195.921000004
1570.0	0.000355	195.967999935
1570.0	0.0003543	196.0
1570.0	0.000354	196.046000004
1570.0	0.000355	196.078000069
1570.0	0.0003553	196.125
1570.0	0.0003553	196.171000004
1570.0	0.000354	196.217999935
1570.0	0.0003538	196.25
1570.0	0.0003533	196.296000004
1570.0	0.0003545	196.328000069
1570.0	0.000355	196.375
1570.0	0.000354	196.421000004
1570.0	0.000354	196.453000069
1570.0	0.0003543	196.5
1570.0	0.0003545	196.546000004
1570.0	0.0003538	196.578000069
1570.0	0.0003538	196.625
1570.0	0.0003538	196.671000004
1570.0	0.000355	196.703000069
1570.0	0.0003553	196.75
1570.0	0.0003543	196.780999899
1570.0	0.0003538	196.828000069
1570.0	0.0003533	196.875
1570.0	0.0003545	196.905999899
1570.0	0.0003553	196.953000069
1570.0	0.000354	197.0
1570.0	0.000354	197.030999899
1570.0	0.000354	197.078000069
1570.0	0.000354	197.125
1580.0	0.0003483	197.405999899
1580.0	0.0003468	197.437000036
1580.0	0.0003453	197.483999968
1580.0	0.0003425	197.514999866
1580.0	0.0003413	197.562000036
1580.0	0.00034	197.608999968
1580.0	0.0003405	197.639999866
1580.0	0.0003388	197.687000036
1580.0	0.000339	197.733999968
1580.0	0.0003383	197.764999866
1580.0	0.0003383	197.812000036
1580.0	0.0003395	197.842999935
1580.0	0.0003393	197.889999866
1580.0	0.0003393	197.937000036
1580.0	0.000339	197.967999935
1580.0	0.0003395	198.014999866
1580.0	0.0003383	198.062000036
1580.0	0.0003383	198.092999935
1580.0	0.0003375	198.139999866
1580.0	0.0003375	198.187000036
1580.0	0.0003375	198.217999935
1580.0	0.0003388	198.264999866
1580.0	0.0003388	198.312000036
1580.0	0.000338	198.342999935
1580.0	0.000338	198.389999866
1580.0	0.0003395	198.437000036
1580.0	0.00034	198.467999935
1580.0	0.0003383	198.514999866
1580.0	0.0003383	198.546000004
1580.0	0.0003378	198.592999935
1580.0	0.0003383	198.639999866
1580.0	0.0003388	198.671000004
1580.0	0.0003375	198.717999935
1580.0	0.000337	198.764999866
1580.0	0.0003383	198.796000004
1580.0	0.000337	198.842999935
1580.0	0.000338	198.889999866
1590.0	0.0003308	199.155999899
1590.0	0.0003283	199.203000069
1590.0	0.0003263	199.25
1590.0	0.000324	199.280999899
1590.0	0.0003233	199.328000069
1590.0	0.0003228	199.375
1590.0	0.0003208	199.405999899
1590.0	0.0003203	199.453000069
1590.0	0.0003213	199.483999968
1590.0	0.0003213	199.530999899
1590.0	0.00032	199.578000069
1590.0	0.0003195	199.608999968
1590.0	0.000319	199.655999899
1590.0	0.0003203	199.703000069
1590.0	0.0003203	199.733999968
1590.0	0.0003195	199.780999899
1590.0	0.0003195	199.812000036
1590.0	0.0003193	199.858999968
1590.0	0.0003195	199.905999899
1590.0	0.0003203	199.937000036
1590.0	0.0003195	199.983999968
1590.0	0.0003195	200.030999899
1590.0	0.0003203	200.062000036
1590.0	0.0003205	200.108999968
1590.0	0.0003195	200.139999866
1590.0	0.0003193	200.187000036
1590.0	0.0003188	200.233999968
1590.0	0.0003195	200.264999866
1590.0	0.0003195	200.312000036
1590.0	0.0003188	200.358999968
1590.0	0.0003188	200.389999866
1590.0	0.000319	200.437000036
1590.0	0.0003193	200.467999935
1590.0	0.0003193	200.514999866
1590.0	0.000319	200.562000036
1590.0	0.0003188	200.592999935
1590.0	0.0003193	200.639999866
1600.0	0.0003103	200.921000004
1600.0	0.000308	200.953000069
1600.0	0.000305	201.0
1600.0	0.000303	201.030999899
1600.0	0.0003013	201.078000069
1600.0	0.0003008	201.125
1600.0	0.0003003	201.155999899
1600.0	0.0002988	201.203000069
1600.0	0.0002983	201.25
1600.0	0.000299	201.280999899
1600.0	0.000299	201.328000069
1600.0	0.000298	201.375
1600.0	0.0002978	201.405999899
1600.0	0.0002975	201.453000069
1600.0	0.0002978	201.483999968
1600.0	0.0002988	201.530999899
1600.0	0.0002975	201.578000069
1600.0	0.0002978	201.608999968
1600.0	0.000298	201.655999899
1600.0	0.000299	201.703000069
1600.0	0.0002993	201.733999968
1600.0	0.000298	201.780999899
1600.0	0.000298	201.812000036
1600.0	0.0002975	201.858999968
1600.0	0.0002983	201.905999899
1600.0	0.0002978	201.937000036
1600.0	0.0002968	201.983999968
1600.0	0.0002965	202.030999899
1600.0	0.0002975	202.062000036
1600.0	0.0002978	202.108999968
1600.0	0.0002968	202.139999866
1600.0	0.0002968	202.187000036
1600.0	0.0002968	202.233999968
1600.0	0.0002978	202.264999866
1600.0	0.0002978	202.312000036
1600.0	0.0002965	202.358999968
1600.0	0.0002963	202.389999866
1610.0	0.0002888	202.671000004
1610.0	0.0002845	202.717999935
1610.0	0.0002818	202.75
1610.0	0.0002808	202.796000004
1610.0	0.0002783	202.842999935
1610.0	0.0002768	202.875
1610.0	0.0002753	202.921000004
1610.0	0.0002763	202.953000069
1610.0	0.0002755	203.0
1610.0	0.000274	203.046000004
1610.0	0.0002738	203.078000069
1610.0	0.0002745	203.125
1610.0	0.0002733	203.171000004
1610.0	0.0002745	203.217999935
1610.0	0.0002738	203.25
1610.0	0.0002738	203.296000004
1610.0	0.0002738	203.328000069
1610.0	0.0002745	203.375
1610.0	0.0002745	203.421000004
1610.0	0.0002743	203.453000069
1610.0	0.000274	203.5
1610.0	0.0002738	203.546000004
1610.0	0.0002743	203.578000069
1610.0	0.000275	203.625
1610.0	0.0002745	203.655999899
1610.0	0.0002743	203.703000069
1610.0	0.0002755	203.75
1610.0	0.0002755	203.780999899
1610.0	0.0002755	203.828000069
1610.0	0.0002745	203.875
1610.0	0.0002743	203.905999899
1610.0	0.0002753	203.953000069
1610.0	0.000275	203.983999968
1610.0	0.0002743	204.030999899
1610.0	0.000274	204.078000069
1610.0	0.0002738	204.108999968
1610.0	0.0002743	204.155999899
1620.0	0.0002643	204.437000036
1620.0	0.0002618	204.467999935
1620.0	0.000258	204.514999866
1620.0	0.0002565	204.562000036
1620.0	0.000255	204.592999935
1620.0	0.000254	204.639999866
1620.0	0.000253	204.687000036
1620.0	0.0002515	204.717999935
1620.0	0.0002508	204.764999866
1620.0	0.0002508	204.796000004
1620.0	0.0002515	204.842999935
1620.0	0.0002515	204.889999866
1620.0	0.0002505	204.921000004
1620.0	0.0002515	204.967999935
1620.0	0.0002503	205.014999866
1620.0	0.00025	205.062000036
1620.0	0.0002505	205.092999935
1620.0	0.0002495	205.139999866
1620.0	0.0002493	205.171000004
1620.0	0.0002493	205.217999935
1620.0	0.0002503	205.264999866
1620.0	0.00025	205.296000004
1620.0	0.0002493	205.342999935
1620.0	0.000249	205.389999866
1620.0	0.0002488	205.421000004
1620.0	0.0002493	205.467999935
1620.0	0.0002488	205.5
1620.0	0.0002488	205.546000004
1620.0	0.000249	205.592999935
1620.0	0.0002493	205.625
1620.0	0.0002495	205.671000004
1620.0	0.000249	205.717999935
1620.0	0.0002483	205.75
1620.0	0.000248	205.796000004
1620.0	0.0002483	205.842999935
1620.0	0.0002493	205.875
1620.0	0.0002493	205.921000004
1630.0	0.000239	206.203000069
1630.0	0.0002363	206.25
1630.0	0.0002328	206.280999899
1630.0	0.0002305	206.328000069
1630.0	0.0002288	206.375
1630.0	0.000228	206.405999899
1630.0	0.0002268	206.453000069
1630.0	0.000225	206.5
1630.0	0.0002243	206.530999899
1630.0	0.0002243	206.578000069
1630.0	0.0002245	206.608999968
1630.0	0.0002245	206.655999899
1630.0	0.0002233	206.703000069
1630.0	0.000223	206.733999968
1630.0	0.0002225	206.780999899
1630.0	0.000223	206.828000069
1630.0	0.0002225	206.858999968
1630.0	0.0002225	206.905999899
1630.0	0.000223	206.937000036
1630.0	0.0002238	206.983999968
1630.0	0.0002238	207.030999899
1630.0	0.000223	207.062000036
1630.0	0.0002233	207.108999968
1630.0	0.0002233	207.155999899
1630.0	0.0002245	207.187000036
1630.0	0.0002243	207.233999968
1630.0	0.0002243	207.264999866
1630.0	0.0002238	207.312000036
1630.0	0.0002243	207.358999968
1630.0	0.0002243	207.389999866
1630.0	0.0002238	207.437000036
1630.0	0.0002233	207.483999968
1630.0	0.0002233	207.514999866
1630.0	0.0002243	207.562000036
1630.0	0.0002243	207.592999935
1630.0	0.000223	207.639999866
1630.0	0.0002228	207.687000036
1640.0	0.0002155	207.967999935
1640.0	0.0002118	208.014999866
1640.0	0.0002095	208.046000004
1640.0	0.000208	208.092999935
1640.0	0.0002065	208.125
1640.0	0.0002045	208.171000004
1640.0	0.0002033	208.217999935
1640.0	0.0002033	208.25
1640.0	0.000203	208.296000004
1640.0	0.0002025	208.342999935
1640.0	0.0002018	208.375
1640.0	0.0002013	208.421000004
1640.0	0.0002008	208.453000069
1640.0	0.0002008	208.5
1640.0	0.0002	208.546000004
1640.0	0.0002	208.592999935
1640.0	0.0002	208.625
1640.0	0.0002	208.671000004
1640.0	0.0002013	208.717999935
1640.0	0.0002013	208.75
1640.0	0.0002005	208.796000004
1640.0	0.0002008	208.828000069
1640.0	0.0002013	208.875
1640.0	0.0002018	208.921000004
1640.0	0.0002013	208.953000069
1640.0	0.0002015	209.0
1640.0	0.0002018	209.046000004
1640.0	0.000202	209.078000069
1640.0	0.0002018	209.125
1640.0	0.0002013	209.155999899
1640.0	0.0002013	209.203000069
1640.0	0.0002008	209.25
1640.0	0.0002015	209.280999899
1640.0	0.0002013	209.328000069
1640.0	0.0002013	209.375
1640.0	0.0002008	209.405999899
1640.0	0.0002013	209.453000069
1650.0	0.000193	209.733999968
1650.0	0.000189	209.780999899
1650.0	0.0001868	209.812000036
1650.0	0.000185	209.858999968
1650.0	0.000183	209.889999866
1650.0	0.0001818	209.937000036
1650.0	0.0001808	209.983999968
1650.0	0.0001808	210.014999866
1650.0	0.00018	210.062000036
1650.0	0.000179	210.108999968
1650.0	0.0001783	210.139999866
1650.0	0.0001788	210.187000036
1650.0	0.000179	210.217999935
1650.0	0.000178	210.264999866
1650.0	0.000178	210.312000036
1650.0	0.000178	210.342999935
1650.0	0.0001788	210.389999866
1650.0	0.000178	210.437000036
1650.0	0.0001788	210.467999935
1650.0	0.000178	210.514999866
1650.0	0.000178	210.562000036
1650.0	0.0001778	210.592999935
1650.0	0.000178	210.639999866
1650.0	0.0001778	210.687000036
1650.0	0.0001783	210.733999968
1650.0	0.000178	210.764999866
1650.0	0.0001778	210.812000036
1650.0	0.0001783	210.842999935
1650.0	0.0001783	210.889999866
1650.0	0.000178	210.937000036
1650.0	0.000178	210.967999935
1650.0	0.0001778	211.014999866
1650.0	0.0001783	211.062000036
1650.0	0.0001783	211.092999935
1650.0	0.0001783	211.139999866
1650.0	0.0001783	211.171000004
1660.0	0.0001705	211.467999935
1660.0	0.0001675	211.5
1660.0	0.000165	211.546000004
1660.0	0.0001638	211.578000069
1660.0	0.000162	211.625
1660.0	0.0001603	211.671000004
1660.0	0.0001595	211.703000069
1660.0	0.0001595	211.75
1660.0	0.00016	211.796000004
1660.0	0.0001593	211.828000069
1660.0	0.000159	211.875
1660.0	0.000159	211.921000004
1660.0	0.000159	211.953000069
1660.0	0.000159	212.0
1660.0	0.0001583	212.030999899
1660.0	0.0001578	212.078000069
1660.0	0.0001575	212.125
1660.0	0.000158	212.155999899
1660.0	0.000158	212.203000069
1660.0	0.0001578	212.25
1660.0	0.0001575	212.280999899
1660.0	0.000158	212.328000069
1660.0	0.0001583	212.358999968
1660.0	0.0001575	212.405999899
1660.0	0.0001578	212.453000069
1660.0	0.0001578	212.483999968
1660.0	0.0001583	212.530999899
1660.0	0.0001583	212.578000069
1660.0	0.000158	212.608999968
1660.0	0.0001578	212.655999899
1660.0	0.0001575	212.687000036
1660.0	0.000158	212.733999968
1660.0	0.0001578	212.780999899
1660.0	0.0001575	212.812000036
1660.0	0.0001575	212.858999968
1660.0	0.000158	212.905999899
1660.0	0.0001583	212.937000036
1670.0	0.00015	213.233999968
1670.0	0.0001475	213.264999866
1670.0	0.0001455	213.312000036
1670.0	0.000144	213.342999935
1670.0	0.0001425	213.389999866
1670.0	0.0001415	213.437000036
1670.0	0.0001408	213.467999935
1670.0	0.0001405	213.514999866
1670.0	0.00014	213.562000036
1670.0	0.0001395	213.592999935
1670.0	0.0001395	213.639999866
1670.0	0.0001403	213.687000036
1670.0	0.0001405	213.717999935
1670.0	0.0001403	213.764999866
1670.0	0.0001403	213.796000004
1670.0	0.00014	213.842999935
1670.0	0.0001405	213.889999866
1670.0	0.0001403	213.937000036
1670.0	0.0001393	213.967999935
1670.0	0.0001388	214.014999866
1670.0	0.0001388	214.046000004
1670.0	0.0001393	214.092999935
1670.0	0.0001393	214.139999866
1670.0	0.000139	214.171000004
1670.0	0.000139	214.217999935
1670.0	0.0001393	214.264999866
1670.0	0.00014	214.296000004
1670.0	0.00014	214.342999935
1670.0	0.0001403	214.389999866
1670.0	0.00014	214.437000036
1670.0	0.00014	214.467999935
1670.0	0.00014	214.514999866
1670.0	0.00014	214.562000036
1670.0	0.00014	214.592999935
1670.0	0.0001393	214.639999866
1670.0	0.0001393	214.671000004
1670.0	0.0001393	214.717999935
1680.0	0.0001325	215.0
1680.0	0.0001305	215.046000004
1680.0	0.000129	215.092999935
1680.0	0.000128	215.125
1680.0	0.000127	215.171000004
1680.0	0.0001263	215.217999935
1680.0	0.0001255	215.25
1680.0	0.0001253	215.296000004
1680.0	0.0001253	215.342999935
1680.0	0.000125	215.375
1680.0	0.0001245	215.421000004
1680.0	0.0001245	215.453000069
1680.0	0.0001243	215.5
1680.0	0.0001245	215.546000004
1680.0	0.0001245	215.578000069
1680.0	0.0001233	215.625
1680.0	0.0001233	215.671000004
1680.0	0.0001238	215.703000069
1680.0	0.0001238	215.75
1680.0	0.0001243	215.796000004
1680.0	0.000124	215.828000069
1680.0	0.0001243	215.875
1680.0	0.0001243	215.921000004
1680.0	0.0001245	215.953000069
1680.0	0.0001245	216.0
1680.0	0.0001243	216.030999899
1680.0	0.000124	216.078000069
1680.0	0.0001245	216.125
1680.0	0.0001245	216.155999899
1680.0	0.000124	216.203000069
1680.0	0.000124	216.25
1680.0	0.0001238	216.280999899
1680.0	0.0001243	216.328000069
1680.0	0.0001243	216.358999968
1680.0	0.0001243	216.405999899
1680.0	0.0001243	216.453000069
1680.0	0.0001238	216.5
1690.0	0.0001193	216.780999899
1690.0	0.0001175	216.828000069
1690.0	0.0001163	216.858999968
1690.0	0.000115	216.905999899
1690.0	0.0001143	216.953000069
1690.0	0.0001138	216.983999968
1690.0	0.0001125	217.030999899
1690.0	0.000112	217.062000036
1690.0	0.0001118	217.108999968
1690.0	0.0001115	217.155999899
1690.0	0.0001108	217.187000036
1690.0	0.0001108	217.233999968
1690.0	0.0001105	217.280999899
1690.0	0.0001105	217.312000036
1690.0	0.0001105	217.358999968
1690.0	0.0001103	217.389999866
1690.0	0.0001103	217.437000036
1690.0	0.00011	217.483999968
1690.0	0.0001105	217.514999866
1690.0	0.0001105	217.562000036
1690.0	0.00011	217.608999968
1690.0	0.00011	217.639999866
1690.0	0.0001103	217.687000036
1690.0	0.0001105	217.717999935
1690.0	0.0001105	217.764999866
1690.0	0.0001105	217.812000036
1690.0	0.0001108	217.858999968
1690.0	0.0001103	217.889999866
1690.0	0.0001105	217.937000036
1690.0	0.0001108	217.983999968
1690.0	0.0001108	218.014999866
1690.0	0.0001105	218.062000036
1690.0	0.0001103	218.108999968
1690.0	0.0001105	218.139999866
1690.0	0.0001103	218.187000036
1690.0	0.0001103	218.217999935
1700.0	0.0001053	218.514999866
1700.0	0.000104	218.562000036
1700.0	0.0001028	218.592999935
1700.0	0.0001013	218.639999866
1700.0	0.0001005	218.671000004
1700.0	0.0001	218.717999935
1700.0	0.0001	218.764999866
1700.0	9.93e-05	218.796000004
1700.0	9.9e-05	218.842999935
1700.0	9.9e-05	218.889999866
1700.0	9.93e-05	218.921000004
1700.0	9.93e-05	218.967999935
1700.0	9.88e-05	219.0
1700.0	9.88e-05	219.046000004
1700.0	9.88e-05	219.092999935
1700.0	9.88e-05	219.125
1700.0	9.88e-05	219.171000004
1700.0	9.8e-05	219.217999935
1700.0	9.8e-05	219.25
1700.0	9.88e-05	219.296000004
1700.0	9.88e-05	219.342999935
1700.0	9.83e-05	219.375
1700.0	9.83e-05	219.421000004
1700.0	9.83e-05	219.453000069
1700.0	9.9e-05	219.5
1700.0	9.93e-05	219.546000004
1700.0	9.93e-05	219.578000069
1700.0	9.93e-05	219.625
1700.0	0.0001	219.671000004
1700.0	0.0001005	219.703000069
1700.0	0.0001003	219.75
1700.0	9.95e-05	219.780999899
1700.0	9.95e-05	219.828000069
1700.0	9.95e-05	219.875
1700.0	9.95e-05	219.905999899
1700.0	9.9e-05	219.953000069
1700.0	9.9e-05	220.0
1710.0	9.45e-05	220.280999899
1710.0	9.38e-05	220.328000069
1710.0	9.25e-05	220.375
1710.0	9.18e-05	220.405999899
1710.0	9.08e-05	220.453000069
1710.0	9.05e-05	220.483999968
1710.0	9e-05	220.530999899
1710.0	8.93e-05	220.578000069
1710.0	8.88e-05	220.608999968
1710.0	8.83e-05	220.655999899
1710.0	8.88e-05	220.703000069
1710.0	8.88e-05	220.733999968
1710.0	8.83e-05	220.780999899
1710.0	8.83e-05	220.812000036
1710.0	8.83e-05	220.858999968
1710.0	8.88e-05	220.905999899
1710.0	8.83e-05	220.937000036
1710.0	8.8e-05	220.983999968
1710.0	8.8e-05	221.030999899
1710.0	8.83e-05	221.062000036
1710.0	8.8e-05	221.108999968
1710.0	8.8e-05	221.139999866
1710.0	8.8e-05	221.187000036
1710.0	8.78e-05	221.233999968
1710.0	8.88e-05	221.264999866
1710.0	8.9e-05	221.312000036
1710.0	8.88e-05	221.358999968
1710.0	8.88e-05	221.389999866
1710.0	8.88e-05	221.437000036
1710.0	8.88e-05	221.467999935
1710.0	8.8e-05	221.514999866
1710.0	8.8e-05	221.562000036
1710.0	8.8e-05	221.592999935
1710.0	8.83e-05	221.639999866
1710.0	8.88e-05	221.687000036
1710.0	8.83e-05	221.717999935
1710.0	8.83e-05	221.764999866
1720.0	8.58e-05	222.046000004
1720.0	8.45e-05	222.092999935
1720.0	8.33e-05	222.139999866
1720.0	8.2e-05	222.171000004
1720.0	8.18e-05	222.217999935
1720.0	8.15e-05	222.25
1720.0	8.05e-05	222.296000004
1720.0	8.03e-05	222.342999935
1720.0	7.95e-05	222.375
1720.0	7.95e-05	222.421000004
1720.0	7.95e-05	222.467999935
1720.0	7.93e-05	222.5
1720.0	7.93e-05	222.546000004
1720.0	7.93e-05	222.578000069
1720.0	7.93e-05	222.625
1720.0	7.93e-05	222.671000004
1720.0	7.93e-05	222.703000069
1720.0	7.95e-05	222.75
1720.0	8e-05	222.796000004
1720.0	8e-05	222.828000069
1720.0	7.93e-05	222.875
1720.0	7.9e-05	222.905999899
1720.0	7.9e-05	222.953000069
1720.0	7.93e-05	223.0
1720.0	7.93e-05	223.046000004
1720.0	7.93e-05	223.078000069
1720.0	7.9e-05	223.125
1720.0	7.88e-05	223.171000004
1720.0	7.93e-05	223.203000069
1720.0	7.93e-05	223.25
1720.0	7.9e-05	223.280999899
1720.0	7.9e-05	223.328000069
1720.0	7.9e-05	223.375
1720.0	7.93e-05	223.405999899
1720.0	7.93e-05	223.453000069
1720.0	7.9e-05	223.5
1730.0	7.58e-05	223.780999899
1730.0	7.53e-05	223.828000069
1730.0	7.45e-05	223.858999968
1730.0	7.4e-05	223.905999899
1730.0	7.33e-05	223.937000036
1730.0	7.33e-05	223.983999968
1730.0	7.3e-05	224.030999899
1730.0	7.28e-05	224.062000036
1730.0	7.2e-05	224.108999968
1730.0	7.2e-05	224.155999899
1730.0	7.28e-05	224.187000036
1730.0	7.28e-05	224.233999968
1730.0	7.25e-05	224.264999866
1730.0	7.28e-05	224.312000036
1730.0	7.3e-05	224.358999968
1730.0	7.33e-05	224.389999866
1730.0	7.33e-05	224.437000036
1730.0	7.38e-05	224.483999968
1730.0	7.33e-05	224.514999866
1730.0	7.38e-05	224.562000036
1730.0	7.38e-05	224.592999935
1730.0	7.3e-05	224.639999866
1730.0	7.3e-05	224.687000036
1730.0	7.28e-05	224.717999935
1730.0	7.3e-05	224.764999866
1730.0	7.33e-05	224.812000036
1730.0	7.3e-05	224.842999935
1730.0	7.3e-05	224.889999866
1730.0	7.38e-05	224.937000036
1730.0	7.33e-05	224.967999935
1730.0	7.33e-05	225.014999866
1730.0	7.33e-05	225.062000036
1730.0	7.33e-05	225.092999935
1730.0	7.33e-05	225.139999866
1730.0	7.38e-05	225.187000036
1730.0	7.33e-05	225.217999935
1730.0	7.38e-05	225.264999866
1740.0	7.05e-05	225.546000004
1740.0	6.93e-05	225.592999935
1740.0	6.88e-05	225.639999866
1740.0	6.78e-05	225.671000004
1740.0	6.68e-05	225.717999935
1740.0	6.68e-05	225.764999866
1740.0	6.63e-05	225.796000004
1740.0	6.55e-05	225.842999935
1740.0	6.53e-05	225.875
1740.0	6.5e-05	225.921000004
1740.0	6.53e-05	225.967999935
1740.0	6.55e-05	226.0
1740.0	6.55e-05	226.046000004
1740.0	6.58e-05	226.092999935
1740.0	6.58e-05	226.125
1740.0	6.63e-05	226.171000004
1740.0	6.63e-05	226.217999935
1740.0	6.58e-05	226.25
1740.0	6.58e-05	226.296000004
1740.0	6.58e-05	226.328000069
1740.0	6.63e-05	226.375
1740.0	6.58e-05	226.421000004
1740.0	6.58e-05	226.453000069
1740.0	6.55e-05	226.5
1740.0	6.55e-05	226.546000004
1740.0	6.55e-05	226.578000069
1740.0	6.55e-05	226.625
1740.0	6.5e-05	226.655999899
1740.0	6.5e-05	226.703000069
1740.0	6.53e-05	226.75
1740.0	6.53e-05	226.780999899
1740.0	6.55e-05	226.828000069
1740.0	6.55e-05	226.875
1740.0	6.55e-05	226.905999899
1740.0	6.63e-05	226.953000069
1740.0	6.55e-05	227.0
1740.0	6.55e-05	227.030999899
1750.0	6.3e-05	227.328000069
1750.0	6.2e-05	227.358999968
1750.0	6.13e-05	227.405999899
1750.0	6.05e-05	227.437000036
1750.0	6.05e-05	227.483999968
1750.0	6.13e-05	227.530999899
1750.0	6.13e-05	227.562000036
1750.0	6.13e-05	227.608999968
1750.0	6.13e-05	227.639999866
1750.0	6.13e-05	227.687000036
1750.0	6.15e-05	227.733999968
1750.0	6.08e-05	227.764999866
1750.0	6.05e-05	227.812000036
1750.0	6e-05	227.858999968
1750.0	6e-05	227.889999866
1750.0	5.95e-05	227.937000036
1750.0	5.93e-05	227.983999968
1750.0	5.95e-05	228.014999866
1750.0	6e-05	228.062000036
1750.0	6.03e-05	228.092999935
1750.0	6e-05	228.139999866
1750.0	6e-05	228.187000036
1750.0	6.03e-05	228.217999935
1750.0	6.03e-05	228.264999866
1750.0	6.03e-05	228.312000036
1750.0	6.03e-05	228.342999935
1750.0	6e-05	228.389999866
1750.0	5.95e-05	228.437000036
1750.0	5.95e-05	228.467999935
1750.0	6.03e-05	228.514999866
1750.0	6.03e-05	228.562000036
1750.0	6e-05	228.592999935
1750.0	6e-05	228.639999866
1750.0	6.05e-05	228.687000036
1750.0	6.03e-05	228.717999935
1750.0	6e-05	228.764999866
1750.0	6e-05	228.796000004
1760.0	5.8e-05	229.092999935
1760.0	5.75e-05	229.125
1760.0	5.7e-05	229.171000004
1760.0	5.65e-05	229.217999935
1760.0	5.63e-05	229.25
1760.0	5.58e-05	229.296000004
1760.0	5.5e-05	229.342999935
1760.0	5.43e-05	229.375
1760.0	5.43e-05	229.421000004
1760.0	5.45e-05	229.453000069
1760.0	5.45e-05	229.5
1760.0	5.43e-05	229.546000004
1760.0	5.45e-05	229.578000069
1760.0	5.5e-05	229.625
1760.0	5.53e-05	229.671000004
1760.0	5.53e-05	229.703000069
1760.0	5.5e-05	229.75
1760.0	5.5e-05	229.780999899
1760.0	5.5e-05	229.828000069
1760.0	5.53e-05	229.875
1760.0	5.53e-05	229.905999899
1760.0	5.45e-05	229.953000069
1760.0	5.45e-05	230.0
1760.0	5.45e-05	230.030999899
1760.0	5.5e-05	230.078000069
1760.0	5.5e-05	230.125
1760.0	5.45e-05	230.155999899
1760.0	5.45e-05	230.203000069
1760.0	5.45e-05	230.233999968
1760.0	5.45e-05	230.280999899
1760.0	5.45e-05	230.328000069
1760.0	5.45e-05	230.358999968
1760.0	5.53e-05	230.405999899
1760.0	5.5e-05	230.453000069
1760.0	5.45e-05	230.483999968
1760.0	5.43e-05	230.530999899
1760.0	5.45e-05	230.562000036
1770.0	5.2e-05	230.858999968
1770.0	5.18e-05	230.889999866
1770.0	5.13e-05	230.937000036
1770.0	5.05e-05	230.983999968
1770.0	5.05e-05	231.014999866
1770.0	5e-05	231.062000036
1770.0	4.93e-05	231.108999968
1770.0	4.93e-05	231.139999866
1770.0	4.95e-05	231.187000036
1770.0	4.93e-05	231.217999935
1770.0	4.93e-05	231.264999866
1770.0	4.9e-05	231.312000036
1770.0	4.9e-05	231.342999935
1770.0	4.93e-05	231.389999866
1770.0	4.93e-05	231.437000036
1770.0	4.93e-05	231.467999935
1770.0	4.93e-05	231.514999866
1770.0	4.93e-05	231.562000036
1770.0	4.95e-05	231.592999935
1770.0	4.95e-05	231.639999866
1770.0	4.93e-05	231.687000036
1770.0	4.93e-05	231.717999935
1770.0	4.9e-05	231.764999866
1770.0	4.9e-05	231.812000036
1770.0	4.88e-05	231.842999935
1770.0	4.83e-05	231.889999866
1770.0	4.83e-05	231.937000036
1770.0	4.83e-05	231.967999935
1770.0	4.88e-05	232.014999866
1770.0	4.9e-05	232.062000036
1770.0	4.93e-05	232.092999935
1770.0	4.93e-05	232.139999866
1770.0	4.95e-05	232.171000004
1770.0	5e-05	232.217999935
1770.0	5e-05	232.264999866
1770.0	4.95e-05	232.296000004
1770.0	4.93e-05	232.342999935
1780.0	4.8e-05	232.625
1780.0	4.68e-05	232.671000004
1780.0	4.63e-05	232.717999935
1780.0	4.58e-05	232.75
1780.0	4.55e-05	232.796000004
1780.0	4.53e-05	232.842999935
1780.0	4.5e-05	232.875
1780.0	4.45e-05	232.921000004
1780.0	4.53e-05	232.953000069
1780.0	4.53e-05	233.0
1780.0	4.55e-05	233.046000004
1780.0	4.55e-05	233.092999935
1780.0	4.53e-05	233.139999866
1780.0	4.5e-05	233.171000004
1780.0	4.45e-05	233.217999935
1780.0	4.45e-05	233.264999866
1780.0	4.53e-05	233.296000004
1780.0	4.53e-05	233.342999935
1780.0	4.53e-05	233.375
1780.0	4.5e-05	233.421000004
1780.0	4.5e-05	233.467999935
1780.0	4.5e-05	233.5
1780.0	4.45e-05	233.546000004
1780.0	4.45e-05	233.592999935
1780.0	4.5e-05	233.625
1780.0	4.5e-05	233.671000004
1780.0	4.5e-05	233.717999935
1780.0	4.45e-05	233.75
1780.0	4.45e-05	233.796000004
1780.0	4.45e-05	233.828000069
1780.0	4.5e-05	233.875
1780.0	4.5e-05	233.921000004
1780.0	4.5e-05	233.953000069
1780.0	4.53e-05	234.0
1780.0	4.53e-05	234.046000004
1780.0	4.53e-05	234.078000069
1780.0	4.5e-05	234.125
1790.0	4.3e-05	234.405999899
1790.0	4.28e-05	234.453000069
1790.0	4.18e-05	234.483999968
1790.0	4.15e-05	234.530999899
1790.0	4.15e-05	234.578000069
1790.0	4.15e-05	234.608999968
1790.0	4.15e-05	234.655999899
1790.0	4.08e-05	234.703000069
1790.0	4.05e-05	234.733999968
1790.0	4.03e-05	234.780999899
1790.0	4.03e-05	234.812000036
1790.0	4e-05	234.858999968
1790.0	4.03e-05	234.905999899
1790.0	4.05e-05	234.937000036
1790.0	4.05e-05	234.983999968
1790.0	4.03e-05	235.030999899
1790.0	4e-05	235.062000036
1790.0	3.95e-05	235.108999968
1790.0	3.93e-05	235.155999899
1790.0	3.93e-05	235.187000036
1790.0	3.93e-05	235.233999968
1790.0	3.9e-05	235.264999866
1790.0	3.9e-05	235.312000036
1790.0	3.9e-05	235.358999968
1790.0	3.95e-05	235.389999866
1790.0	4e-05	235.437000036
1790.0	4e-05	235.483999968
1790.0	4e-05	235.514999866
1790.0	4.03e-05	235.562000036
1790.0	4.05e-05	235.592999935
1790.0	4.08e-05	235.639999866
1790.0	4.05e-05	235.687000036
1790.0	4.03e-05	235.717999935
1790.0	4.03e-05	235.764999866
1790.0	4e-05	235.812000036
1790.0	3.93e-05	235.842999935
1790.0	3.93e-05	235.889999866
1800.0	3.8e-05	236.171000004
1800.0	3.78e-05	236.217999935
1800.0	3.75e-05	236.264999866
1800.0	3.68e-05	236.296000004
1800.0	3.68e-05	236.342999935
1800.0	3.65e-05	236.389999866
1800.0	3.63e-05	236.421000004
1800.0	3.55e-05	236.467999935
1800.0	3.53e-05	236.514999866
1800.0	3.55e-05	236.546000004
1800.0	3.55e-05	236.592999935
1800.0	3.53e-05	236.625
1800.0	3.5e-05	236.671000004
1800.0	3.5e-05	236.717999935
1800.0	3.5e-05	236.75
1800.0	3.5e-05	236.796000004
1800.0	3.45e-05	236.842999935
1800.0	3.4e-05	236.875
1800.0	3.4e-05	236.921000004
1800.0	3.43e-05	236.953000069
1800.0	3.43e-05	237.0
1800.0	3.45e-05	237.046000004
1800.0	3.5e-05	237.078000069
1800.0	3.53e-05	237.125
1800.0	3.53e-05	237.171000004
1800.0	3.53e-05	237.203000069
1800.0	3.53e-05	237.25
1800.0	3.53e-05	237.280999899
1800.0	3.53e-05	237.328000069
1800.0	3.55e-05	237.375
1800.0	3.53e-05	237.405999899
1800.0	3.53e-05	237.453000069
1800.0	3.55e-05	237.5
1800.0	3.55e-05	237.530999899
1800.0	3.53e-05	237.578000069
1800.0	3.5e-05	237.625
1800.0	3.5e-05	237.655999899
