Your edit line - do NOT delete this line
Wavelength [nm], Voltage [V], Elapsed time [s]
600.0	9e-06	22.0620000362
600.0	8.8e-06	22.1089999676
600.0	8.8e-06	22.1400001049
600.0	8.3e-06	22.1870000362
600.0	8e-06	22.2190001011
600.0	8e-06	22.2650001049
600.0	7.8e-06	22.3120000362
600.0	8e-06	22.3440001011
600.0	7.8e-06	22.3900001049
600.0	8e-06	22.4370000362
600.0	8.3e-06	22.4690001011
600.0	8.8e-06	22.5150001049
600.0	8.8e-06	22.5620000362
600.0	8.8e-06	22.5940001011
600.0	8.3e-06	22.6400001049
600.0	8e-06	22.6720001698
600.0	8e-06	22.7190001011
600.0	7.8e-06	22.7650001049
600.0	7.5e-06	22.7970001698
600.0	7e-06	22.8440001011
600.0	7e-06	22.8900001049
600.0	7.5e-06	22.9220001698
600.0	7.5e-06	22.9690001011
600.0	7.5e-06	23.0
600.0	7.8e-06	23.0470001698
600.0	8e-06	23.0940001011
600.0	8.3e-06	23.125
600.0	8.3e-06	23.1720001698
600.0	8.3e-06	23.2190001011
600.0	8.8e-06	23.25
600.0	9e-06	23.2970001698
600.0	9e-06	23.3440001011
600.0	9.3e-06	23.375
600.0	9.3e-06	23.4220001698
600.0	9.5e-06	23.4690001011
600.0	1e-05	23.5
600.0	9.5e-06	23.5470001698
610.0	9e-06	24.0940001011
610.0	8.8e-06	24.125
610.0	8.8e-06	24.1720001698
610.0	8.3e-06	24.2030000687
610.0	8.3e-06	24.25
610.0	8.3e-06	24.2970001698
610.0	8.3e-06	24.3280000687
610.0	8.8e-06	24.375
610.0	9e-06	24.4220001698
610.0	9e-06	24.4530000687
610.0	9.3e-06	24.5
610.0	9.3e-06	24.5470001698
610.0	9e-06	24.5780000687
610.0	9e-06	24.625
610.0	9e-06	24.6720001698
610.0	8.8e-06	24.7030000687
610.0	8.8e-06	24.75
610.0	8.3e-06	24.7970001698
610.0	8e-06	24.8280000687
610.0	8.3e-06	24.875
610.0	8e-06	24.9220001698
610.0	8e-06	24.9530000687
610.0	8e-06	25.0
610.0	8e-06	25.0470001698
610.0	8e-06	25.0780000687
610.0	8e-06	25.125
610.0	8e-06	25.1560001373
610.0	8e-06	25.2030000687
610.0	8.3e-06	25.25
610.0	8.8e-06	25.2810001373
610.0	9e-06	25.3280000687
610.0	9e-06	25.375
610.0	9e-06	25.4060001373
610.0	9e-06	25.4530000687
610.0	8.8e-06	25.5
610.0	9e-06	25.5310001373
610.0	8.8e-06	25.5780000687
620.0	9e-06	26.0940001011
620.0	9e-06	26.1400001049
620.0	9e-06	26.1720001698
620.0	9e-06	26.2190001011
620.0	9.3e-06	26.2650001049
620.0	9e-06	26.2970001698
620.0	8.8e-06	26.3440001011
620.0	8.8e-06	26.3900001049
620.0	8.8e-06	26.4220001698
620.0	9e-06	26.4690001011
620.0	8.8e-06	26.5
620.0	8.8e-06	26.5470001698
620.0	8.8e-06	26.5940001011
620.0	9e-06	26.625
620.0	9.3e-06	26.6720001698
620.0	9.3e-06	26.7190001011
620.0	9.3e-06	26.75
620.0	9.3e-06	26.7970001698
620.0	9e-06	26.8280000687
620.0	8.8e-06	26.875
620.0	8.8e-06	26.9220001698
620.0	8.8e-06	26.9530000687
620.0	9e-06	27.0
620.0	9e-06	27.0470001698
620.0	9.3e-06	27.0780000687
620.0	9.3e-06	27.125
620.0	9.5e-06	27.1560001373
620.0	1e-05	27.2030000687
620.0	9.5e-06	27.25
620.0	9.5e-06	27.2810001373
620.0	9.5e-06	27.3280000687
620.0	9.5e-06	27.375
620.0	9.5e-06	27.4060001373
620.0	1e-05	27.4530000687
620.0	9.5e-06	27.5
620.0	9.5e-06	27.5310001373
620.0	9.5e-06	27.5780000687
630.0	9e-06	28.0780000687
630.0	9.3e-06	28.1089999676
630.0	9.5e-06	28.1560001373
630.0	1e-05	28.1870000362
630.0	1.03e-05	28.2339999676
630.0	1.03e-05	28.2810001373
630.0	1e-05	28.3120000362
630.0	1e-05	28.3589999676
630.0	9.5e-06	28.4060001373
630.0	9.5e-06	28.4370000362
630.0	9.5e-06	28.4839999676
630.0	1e-05	28.5310001373
630.0	1.03e-05	28.5620000362
630.0	1.03e-05	28.6089999676
630.0	1.03e-05	28.6400001049
630.0	1.03e-05	28.6870000362
630.0	1.03e-05	28.7339999676
630.0	1.03e-05	28.7650001049
630.0	1.03e-05	28.8120000362
630.0	1.05e-05	28.8440001011
630.0	1.03e-05	28.8900001049
630.0	1.03e-05	28.9370000362
630.0	1.03e-05	28.9690001011
630.0	1e-05	29.0150001049
630.0	1.03e-05	29.0620000362
630.0	1e-05	29.0940001011
630.0	1.03e-05	29.1400001049
630.0	1.03e-05	29.1870000362
630.0	1.03e-05	29.2190001011
630.0	1.05e-05	29.2650001049
630.0	1.03e-05	29.2970001698
630.0	1.03e-05	29.3440001011
630.0	1.03e-05	29.3900001049
630.0	1.03e-05	29.4220001698
630.0	1e-05	29.4690001011
630.0	1.03e-05	29.5150001049
630.0	1e-05	29.5470001698
640.0	1.08e-05	30.0310001373
640.0	1.13e-05	30.0780000687
640.0	1.05e-05	30.125
640.0	1.03e-05	30.1720001698
640.0	1.03e-05	30.2030000687
640.0	1.03e-05	30.25
640.0	1.05e-05	30.2970001698
640.0	1.05e-05	30.3280000687
640.0	1e-05	30.375
640.0	9.5e-06	30.4060001373
640.0	9.3e-06	30.4530000687
640.0	9.5e-06	30.5
640.0	1e-05	30.5310001373
640.0	9.5e-06	30.5780000687
640.0	1.03e-05	30.625
640.0	1.03e-05	30.6560001373
640.0	1.03e-05	30.7030000687
640.0	1.05e-05	30.7339999676
640.0	1.08e-05	30.7810001373
640.0	1.08e-05	30.8280000687
640.0	1.08e-05	30.8589999676
640.0	1.08e-05	30.9060001373
640.0	1.05e-05	30.9530000687
640.0	1.05e-05	30.9839999676
640.0	1.03e-05	31.0310001373
640.0	1.05e-05	31.0620000362
640.0	1.08e-05	31.1089999676
640.0	1.05e-05	31.1560001373
640.0	1.05e-05	31.1870000362
640.0	1.03e-05	31.2339999676
640.0	1.05e-05	31.2810001373
640.0	1.05e-05	31.3120000362
640.0	1.03e-05	31.3589999676
640.0	1.03e-05	31.4060001373
640.0	1.03e-05	31.4370000362
640.0	1.05e-05	31.4839999676
650.0	1.18e-05	31.9530000687
650.0	1.18e-05	32.0
650.0	1.2e-05	32.0470001698
650.0	1.2e-05	32.0780000687
650.0	1.25e-05	32.125
650.0	1.2e-05	32.1720001698
650.0	1.18e-05	32.2030000687
650.0	1.18e-05	32.25
650.0	1.2e-05	32.2970001698
650.0	1.25e-05	32.3280000687
650.0	1.25e-05	32.375
650.0	1.2e-05	32.4220001698
650.0	1.18e-05	32.4530000687
650.0	1.15e-05	32.5
650.0	1.15e-05	32.5470001698
650.0	1.18e-05	32.5780000687
650.0	1.15e-05	32.625
650.0	1.15e-05	32.6560001373
650.0	1.13e-05	32.7030000687
650.0	1.13e-05	32.75
650.0	1.13e-05	32.7810001373
650.0	1.15e-05	32.8280000687
650.0	1.18e-05	32.875
650.0	1.18e-05	32.9060001373
650.0	1.15e-05	32.9530000687
650.0	1.18e-05	32.9839999676
650.0	1.18e-05	33.0310001373
650.0	1.18e-05	33.0780000687
650.0	1.2e-05	33.1089999676
650.0	1.2e-05	33.1560001373
650.0	1.2e-05	33.2030000687
650.0	1.18e-05	33.25
650.0	1.15e-05	33.2810001373
650.0	1.15e-05	33.3280000687
650.0	1.15e-05	33.3589999676
650.0	1.13e-05	33.4060001373
650.0	1.15e-05	33.4530000687
660.0	1.28e-05	33.9220001698
660.0	1.25e-05	33.9530000687
660.0	1.2e-05	34.0
660.0	1.2e-05	34.0470001698
660.0	1.18e-05	34.0780000687
660.0	1.2e-05	34.125
660.0	1.2e-05	34.1560001373
660.0	1.25e-05	34.2030000687
660.0	1.25e-05	34.25
660.0	1.25e-05	34.2810001373
660.0	1.2e-05	34.3280000687
660.0	1.18e-05	34.375
660.0	1.2e-05	34.4060001373
660.0	1.25e-05	34.4530000687
660.0	1.25e-05	34.4839999676
660.0	1.25e-05	34.5310001373
660.0	1.2e-05	34.5780000687
660.0	1.2e-05	34.6089999676
660.0	1.2e-05	34.6560001373
660.0	1.2e-05	34.7030000687
660.0	1.2e-05	34.7339999676
660.0	1.2e-05	34.7810001373
660.0	1.28e-05	34.8120000362
660.0	1.3e-05	34.8589999676
660.0	1.28e-05	34.9060001373
660.0	1.25e-05	34.9370000362
660.0	1.28e-05	34.9839999676
660.0	1.28e-05	35.0310001373
660.0	1.3e-05	35.0620000362
660.0	1.3e-05	35.1089999676
660.0	1.3e-05	35.1560001373
660.0	1.3e-05	35.1870000362
660.0	1.33e-05	35.2339999676
660.0	1.3e-05	35.2650001049
660.0	1.28e-05	35.3120000362
660.0	1.28e-05	35.3589999676
660.0	1.28e-05	35.3900001049
670.0	1.38e-05	35.8440001011
670.0	1.38e-05	35.8900001049
670.0	1.38e-05	35.9370000362
670.0	1.38e-05	35.9690001011
670.0	1.38e-05	36.0150001049
670.0	1.4e-05	36.0620000362
670.0	1.38e-05	36.0940001011
670.0	1.38e-05	36.1400001049
670.0	1.4e-05	36.1720001698
670.0	1.4e-05	36.2190001011
670.0	1.38e-05	36.2650001049
670.0	1.38e-05	36.2970001698
670.0	1.4e-05	36.3440001011
670.0	1.4e-05	36.3900001049
670.0	1.43e-05	36.4220001698
670.0	1.4e-05	36.4690001011
670.0	1.4e-05	36.5
670.0	1.4e-05	36.5470001698
670.0	1.45e-05	36.5940001011
670.0	1.45e-05	36.625
670.0	1.45e-05	36.6720001698
670.0	1.5e-05	36.7190001011
670.0	1.5e-05	36.75
670.0	1.45e-05	36.7970001698
670.0	1.45e-05	36.8440001011
670.0	1.45e-05	36.875
670.0	1.5e-05	36.9220001698
670.0	1.53e-05	36.9530000687
670.0	1.5e-05	37.0
670.0	1.5e-05	37.0470001698
670.0	1.5e-05	37.0780000687
670.0	1.45e-05	37.125
670.0	1.45e-05	37.1720001698
670.0	1.43e-05	37.2030000687
670.0	1.43e-05	37.25
670.0	1.43e-05	37.2970001698
670.0	1.45e-05	37.3280000687
680.0	1.53e-05	37.7650001049
680.0	1.5e-05	37.8120000362
680.0	1.53e-05	37.8589999676
680.0	1.55e-05	37.8900001049
680.0	1.55e-05	37.9370000362
680.0	1.58e-05	37.9839999676
680.0	1.63e-05	38.0150001049
680.0	1.63e-05	38.0620000362
680.0	1.63e-05	38.0940001011
680.0	1.58e-05	38.1400001049
680.0	1.63e-05	38.1870000362
680.0	1.58e-05	38.2190001011
680.0	1.55e-05	38.2650001049
680.0	1.58e-05	38.3120000362
680.0	1.58e-05	38.3440001011
680.0	1.58e-05	38.3900001049
680.0	1.58e-05	38.4220001698
680.0	1.58e-05	38.4690001011
680.0	1.58e-05	38.5150001049
680.0	1.58e-05	38.5470001698
680.0	1.63e-05	38.5940001011
680.0	1.63e-05	38.6400001049
680.0	1.63e-05	38.6720001698
680.0	1.65e-05	38.7190001011
680.0	1.68e-05	38.7650001049
680.0	1.65e-05	38.7970001698
680.0	1.63e-05	38.8440001011
680.0	1.65e-05	38.8900001049
680.0	1.63e-05	38.9220001698
680.0	1.63e-05	38.9690001011
680.0	1.63e-05	39.0150001049
680.0	1.65e-05	39.0470001698
680.0	1.65e-05	39.0940001011
680.0	1.63e-05	39.125
680.0	1.58e-05	39.1720001698
680.0	1.58e-05	39.2190001011
680.0	1.58e-05	39.25
690.0	1.78e-05	39.6720001698
690.0	1.78e-05	39.7190001011
690.0	1.8e-05	39.75
690.0	1.8e-05	39.7970001698
690.0	1.8e-05	39.8440001011
690.0	1.83e-05	39.875
690.0	1.83e-05	39.9220001698
690.0	1.8e-05	39.9690001011
690.0	1.8e-05	40.0
690.0	1.8e-05	40.0470001698
690.0	1.8e-05	40.0780000687
690.0	1.8e-05	40.125
690.0	1.8e-05	40.1720001698
690.0	1.78e-05	40.2030000687
690.0	1.8e-05	40.25
690.0	1.8e-05	40.2970001698
690.0	1.83e-05	40.3280000687
690.0	1.9e-05	40.375
690.0	1.9e-05	40.4060001373
690.0	1.9e-05	40.4530000687
690.0	1.9e-05	40.5
690.0	1.88e-05	40.5310001373
690.0	1.9e-05	40.5780000687
690.0	1.9e-05	40.625
690.0	1.88e-05	40.6560001373
690.0	1.83e-05	40.7030000687
690.0	1.8e-05	40.75
690.0	1.78e-05	40.7810001373
690.0	1.75e-05	40.8280000687
690.0	1.7e-05	40.875
690.0	1.7e-05	40.9060001373
690.0	1.68e-05	40.9530000687
690.0	1.68e-05	41.0
690.0	1.68e-05	41.0310001373
690.0	1.7e-05	41.0780000687
690.0	1.75e-05	41.1089999676
690.0	1.78e-05	41.1560001373
700.0	1.88e-05	41.5620000362
700.0	1.9e-05	41.6089999676
700.0	1.93e-05	41.6560001373
700.0	1.95e-05	41.7030000687
700.0	2e-05	41.7339999676
700.0	2.03e-05	41.7810001373
700.0	2.03e-05	41.8120000362
700.0	2.03e-05	41.8589999676
700.0	2.05e-05	41.9060001373
700.0	2.05e-05	41.9370000362
700.0	2.05e-05	41.9839999676
700.0	2.05e-05	42.0310001373
700.0	2.05e-05	42.0620000362
700.0	2.03e-05	42.1089999676
700.0	2e-05	42.1400001049
700.0	2e-05	42.1870000362
700.0	2e-05	42.2339999676
700.0	2e-05	42.2650001049
700.0	2.03e-05	42.3120000362
700.0	2e-05	42.3589999676
700.0	2.03e-05	42.3900001049
700.0	2.03e-05	42.4370000362
700.0	2.03e-05	42.4690001011
700.0	2.03e-05	42.5150001049
700.0	2.03e-05	42.5620000362
700.0	2.05e-05	42.5940001011
700.0	2.05e-05	42.6400001049
700.0	2.05e-05	42.6870000362
700.0	2.05e-05	42.7190001011
700.0	2.03e-05	42.7650001049
700.0	2e-05	42.7970001698
700.0	2e-05	42.8440001011
700.0	1.95e-05	42.8900001049
700.0	2e-05	42.9370000362
700.0	2.05e-05	42.9690001011
700.0	2.05e-05	43.0150001049
700.0	2.08e-05	43.0470001698
710.0	2.15e-05	43.4690001011
710.0	2.2e-05	43.5
710.0	2.25e-05	43.5470001698
710.0	2.25e-05	43.5940001011
710.0	2.25e-05	43.625
710.0	2.25e-05	43.6720001698
710.0	2.25e-05	43.7190001011
710.0	2.25e-05	43.75
710.0	2.2e-05	43.7970001698
710.0	2.2e-05	43.8280000687
710.0	2.18e-05	43.875
710.0	2.13e-05	43.9220001698
710.0	2.13e-05	43.9530000687
710.0	2.13e-05	44.0
710.0	2.15e-05	44.0470001698
710.0	2.18e-05	44.0780000687
710.0	2.18e-05	44.125
710.0	2.15e-05	44.1560001373
710.0	2.18e-05	44.2030000687
710.0	2.18e-05	44.25
710.0	2.25e-05	44.2810001373
710.0	2.25e-05	44.3280000687
710.0	2.28e-05	44.375
710.0	2.3e-05	44.4060001373
710.0	2.3e-05	44.4530000687
710.0	2.3e-05	44.5
710.0	2.3e-05	44.5310001373
710.0	2.3e-05	44.5780000687
710.0	2.3e-05	44.6089999676
710.0	2.3e-05	44.6560001373
710.0	2.28e-05	44.7030000687
710.0	2.28e-05	44.7339999676
710.0	2.28e-05	44.7810001373
710.0	2.25e-05	44.8280000687
710.0	2.2e-05	44.8589999676
710.0	2.18e-05	44.9060001373
710.0	2.18e-05	44.9370000362
720.0	2.45e-05	45.3440001011
720.0	2.45e-05	45.3900001049
720.0	2.5e-05	45.4370000362
720.0	2.5e-05	45.4690001011
720.0	2.5e-05	45.5150001049
720.0	2.5e-05	45.5620000362
720.0	2.5e-05	45.5940001011
720.0	2.45e-05	45.6400001049
720.0	2.5e-05	45.6720001698
720.0	2.5e-05	45.7190001011
720.0	2.53e-05	45.7650001049
720.0	2.53e-05	45.7970001698
720.0	2.53e-05	45.8440001011
720.0	2.55e-05	45.8900001049
720.0	2.53e-05	45.9220001698
720.0	2.5e-05	45.9690001011
720.0	2.5e-05	46.0
720.0	2.45e-05	46.0470001698
720.0	2.45e-05	46.0940001011
720.0	2.5e-05	46.125
720.0	2.45e-05	46.1720001698
720.0	2.45e-05	46.2190001011
720.0	2.43e-05	46.25
720.0	2.43e-05	46.2970001698
720.0	2.45e-05	46.3440001011
720.0	2.5e-05	46.375
720.0	2.5e-05	46.4220001698
720.0	2.53e-05	46.4530000687
720.0	2.5e-05	46.5
720.0	2.5e-05	46.5470001698
720.0	2.5e-05	46.5780000687
720.0	2.5e-05	46.625
720.0	2.5e-05	46.6720001698
720.0	2.5e-05	46.7030000687
720.0	2.5e-05	46.75
720.0	2.53e-05	46.7970001698
720.0	2.53e-05	46.8280000687
730.0	2.65e-05	47.2339999676
730.0	2.65e-05	47.2650001049
730.0	2.65e-05	47.3120000362
730.0	2.7e-05	47.3589999676
730.0	2.75e-05	47.3900001049
730.0	2.7e-05	47.4370000362
730.0	2.7e-05	47.4839999676
730.0	2.75e-05	47.5150001049
730.0	2.78e-05	47.5620000362
730.0	2.8e-05	47.5940001011
730.0	2.8e-05	47.6400001049
730.0	2.8e-05	47.6870000362
730.0	2.8e-05	47.7190001011
730.0	2.8e-05	47.7650001049
730.0	2.8e-05	47.8120000362
730.0	2.8e-05	47.8440001011
730.0	2.8e-05	47.8900001049
730.0	2.8e-05	47.9220001698
730.0	2.75e-05	47.9690001011
730.0	2.7e-05	48.0150001049
730.0	2.75e-05	48.0470001698
730.0	2.75e-05	48.0940001011
730.0	2.75e-05	48.1400001049
730.0	2.7e-05	48.1720001698
730.0	2.7e-05	48.2190001011
730.0	2.7e-05	48.2650001049
730.0	2.7e-05	48.2970001698
730.0	2.7e-05	48.3440001011
730.0	2.7e-05	48.375
730.0	2.7e-05	48.4220001698
730.0	2.78e-05	48.4690001011
730.0	2.8e-05	48.5
730.0	2.8e-05	48.5470001698
730.0	2.8e-05	48.5940001011
730.0	2.8e-05	48.625
730.0	2.8e-05	48.6720001698
730.0	2.8e-05	48.7030000687
740.0	2.83e-05	49.1089999676
740.0	2.9e-05	49.1400001049
740.0	2.93e-05	49.1870000362
740.0	2.93e-05	49.2339999676
740.0	2.93e-05	49.2650001049
740.0	2.93e-05	49.3120000362
740.0	2.9e-05	49.3440001011
740.0	2.9e-05	49.3900001049
740.0	2.9e-05	49.4370000362
740.0	2.93e-05	49.4690001011
740.0	2.93e-05	49.5150001049
740.0	2.93e-05	49.5620000362
740.0	2.93e-05	49.5940001011
740.0	2.95e-05	49.6400001049
740.0	2.95e-05	49.6720001698
740.0	2.95e-05	49.7190001011
740.0	2.95e-05	49.7650001049
740.0	2.93e-05	49.7970001698
740.0	2.93e-05	49.8440001011
740.0	2.93e-05	49.8900001049
740.0	2.95e-05	49.9370000362
740.0	2.93e-05	49.9690001011
740.0	2.93e-05	50.0150001049
740.0	2.93e-05	50.0470001698
740.0	2.93e-05	50.0940001011
740.0	2.95e-05	50.1400001049
740.0	3e-05	50.1720001698
740.0	3.03e-05	50.2190001011
740.0	3.03e-05	50.2650001049
740.0	3.05e-05	50.2970001698
740.0	3.03e-05	50.3440001011
740.0	3e-05	50.375
740.0	2.95e-05	50.4220001698
740.0	2.9e-05	50.4690001011
740.0	2.93e-05	50.5
740.0	2.93e-05	50.5470001698
740.0	2.88e-05	50.5940001011
750.0	3.15e-05	50.9690001011
750.0	3.15e-05	51.0150001049
750.0	3.18e-05	51.0620000362
750.0	3.18e-05	51.0940001011
750.0	3.15e-05	51.1400001049
750.0	3.18e-05	51.1720001698
750.0	3.2e-05	51.2190001011
750.0	3.25e-05	51.2650001049
750.0	3.28e-05	51.2970001698
750.0	3.28e-05	51.3440001011
750.0	3.28e-05	51.3900001049
750.0	3.3e-05	51.4220001698
750.0	3.28e-05	51.4690001011
750.0	3.25e-05	51.5150001049
750.0	3.25e-05	51.5470001698
750.0	3.25e-05	51.5940001011
750.0	3.3e-05	51.6400001049
750.0	3.3e-05	51.6720001698
750.0	3.28e-05	51.7190001011
750.0	3.25e-05	51.75
750.0	3.25e-05	51.7970001698
750.0	3.25e-05	51.8440001011
750.0	3.25e-05	51.8900001049
750.0	3.25e-05	51.9220001698
750.0	3.28e-05	51.9690001011
750.0	3.28e-05	52.0
750.0	3.3e-05	52.0470001698
750.0	3.3e-05	52.0940001011
750.0	3.28e-05	52.125
750.0	3.25e-05	52.1720001698
750.0	3.25e-05	52.2190001011
750.0	3.28e-05	52.25
750.0	3.3e-05	52.2970001698
750.0	3.3e-05	52.3440001011
750.0	3.28e-05	52.375
750.0	3.3e-05	52.4220001698
750.0	3.28e-05	52.4530000687
760.0	3.4e-05	52.8280000687
760.0	3.5e-05	52.875
760.0	3.5e-05	52.9220001698
760.0	3.5e-05	52.9530000687
760.0	3.53e-05	53.0
760.0	3.55e-05	53.0470001698
760.0	3.55e-05	53.0780000687
760.0	3.53e-05	53.125
760.0	3.53e-05	53.1560001373
760.0	3.5e-05	53.2030000687
760.0	3.55e-05	53.25
760.0	3.58e-05	53.2810001373
760.0	3.58e-05	53.3280000687
760.0	3.58e-05	53.375
760.0	3.55e-05	53.4060001373
760.0	3.58e-05	53.4530000687
760.0	3.63e-05	53.4839999676
760.0	3.63e-05	53.5310001373
760.0	3.63e-05	53.5780000687
760.0	3.65e-05	53.6089999676
760.0	3.63e-05	53.6560001373
760.0	3.63e-05	53.7030000687
760.0	3.63e-05	53.7339999676
760.0	3.63e-05	53.7810001373
760.0	3.58e-05	53.8120000362
760.0	3.58e-05	53.8589999676
760.0	3.63e-05	53.9060001373
760.0	3.63e-05	53.9370000362
760.0	3.63e-05	53.9839999676
760.0	3.68e-05	54.0310001373
760.0	3.68e-05	54.0620000362
760.0	3.68e-05	54.1089999676
760.0	3.65e-05	54.1560001373
760.0	3.63e-05	54.1870000362
760.0	3.63e-05	54.2339999676
760.0	3.58e-05	54.2650001049
760.0	3.55e-05	54.3120000362
770.0	3.68e-05	54.6720001698
770.0	3.75e-05	54.7190001011
770.0	3.75e-05	54.75
770.0	3.75e-05	54.7970001698
770.0	3.78e-05	54.8440001011
770.0	3.83e-05	54.875
770.0	3.83e-05	54.9220001698
770.0	3.83e-05	54.9690001011
770.0	3.8e-05	55.0
770.0	3.8e-05	55.0470001698
770.0	3.8e-05	55.0780000687
770.0	3.8e-05	55.125
770.0	3.78e-05	55.1720001698
770.0	3.78e-05	55.2030000687
770.0	3.8e-05	55.25
770.0	3.83e-05	55.2970001698
770.0	3.8e-05	55.3280000687
770.0	3.83e-05	55.375
770.0	3.83e-05	55.4060001373
770.0	3.88e-05	55.4530000687
770.0	3.9e-05	55.5
770.0	3.9e-05	55.5310001373
770.0	3.9e-05	55.5780000687
770.0	3.9e-05	55.625
770.0	3.9e-05	55.6560001373
770.0	3.9e-05	55.7030000687
770.0	3.83e-05	55.7339999676
770.0	3.8e-05	55.7810001373
770.0	3.83e-05	55.8280000687
770.0	3.88e-05	55.8589999676
770.0	3.83e-05	55.9060001373
770.0	3.83e-05	55.9530000687
770.0	3.83e-05	55.9839999676
770.0	3.83e-05	56.0310001373
770.0	3.83e-05	56.0780000687
770.0	3.83e-05	56.1089999676
770.0	3.88e-05	56.1560001373
780.0	3.95e-05	56.5150001049
780.0	4.03e-05	56.5470001698
780.0	4.05e-05	56.5940001011
780.0	4.05e-05	56.6400001049
780.0	4.05e-05	56.6720001698
780.0	4.08e-05	56.7190001011
780.0	4.13e-05	56.7650001049
780.0	4.13e-05	56.7970001698
780.0	4.08e-05	56.8440001011
780.0	4.08e-05	56.8900001049
780.0	4.13e-05	56.9220001698
780.0	4.13e-05	56.9690001011
780.0	4.13e-05	57.0150001049
780.0	4.13e-05	57.0470001698
780.0	4.15e-05	57.0940001011
780.0	4.13e-05	57.1400001049
780.0	4.13e-05	57.1720001698
780.0	4.08e-05	57.2190001011
780.0	4.08e-05	57.25
780.0	4.08e-05	57.2970001698
780.0	4.13e-05	57.3440001011
780.0	4.08e-05	57.375
780.0	4.13e-05	57.4220001698
780.0	4.13e-05	57.4690001011
780.0	4.08e-05	57.5
780.0	4.08e-05	57.5470001698
780.0	4.05e-05	57.5940001011
780.0	4.05e-05	57.625
780.0	4.03e-05	57.6720001698
780.0	4.05e-05	57.7030000687
780.0	4.05e-05	57.75
780.0	4.08e-05	57.7970001698
780.0	4.13e-05	57.8280000687
780.0	4.13e-05	57.875
780.0	4.08e-05	57.9220001698
780.0	4.08e-05	57.9530000687
780.0	4.08e-05	58.0
790.0	4.25e-05	58.3440001011
790.0	4.28e-05	58.3900001049
790.0	4.3e-05	58.4220001698
790.0	4.33e-05	58.4690001011
790.0	4.38e-05	58.5150001049
790.0	4.4e-05	58.5470001698
790.0	4.4e-05	58.5940001011
790.0	4.43e-05	58.6400001049
790.0	4.45e-05	58.6720001698
790.0	4.43e-05	58.7190001011
790.0	4.43e-05	58.75
790.0	4.4e-05	58.7970001698
790.0	4.38e-05	58.8440001011
790.0	4.43e-05	58.875
790.0	4.43e-05	58.9220001698
790.0	4.4e-05	58.9690001011
790.0	4.43e-05	59.0
790.0	4.4e-05	59.0470001698
790.0	4.43e-05	59.0780000687
790.0	4.43e-05	59.125
790.0	4.43e-05	59.1720001698
790.0	4.4e-05	59.2030000687
790.0	4.4e-05	59.25
790.0	4.38e-05	59.2970001698
790.0	4.38e-05	59.3280000687
790.0	4.38e-05	59.375
790.0	4.33e-05	59.4060001373
790.0	4.38e-05	59.4530000687
790.0	4.33e-05	59.5
790.0	4.33e-05	59.5310001373
790.0	4.33e-05	59.5780000687
790.0	4.33e-05	59.625
790.0	4.38e-05	59.6560001373
790.0	4.38e-05	59.7030000687
790.0	4.38e-05	59.7339999676
790.0	4.38e-05	59.7810001373
790.0	4.4e-05	59.8280000687
800.0	4.53e-05	60.1720001698
800.0	4.63e-05	60.2030000687
800.0	4.65e-05	60.25
800.0	4.65e-05	60.2970001698
800.0	4.68e-05	60.3440001011
800.0	4.65e-05	60.375
800.0	4.58e-05	60.4220001698
800.0	4.63e-05	60.4690001011
800.0	4.68e-05	60.5
800.0	4.68e-05	60.5470001698
800.0	4.7e-05	60.5780000687
800.0	4.75e-05	60.625
800.0	4.75e-05	60.6720001698
800.0	4.75e-05	60.7030000687
800.0	4.75e-05	60.75
800.0	4.75e-05	60.7970001698
800.0	4.7e-05	60.8280000687
800.0	4.7e-05	60.875
800.0	4.75e-05	60.9220001698
800.0	4.78e-05	60.9530000687
800.0	4.8e-05	61.0
800.0	4.8e-05	61.0470001698
800.0	4.78e-05	61.0780000687
800.0	4.75e-05	61.125
800.0	4.7e-05	61.1560001373
800.0	4.7e-05	61.2030000687
800.0	4.75e-05	61.25
800.0	4.7e-05	61.2810001373
800.0	4.7e-05	61.3280000687
800.0	4.75e-05	61.375
800.0	4.78e-05	61.4060001373
800.0	4.78e-05	61.4530000687
800.0	4.8e-05	61.5
800.0	4.78e-05	61.5310001373
800.0	4.78e-05	61.5780000687
800.0	4.8e-05	61.625
810.0	4.9e-05	61.9530000687
810.0	4.93e-05	62.0
810.0	4.93e-05	62.0310001373
810.0	5e-05	62.0780000687
810.0	5.05e-05	62.125
810.0	5.05e-05	62.1560001373
810.0	5.08e-05	62.2030000687
810.0	5.08e-05	62.25
810.0	5.13e-05	62.2810001373
810.0	5.13e-05	62.3280000687
810.0	5.05e-05	62.3589999676
810.0	5.05e-05	62.4060001373
810.0	5.08e-05	62.4530000687
810.0	5.15e-05	62.4839999676
810.0	5.13e-05	62.5310001373
810.0	5.08e-05	62.5780000687
810.0	5.13e-05	62.625
810.0	5.15e-05	62.6560001373
810.0	5.18e-05	62.7030000687
810.0	5.2e-05	62.7339999676
810.0	5.2e-05	62.7810001373
810.0	5.25e-05	62.8280000687
810.0	5.25e-05	62.8589999676
810.0	5.2e-05	62.9060001373
810.0	5.18e-05	62.9530000687
810.0	5.18e-05	62.9839999676
810.0	5.18e-05	63.0310001373
810.0	5.2e-05	63.0620000362
810.0	5.2e-05	63.1089999676
810.0	5.2e-05	63.1560001373
810.0	5.18e-05	63.1870000362
810.0	5.15e-05	63.2339999676
810.0	5.18e-05	63.2810001373
810.0	5.2e-05	63.3120000362
810.0	5.18e-05	63.3589999676
810.0	5.18e-05	63.3900001049
810.0	5.2e-05	63.4370000362
820.0	5.43e-05	63.7650001049
820.0	5.43e-05	63.8120000362
820.0	5.45e-05	63.8589999676
820.0	5.5e-05	63.8900001049
820.0	5.5e-05	63.9370000362
820.0	5.5e-05	63.9690001011
820.0	5.55e-05	64.0150001049
820.0	5.63e-05	64.0620000362
820.0	5.65e-05	64.0940001011
820.0	5.63e-05	64.1400001049
820.0	5.63e-05	64.1870000362
820.0	5.63e-05	64.2190001011
820.0	5.65e-05	64.2650001049
820.0	5.63e-05	64.3120000362
820.0	5.58e-05	64.3440001011
820.0	5.55e-05	64.3900001049
820.0	5.55e-05	64.4220001698
820.0	5.58e-05	64.4690001011
820.0	5.63e-05	64.5150001049
820.0	5.58e-05	64.5470001698
820.0	5.58e-05	64.5940001011
820.0	5.58e-05	64.6400001049
820.0	5.63e-05	64.6720001698
820.0	5.63e-05	64.7190001011
820.0	5.58e-05	64.75
820.0	5.58e-05	64.7970001698
820.0	5.58e-05	64.8440001011
820.0	5.58e-05	64.8900001049
820.0	5.58e-05	64.9220001698
820.0	5.55e-05	64.9690001011
820.0	5.58e-05	65.0
820.0	5.58e-05	65.0470001698
820.0	5.58e-05	65.0940001011
820.0	5.58e-05	65.125
820.0	5.63e-05	65.1720001698
820.0	5.63e-05	65.2190001011
820.0	5.68e-05	65.25
830.0	5.8e-05	65.5940001011
830.0	5.88e-05	65.625
830.0	5.95e-05	65.6720001698
830.0	6.05e-05	65.7030000687
830.0	6.05e-05	65.75
830.0	6.05e-05	65.7970001698
830.0	6.05e-05	65.8440001011
830.0	6.03e-05	65.875
830.0	6.05e-05	65.9220001698
830.0	6.03e-05	65.9530000687
830.0	6.03e-05	66.0
830.0	6e-05	66.0470001698
830.0	6e-05	66.0780000687
830.0	6.03e-05	66.125
830.0	6.03e-05	66.1720001698
830.0	6e-05	66.2030000687
830.0	6.03e-05	66.25
830.0	6.05e-05	66.2970001698
830.0	6.08e-05	66.3280000687
830.0	6.08e-05	66.375
830.0	6.08e-05	66.4060001373
830.0	6.13e-05	66.4530000687
830.0	6.15e-05	66.5
830.0	6.18e-05	66.5310001373
830.0	6.18e-05	66.5780000687
830.0	6.15e-05	66.625
830.0	6.15e-05	66.6560001373
830.0	6.18e-05	66.7030000687
830.0	6.13e-05	66.7339999676
830.0	6.13e-05	66.7810001373
830.0	6.05e-05	66.8280000687
830.0	6.08e-05	66.8589999676
830.0	6.08e-05	66.9060001373
830.0	6.05e-05	66.9530000687
830.0	6.03e-05	66.9839999676
830.0	6.03e-05	67.0310001373
830.0	6.03e-05	67.0780000687
840.0	6.3e-05	67.4060001373
840.0	6.38e-05	67.4370000362
840.0	6.45e-05	67.4839999676
840.0	6.5e-05	67.5310001373
840.0	6.53e-05	67.5620000362
840.0	6.55e-05	67.6089999676
840.0	6.58e-05	67.6560001373
840.0	6.65e-05	67.6870000362
840.0	6.68e-05	67.7339999676
840.0	6.75e-05	67.7650001049
840.0	6.75e-05	67.8120000362
840.0	6.75e-05	67.8589999676
840.0	6.7e-05	67.8900001049
840.0	6.68e-05	67.9370000362
840.0	6.63e-05	67.9839999676
840.0	6.58e-05	68.0150001049
840.0	6.63e-05	68.0620000362
840.0	6.65e-05	68.0940001011
840.0	6.68e-05	68.1400001049
840.0	6.68e-05	68.1870000362
840.0	6.68e-05	68.2190001011
840.0	6.7e-05	68.2650001049
840.0	6.7e-05	68.3120000362
840.0	6.7e-05	68.3440001011
840.0	6.7e-05	68.3900001049
840.0	6.75e-05	68.4220001698
840.0	6.68e-05	68.4690001011
840.0	6.65e-05	68.5150001049
840.0	6.58e-05	68.5470001698
840.0	6.53e-05	68.5940001011
840.0	6.55e-05	68.6400001049
840.0	6.55e-05	68.6720001698
840.0	6.55e-05	68.7190001011
840.0	6.55e-05	68.7650001049
840.0	6.63e-05	68.7970001698
840.0	6.65e-05	68.8440001011
840.0	6.65e-05	68.875
850.0	6.93e-05	69.2030000687
850.0	6.95e-05	69.25
850.0	7.03e-05	69.2810001373
850.0	7.13e-05	69.3280000687
850.0	7.18e-05	69.3589999676
850.0	7.2e-05	69.4060001373
850.0	7.25e-05	69.4530000687
850.0	7.25e-05	69.4839999676
850.0	7.28e-05	69.5310001373
850.0	7.25e-05	69.5780000687
850.0	7.2e-05	69.6089999676
850.0	7.18e-05	69.6560001373
850.0	7.25e-05	69.7030000687
850.0	7.28e-05	69.7339999676
850.0	7.28e-05	69.7810001373
850.0	7.28e-05	69.8280000687
850.0	7.28e-05	69.8589999676
850.0	7.28e-05	69.9060001373
850.0	7.33e-05	69.9370000362
850.0	7.3e-05	69.9839999676
850.0	7.25e-05	70.0310001373
850.0	7.25e-05	70.0620000362
850.0	7.25e-05	70.1089999676
850.0	7.25e-05	70.1560001373
850.0	7.25e-05	70.1870000362
850.0	7.25e-05	70.2339999676
850.0	7.25e-05	70.2810001373
850.0	7.3e-05	70.3120000362
850.0	7.3e-05	70.3589999676
850.0	7.28e-05	70.3900001049
850.0	7.28e-05	70.4370000362
850.0	7.28e-05	70.4839999676
850.0	7.3e-05	70.5150001049
850.0	7.33e-05	70.5620000362
850.0	7.33e-05	70.5940001011
850.0	7.38e-05	70.6400001049
850.0	7.4e-05	70.6870000362
860.0	7.58e-05	71.0
860.0	7.68e-05	71.0470001698
860.0	7.78e-05	71.0940001011
860.0	7.88e-05	71.125
860.0	7.93e-05	71.1720001698
860.0	8e-05	71.2030000687
860.0	8.03e-05	71.25
860.0	8e-05	71.2970001698
860.0	8e-05	71.3280000687
860.0	8.03e-05	71.375
860.0	8.05e-05	71.4220001698
860.0	8.08e-05	71.4530000687
860.0	8.05e-05	71.5
860.0	8.13e-05	71.5470001698
860.0	8.05e-05	71.5780000687
860.0	8.08e-05	71.625
860.0	8.08e-05	71.6720001698
860.0	8.08e-05	71.7030000687
860.0	8.05e-05	71.75
860.0	8.08e-05	71.7810001373
860.0	8.08e-05	71.8280000687
860.0	8.13e-05	71.875
860.0	8.13e-05	71.9060001373
860.0	8.13e-05	71.9530000687
860.0	8.18e-05	72.0
860.0	8.18e-05	72.0310001373
860.0	8.13e-05	72.0780000687
860.0	8.13e-05	72.125
860.0	8.15e-05	72.1560001373
860.0	8.15e-05	72.2030000687
860.0	8.15e-05	72.2339999676
860.0	8.08e-05	72.2810001373
860.0	8.08e-05	72.3280000687
860.0	8.08e-05	72.375
860.0	8.05e-05	72.4060001373
860.0	8.08e-05	72.4530000687
860.0	8.05e-05	72.5
870.0	8.45e-05	72.8120000362
870.0	8.53e-05	72.8589999676
870.0	8.63e-05	72.8900001049
870.0	8.75e-05	72.9370000362
870.0	8.8e-05	72.9690001011
870.0	8.83e-05	73.0150001049
870.0	8.88e-05	73.0620000362
870.0	8.9e-05	73.0940001011
870.0	8.93e-05	73.1400001049
870.0	8.9e-05	73.1870000362
870.0	8.9e-05	73.2190001011
870.0	8.93e-05	73.2650001049
870.0	9e-05	73.2970001698
870.0	9e-05	73.3440001011
870.0	8.93e-05	73.3900001049
870.0	8.93e-05	73.4220001698
870.0	8.93e-05	73.4690001011
870.0	8.95e-05	73.5150001049
870.0	8.93e-05	73.5470001698
870.0	8.9e-05	73.5940001011
870.0	8.9e-05	73.6400001049
870.0	8.93e-05	73.6720001698
870.0	8.93e-05	73.7190001011
870.0	8.95e-05	73.7650001049
870.0	9e-05	73.7970001698
870.0	9e-05	73.8440001011
870.0	9.03e-05	73.8900001049
870.0	9.03e-05	73.9220001698
870.0	9e-05	73.9690001011
870.0	9e-05	74.0
870.0	9.03e-05	74.0470001698
870.0	9.05e-05	74.0940001011
870.0	9.03e-05	74.125
870.0	9e-05	74.1720001698
870.0	8.95e-05	74.2190001011
870.0	9e-05	74.25
870.0	9.03e-05	74.2970001698
880.0	9.38e-05	74.6089999676
880.0	9.5e-05	74.6400001049
880.0	9.63e-05	74.6870000362
880.0	9.7e-05	74.7339999676
880.0	9.78e-05	74.7650001049
880.0	9.8e-05	74.8120000362
880.0	9.78e-05	74.8589999676
880.0	9.8e-05	74.8900001049
880.0	9.88e-05	74.9370000362
880.0	9.83e-05	74.9690001011
880.0	9.83e-05	75.0150001049
880.0	9.9e-05	75.0620000362
880.0	9.95e-05	75.0940001011
880.0	0.0001	75.1400001049
880.0	9.95e-05	75.1870000362
880.0	9.95e-05	75.2190001011
880.0	9.95e-05	75.2650001049
880.0	0.0001	75.2970001698
880.0	0.0001	75.3440001011
880.0	9.95e-05	75.3900001049
880.0	9.95e-05	75.4220001698
880.0	9.95e-05	75.4690001011
880.0	0.0001	75.5150001049
880.0	9.9e-05	75.5470001698
880.0	9.9e-05	75.5940001011
880.0	9.9e-05	75.6400001049
880.0	9.93e-05	75.6720001698
880.0	9.95e-05	75.7190001011
880.0	9.9e-05	75.75
880.0	9.88e-05	75.7970001698
880.0	9.88e-05	75.8440001011
880.0	9.93e-05	75.875
880.0	9.93e-05	75.9220001698
880.0	9.88e-05	75.9690001011
880.0	9.88e-05	76.0
880.0	9.83e-05	76.0470001698
880.0	9.88e-05	76.0940001011
890.0	0.000103	76.4060001373
890.0	0.0001043	76.4370000362
890.0	0.0001055	76.4839999676
890.0	0.0001075	76.5310001373
890.0	0.000108	76.5620000362
890.0	0.0001088	76.6089999676
890.0	0.0001093	76.6400001049
890.0	0.0001095	76.6870000362
890.0	0.00011	76.7339999676
890.0	0.00011	76.7650001049
890.0	0.00011	76.8120000362
890.0	0.0001103	76.8589999676
890.0	0.0001105	76.8900001049
890.0	0.0001113	76.9370000362
890.0	0.0001105	76.9690001011
890.0	0.0001105	77.0150001049
890.0	0.0001113	77.0620000362
890.0	0.0001113	77.0940001011
890.0	0.0001115	77.1400001049
890.0	0.0001108	77.1870000362
890.0	0.0001105	77.2190001011
890.0	0.00011	77.2650001049
890.0	0.0001103	77.2970001698
890.0	0.0001105	77.3440001011
890.0	0.00011	77.3900001049
890.0	0.0001103	77.4220001698
890.0	0.0001105	77.4690001011
890.0	0.0001105	77.5150001049
890.0	0.0001103	77.5470001698
890.0	0.00011	77.5940001011
890.0	0.00011	77.6400001049
890.0	0.0001105	77.6720001698
890.0	0.0001105	77.7190001011
890.0	0.0001105	77.75
890.0	0.0001108	77.7970001698
890.0	0.0001108	77.8440001011
890.0	0.0001118	77.875
900.0	0.0001163	78.1870000362
900.0	0.000118	78.2339999676
900.0	0.00012	78.2650001049
900.0	0.0001208	78.3120000362
900.0	0.0001215	78.3589999676
900.0	0.000122	78.3900001049
900.0	0.0001225	78.4370000362
900.0	0.000123	78.4690001011
900.0	0.0001225	78.5150001049
900.0	0.0001225	78.5620000362
900.0	0.0001225	78.5940001011
900.0	0.0001228	78.6400001049
900.0	0.000123	78.6870000362
900.0	0.0001228	78.7190001011
900.0	0.0001228	78.7650001049
900.0	0.0001228	78.7970001698
900.0	0.000123	78.8440001011
900.0	0.0001228	78.8900001049
900.0	0.0001228	78.9370000362
900.0	0.000123	78.9690001011
900.0	0.000123	79.0150001049
900.0	0.0001233	79.0470001698
900.0	0.000123	79.0940001011
900.0	0.0001228	79.1400001049
900.0	0.0001225	79.1720001698
900.0	0.0001225	79.2190001011
900.0	0.0001233	79.2650001049
900.0	0.000123	79.2970001698
900.0	0.000123	79.3440001011
900.0	0.0001233	79.3900001049
900.0	0.0001233	79.4220001698
900.0	0.0001233	79.4690001011
900.0	0.0001233	79.5150001049
900.0	0.0001228	79.5470001698
900.0	0.0001228	79.5940001011
900.0	0.000123	79.6400001049
910.0	0.0001293	79.9370000362
910.0	0.0001305	79.9839999676
910.0	0.0001325	80.0310001373
910.0	0.0001333	80.0620000362
910.0	0.0001343	80.1089999676
910.0	0.000135	80.1560001373
910.0	0.0001358	80.1870000362
910.0	0.0001363	80.2339999676
910.0	0.0001375	80.2810001373
910.0	0.0001375	80.3120000362
910.0	0.0001375	80.3589999676
910.0	0.0001375	80.3900001049
910.0	0.0001378	80.4370000362
910.0	0.000138	80.4839999676
910.0	0.000138	80.5150001049
910.0	0.000137	80.5620000362
910.0	0.000137	80.6089999676
910.0	0.0001368	80.6400001049
910.0	0.0001368	80.6870000362
910.0	0.0001365	80.7190001011
910.0	0.0001365	80.7650001049
910.0	0.0001365	80.8120000362
910.0	0.0001368	80.8440001011
910.0	0.0001368	80.8900001049
910.0	0.0001368	80.9370000362
910.0	0.0001368	80.9690001011
910.0	0.0001368	81.0150001049
910.0	0.0001375	81.0470001698
910.0	0.0001375	81.0940001011
910.0	0.0001375	81.1400001049
910.0	0.0001375	81.1720001698
910.0	0.0001378	81.2190001011
910.0	0.0001378	81.2650001049
910.0	0.0001375	81.2970001698
910.0	0.0001375	81.3440001011
910.0	0.000137	81.3900001049
910.0	0.0001375	81.4220001698
920.0	0.0001453	81.7339999676
920.0	0.0001468	81.7650001049
920.0	0.000149	81.8120000362
920.0	0.0001503	81.8589999676
920.0	0.0001505	81.8900001049
920.0	0.0001513	81.9370000362
920.0	0.0001518	81.9839999676
920.0	0.0001528	82.0150001049
920.0	0.0001528	82.0620000362
920.0	0.0001528	82.1089999676
920.0	0.0001528	82.1400001049
920.0	0.0001533	82.1870000362
920.0	0.0001528	82.2190001011
920.0	0.0001525	82.2650001049
920.0	0.0001528	82.3120000362
920.0	0.000153	82.3440001011
920.0	0.0001538	82.3900001049
920.0	0.000153	82.4370000362
920.0	0.0001528	82.4690001011
920.0	0.000153	82.5150001049
920.0	0.000153	82.5620000362
920.0	0.0001538	82.5940001011
920.0	0.0001533	82.6400001049
920.0	0.0001525	82.6870000362
920.0	0.000152	82.7190001011
920.0	0.0001528	82.7650001049
920.0	0.000153	82.7970001698
920.0	0.000153	82.8440001011
920.0	0.0001525	82.8900001049
920.0	0.0001525	82.9220001698
920.0	0.000153	82.9690001011
920.0	0.0001538	83.0150001049
920.0	0.0001538	83.0470001698
920.0	0.0001538	83.0940001011
920.0	0.0001533	83.125
920.0	0.0001538	83.1720001698
920.0	0.000154	83.2190001011
930.0	0.0001593	83.5150001049
930.0	0.000162	83.5620000362
930.0	0.0001633	83.5940001011
930.0	0.000165	83.6400001049
930.0	0.0001665	83.6870000362
930.0	0.0001678	83.7190001011
930.0	0.0001688	83.7650001049
930.0	0.0001688	83.8120000362
930.0	0.0001688	83.8440001011
930.0	0.0001688	83.8900001049
930.0	0.0001693	83.9220001698
930.0	0.0001695	83.9690001011
930.0	0.0001688	84.0150001049
930.0	0.0001688	84.0470001698
930.0	0.0001695	84.0940001011
930.0	0.0001695	84.1400001049
930.0	0.000169	84.1720001698
930.0	0.000169	84.2190001011
930.0	0.000169	84.2650001049
930.0	0.00017	84.2970001698
930.0	0.00017	84.3440001011
930.0	0.0001693	84.375
930.0	0.0001693	84.4220001698
930.0	0.0001693	84.4690001011
930.0	0.00017	84.5
930.0	0.0001693	84.5470001698
930.0	0.0001693	84.5940001011
930.0	0.0001695	84.625
930.0	0.00017	84.6720001698
930.0	0.00017	84.7030000687
930.0	0.0001695	84.75
930.0	0.00017	84.7970001698
930.0	0.00017	84.8280000687
930.0	0.00017	84.875
930.0	0.00017	84.9220001698
930.0	0.00017	84.9530000687
930.0	0.00017	85.0
940.0	0.000178	85.2970001698
940.0	0.00018	85.3440001011
940.0	0.0001825	85.375
940.0	0.000184	85.4220001698
940.0	0.0001843	85.4690001011
940.0	0.0001853	85.5
940.0	0.0001863	85.5470001698
940.0	0.0001868	85.5780000687
940.0	0.0001858	85.625
940.0	0.0001855	85.6720001698
940.0	0.0001863	85.7190001011
940.0	0.0001868	85.75
940.0	0.0001878	85.7970001698
940.0	0.0001875	85.8280000687
940.0	0.000187	85.875
940.0	0.0001875	85.9220001698
940.0	0.0001875	85.9530000687
940.0	0.000188	86.0
940.0	0.0001883	86.0470001698
940.0	0.0001878	86.0780000687
940.0	0.0001875	86.125
940.0	0.0001883	86.1720001698
940.0	0.000188	86.2030000687
940.0	0.0001878	86.25
940.0	0.0001878	86.2970001698
940.0	0.0001875	86.3280000687
940.0	0.0001878	86.375
940.0	0.0001878	86.4220001698
940.0	0.0001878	86.4530000687
940.0	0.0001875	86.5
940.0	0.0001875	86.5310001373
940.0	0.000187	86.5780000687
940.0	0.000188	86.625
940.0	0.0001875	86.6560001373
940.0	0.0001875	86.7030000687
940.0	0.0001875	86.75
950.0	0.0001953	87.0310001373
950.0	0.000198	87.0780000687
950.0	0.0001995	87.125
950.0	0.0002005	87.1560001373
950.0	0.000202	87.2030000687
950.0	0.0002033	87.25
950.0	0.000204	87.2810001373
950.0	0.0002038	87.3280000687
950.0	0.000204	87.375
950.0	0.0002045	87.4060001373
950.0	0.0002055	87.4530000687
950.0	0.0002058	87.4839999676
950.0	0.0002055	87.5310001373
950.0	0.0002063	87.5780000687
950.0	0.0002058	87.625
950.0	0.0002063	87.6560001373
950.0	0.0002063	87.7030000687
950.0	0.0002063	87.7339999676
950.0	0.0002055	87.7810001373
950.0	0.0002058	87.8280000687
950.0	0.0002065	87.8589999676
950.0	0.0002055	87.9060001373
950.0	0.0002055	87.9530000687
950.0	0.0002055	87.9839999676
950.0	0.0002063	88.0310001373
950.0	0.0002068	88.0620000362
950.0	0.000207	88.1089999676
950.0	0.0002065	88.1560001373
950.0	0.0002065	88.1870000362
950.0	0.000207	88.2339999676
950.0	0.000207	88.2810001373
950.0	0.0002065	88.3120000362
950.0	0.0002058	88.3589999676
950.0	0.0002055	88.4060001373
950.0	0.0002058	88.4370000362
950.0	0.0002063	88.4839999676
950.0	0.0002055	88.5310001373
960.0	0.000213	88.8120000362
960.0	0.0002155	88.8589999676
960.0	0.0002178	88.8900001049
960.0	0.0002188	88.9370000362
960.0	0.0002203	88.9839999676
960.0	0.0002215	89.0150001049
960.0	0.000223	89.0620000362
960.0	0.0002238	89.0940001011
960.0	0.0002228	89.1400001049
960.0	0.0002228	89.1870000362
960.0	0.0002228	89.2190001011
960.0	0.0002238	89.2650001049
960.0	0.0002238	89.3120000362
960.0	0.0002238	89.3440001011
960.0	0.0002238	89.3900001049
960.0	0.0002245	89.4220001698
960.0	0.0002243	89.4690001011
960.0	0.000224	89.5150001049
960.0	0.0002238	89.5470001698
960.0	0.000224	89.5940001011
960.0	0.0002245	89.6400001049
960.0	0.0002245	89.6720001698
960.0	0.000224	89.7190001011
960.0	0.000224	89.7650001049
960.0	0.000225	89.7970001698
960.0	0.000225	89.8440001011
960.0	0.000225	89.875
960.0	0.0002245	89.9220001698
960.0	0.0002245	89.9690001011
960.0	0.0002253	90.0
960.0	0.0002245	90.0470001698
960.0	0.0002238	90.0940001011
960.0	0.0002238	90.125
960.0	0.0002238	90.1720001698
960.0	0.0002245	90.2030000687
960.0	0.000225	90.25
960.0	0.0002243	90.2970001698
970.0	0.0002308	90.5780000687
970.0	0.000233	90.6089999676
970.0	0.000235	90.6560001373
970.0	0.0002358	90.7030000687
970.0	0.0002378	90.7339999676
970.0	0.0002388	90.7810001373
970.0	0.0002388	90.8280000687
970.0	0.0002395	90.8589999676
970.0	0.0002405	90.9060001373
970.0	0.0002418	90.9370000362
970.0	0.0002408	90.9839999676
970.0	0.0002408	91.0310001373
970.0	0.0002408	91.0620000362
970.0	0.0002418	91.1089999676
970.0	0.0002418	91.1560001373
970.0	0.0002408	91.1870000362
970.0	0.0002408	91.2339999676
970.0	0.0002408	91.2650001049
970.0	0.0002418	91.3120000362
970.0	0.000242	91.3589999676
970.0	0.0002415	91.3900001049
970.0	0.0002415	91.4370000362
970.0	0.000242	91.4839999676
970.0	0.0002428	91.5150001049
970.0	0.0002425	91.5620000362
970.0	0.0002418	91.5940001011
970.0	0.0002418	91.6400001049
970.0	0.0002425	91.6870000362
970.0	0.0002425	91.7190001011
970.0	0.0002418	91.7650001049
970.0	0.0002418	91.8120000362
970.0	0.0002415	91.8440001011
970.0	0.0002425	91.8900001049
970.0	0.0002425	91.9370000362
970.0	0.0002418	91.9690001011
970.0	0.0002418	92.0150001049
970.0	0.000242	92.0470001698
980.0	0.0002495	92.3440001011
980.0	0.0002518	92.375
980.0	0.0002543	92.4220001698
980.0	0.0002555	92.4530000687
980.0	0.0002563	92.5
980.0	0.000257	92.5470001698
980.0	0.000258	92.5780000687
980.0	0.0002595	92.625
980.0	0.000259	92.6720001698
980.0	0.000259	92.7030000687
980.0	0.0002595	92.75
980.0	0.00026	92.7970001698
980.0	0.0002595	92.8280000687
980.0	0.00026	92.875
980.0	0.00026	92.9220001698
980.0	0.0002595	92.9530000687
980.0	0.0002595	93.0
980.0	0.00026	93.0470001698
980.0	0.0002603	93.0780000687
980.0	0.0002593	93.125
980.0	0.0002595	93.1560001373
980.0	0.0002605	93.2030000687
980.0	0.0002605	93.25
980.0	0.0002595	93.2810001373
980.0	0.0002593	93.3280000687
980.0	0.0002595	93.375
980.0	0.0002603	93.4060001373
980.0	0.00026	93.4530000687
980.0	0.0002593	93.4839999676
980.0	0.0002593	93.5310001373
980.0	0.0002595	93.5780000687
980.0	0.0002605	93.6089999676
980.0	0.0002605	93.6560001373
980.0	0.00026	93.7030000687
980.0	0.00026	93.7339999676
980.0	0.0002603	93.7810001373
980.0	0.0002608	93.8280000687
990.0	0.0002665	94.0940001011
990.0	0.0002688	94.1400001049
990.0	0.0002715	94.1870000362
990.0	0.0002718	94.2190001011
990.0	0.000273	94.2650001049
990.0	0.0002743	94.3120000362
990.0	0.0002758	94.3440001011
990.0	0.0002765	94.3900001049
990.0	0.0002765	94.4370000362
990.0	0.0002768	94.4690001011
990.0	0.000277	94.5150001049
990.0	0.000278	94.5470001698
990.0	0.000277	94.5940001011
990.0	0.000277	94.6400001049
990.0	0.0002775	94.6720001698
990.0	0.000278	94.7190001011
990.0	0.000278	94.7650001049
990.0	0.0002768	94.7970001698
990.0	0.0002768	94.8440001011
990.0	0.0002778	94.8900001049
990.0	0.000278	94.9220001698
990.0	0.0002783	94.9690001011
990.0	0.0002775	95.0
990.0	0.000277	95.0470001698
990.0	0.0002778	95.0940001011
990.0	0.0002783	95.125
990.0	0.000277	95.1720001698
990.0	0.000277	95.2190001011
990.0	0.0002778	95.25
990.0	0.0002788	95.2970001698
990.0	0.0002778	95.3280000687
990.0	0.000277	95.375
990.0	0.0002768	95.4220001698
990.0	0.0002778	95.4530000687
990.0	0.0002778	95.5
990.0	0.0002775	95.5470001698
990.0	0.0002775	95.5780000687
1000.0	0.0002845	95.8589999676
1000.0	0.0002858	95.9060001373
1000.0	0.0002883	95.9370000362
1000.0	0.0002908	95.9839999676
1000.0	0.0002925	96.0310001373
1000.0	0.0002925	96.0780000687
1000.0	0.0002933	96.1089999676
1000.0	0.0002943	96.1560001373
1000.0	0.000295	96.2030000687
1000.0	0.0002958	96.2339999676
1000.0	0.0002955	96.2810001373
1000.0	0.0002955	96.3280000687
1000.0	0.0002945	96.3589999676
1000.0	0.000295	96.4060001373
1000.0	0.0002963	96.4370000362
1000.0	0.0002955	96.4839999676
1000.0	0.0002953	96.5310001373
1000.0	0.000295	96.5620000362
1000.0	0.0002955	96.6089999676
1000.0	0.0002965	96.6560001373
1000.0	0.0002955	96.6870000362
1000.0	0.000295	96.7339999676
1000.0	0.0002963	96.7810001373
1000.0	0.0002958	96.8120000362
1000.0	0.0002958	96.8589999676
1000.0	0.0002958	96.9060001373
1000.0	0.000295	96.9370000362
1000.0	0.0002945	96.9839999676
1000.0	0.0002945	97.0150001049
1000.0	0.0002955	97.0620000362
1000.0	0.000295	97.1089999676
1000.0	0.0002943	97.1400001049
1000.0	0.000294	97.1870000362
1000.0	0.0002953	97.2339999676
1000.0	0.0002955	97.2650001049
1000.0	0.000295	97.3120000362
1010.0	0.0003008	97.5940001011
1010.0	0.000303	97.625
1010.0	0.0003045	97.6720001698
1010.0	0.0003065	97.7190001011
1010.0	0.000309	97.75
1010.0	0.0003093	97.7970001698
1010.0	0.00031	97.8440001011
1010.0	0.0003105	97.875
1010.0	0.0003113	97.9220001698
1010.0	0.0003125	97.9530000687
1010.0	0.0003125	98.0
1010.0	0.000312	98.0470001698
1010.0	0.000313	98.0940001011
1010.0	0.000312	98.125
1010.0	0.0003133	98.1720001698
1010.0	0.0003125	98.2030000687
1010.0	0.0003125	98.25
1010.0	0.0003125	98.2970001698
1010.0	0.0003138	98.3440001011
1010.0	0.000313	98.375
1010.0	0.0003128	98.4220001698
1010.0	0.000312	98.4690001011
1010.0	0.000312	98.5
1010.0	0.0003125	98.5470001698
1010.0	0.0003133	98.5780000687
1010.0	0.000313	98.625
1010.0	0.0003125	98.6720001698
1010.0	0.0003125	98.7030000687
1010.0	0.000312	98.75
1010.0	0.000313	98.7970001698
1010.0	0.0003128	98.8280000687
1010.0	0.0003118	98.875
1010.0	0.000312	98.9060001373
1010.0	0.0003125	98.9530000687
1010.0	0.000313	99.0
1010.0	0.000312	99.0310001373
1010.0	0.0003118	99.0780000687
1020.0	0.0003195	99.3589999676
1020.0	0.0003208	99.3900001049
1020.0	0.0003225	99.4370000362
1020.0	0.0003253	99.4839999676
1020.0	0.0003253	99.5150001049
1020.0	0.0003258	99.5620000362
1020.0	0.0003268	99.6089999676
1020.0	0.000327	99.6400001049
1020.0	0.0003288	99.6870000362
1020.0	0.0003293	99.7339999676
1020.0	0.0003295	99.7650001049
1020.0	0.0003288	99.8120000362
1020.0	0.000329	99.8589999676
1020.0	0.0003295	99.8900001049
1020.0	0.00033	99.9370000362
1020.0	0.0003293	99.9690001011
1020.0	0.0003293	100.015000105
1020.0	0.0003295	100.062000036
1020.0	0.0003303	100.094000101
1020.0	0.0003293	100.140000105
1020.0	0.000329	100.187000036
1020.0	0.0003295	100.219000101
1020.0	0.0003305	100.265000105
1020.0	0.00033	100.312000036
1020.0	0.0003293	100.344000101
1020.0	0.0003293	100.390000105
1020.0	0.0003303	100.42200017
1020.0	0.0003313	100.469000101
1020.0	0.0003303	100.515000105
1020.0	0.00033	100.54700017
1020.0	0.0003295	100.594000101
1020.0	0.0003305	100.640000105
1020.0	0.0003305	100.67200017
1020.0	0.000329	100.719000101
1020.0	0.0003288	100.75
1020.0	0.000328	100.79700017
1020.0	0.0003288	100.844000101
1030.0	0.0003358	101.125
1030.0	0.000339	101.156000137
1030.0	0.00034	101.203000069
1030.0	0.0003428	101.25
1030.0	0.0003428	101.281000137
1030.0	0.0003443	101.328000069
1030.0	0.0003455	101.375
1030.0	0.0003468	101.406000137
1030.0	0.0003463	101.453000069
1030.0	0.0003465	101.5
1030.0	0.0003475	101.531000137
1030.0	0.0003478	101.578000069
1030.0	0.0003475	101.608999968
1030.0	0.000347	101.656000137
1030.0	0.000347	101.703000069
1030.0	0.0003475	101.733999968
1030.0	0.000348	101.781000137
1030.0	0.0003468	101.828000069
1030.0	0.0003468	101.858999968
1030.0	0.0003465	101.906000137
1030.0	0.0003475	101.937000036
1030.0	0.000348	101.983999968
1030.0	0.0003475	102.031000137
1030.0	0.0003475	102.078000069
1030.0	0.0003478	102.108999968
1030.0	0.000348	102.156000137
1030.0	0.0003488	102.187000036
1030.0	0.0003488	102.233999968
1030.0	0.0003475	102.281000137
1030.0	0.000347	102.312000036
1030.0	0.000347	102.358999968
1030.0	0.0003475	102.406000137
1030.0	0.000347	102.437000036
1030.0	0.0003468	102.483999968
1030.0	0.0003475	102.515000105
1030.0	0.000348	102.562000036
1030.0	0.000347	102.608999968
1040.0	0.0003538	102.890000105
1040.0	0.000357	102.937000036
1040.0	0.0003578	102.969000101
1040.0	0.0003595	103.015000105
1040.0	0.0003608	103.04700017
1040.0	0.0003625	103.094000101
1040.0	0.0003643	103.140000105
1040.0	0.000364	103.17200017
1040.0	0.0003645	103.219000101
1040.0	0.0003658	103.265000105
1040.0	0.0003668	103.29700017
1040.0	0.0003653	103.344000101
1040.0	0.0003653	103.375
1040.0	0.000365	103.42200017
1040.0	0.0003655	103.469000101
1040.0	0.0003663	103.5
1040.0	0.0003653	103.54700017
1040.0	0.000365	103.594000101
1040.0	0.0003655	103.625
1040.0	0.0003665	103.67200017
1040.0	0.0003665	103.703000069
1040.0	0.0003653	103.75
1040.0	0.0003653	103.79700017
1040.0	0.0003658	103.828000069
1040.0	0.000367	103.875
1040.0	0.0003663	103.92200017
1040.0	0.0003658	103.953000069
1040.0	0.0003655	104.0
1040.0	0.000367	104.04700017
1040.0	0.0003665	104.078000069
1040.0	0.0003668	104.125
1040.0	0.0003653	104.17200017
1040.0	0.000365	104.203000069
1040.0	0.0003655	104.25
1040.0	0.0003653	104.29700017
1040.0	0.0003668	104.328000069
1040.0	0.0003658	104.375
1050.0	0.0003725	104.656000137
1050.0	0.000375	104.687000036
1050.0	0.0003763	104.733999968
1050.0	0.000378	104.765000105
1050.0	0.00038	104.812000036
1050.0	0.0003795	104.858999968
1050.0	0.0003803	104.890000105
1050.0	0.000382	104.937000036
1050.0	0.0003833	104.983999968
1050.0	0.0003833	105.015000105
1050.0	0.0003828	105.062000036
1050.0	0.0003828	105.108999968
1050.0	0.000384	105.140000105
1050.0	0.0003838	105.187000036
1050.0	0.0003845	105.233999968
1050.0	0.000383	105.265000105
1050.0	0.0003828	105.312000036
1050.0	0.0003838	105.358999968
1050.0	0.0003845	105.390000105
1050.0	0.000385	105.437000036
1050.0	0.0003833	105.469000101
1050.0	0.000383	105.515000105
1050.0	0.0003838	105.562000036
1050.0	0.000385	105.594000101
1050.0	0.0003843	105.640000105
1050.0	0.0003838	105.687000036
1050.0	0.000384	105.719000101
1050.0	0.000384	105.765000105
1050.0	0.0003843	105.812000036
1050.0	0.000384	105.844000101
1050.0	0.000384	105.890000105
1050.0	0.000384	105.92200017
1050.0	0.0003855	105.969000101
1050.0	0.0003858	106.015000105
1050.0	0.0003843	106.04700017
1050.0	0.0003843	106.094000101
1050.0	0.0003853	106.140000105
1060.0	0.000392	106.406000137
1060.0	0.0003938	106.453000069
1060.0	0.0003945	106.5
1060.0	0.0003978	106.54700017
1060.0	0.0003975	106.578000069
1060.0	0.0003978	106.625
1060.0	0.0003993	106.656000137
1060.0	0.0004003	106.703000069
1060.0	0.0004003	106.75
1060.0	0.0004008	106.781000137
1060.0	0.0004013	106.828000069
1060.0	0.0004018	106.875
1060.0	0.0004033	106.906000137
1060.0	0.000403	106.953000069
1060.0	0.0004018	107.0
1060.0	0.000402	107.031000137
1060.0	0.000403	107.078000069
1060.0	0.000403	107.108999968
1060.0	0.0004018	107.156000137
1060.0	0.0004013	107.203000069
1060.0	0.0004015	107.233999968
1060.0	0.000403	107.281000137
1060.0	0.0004018	107.328000069
1060.0	0.0004013	107.358999968
1060.0	0.0004013	107.406000137
1060.0	0.000402	107.437000036
1060.0	0.000403	107.483999968
1060.0	0.0004028	107.531000137
1060.0	0.0004018	107.562000036
1060.0	0.0004015	107.608999968
1060.0	0.000403	107.656000137
1060.0	0.0004038	107.687000036
1060.0	0.0004033	107.733999968
1060.0	0.0004018	107.765000105
1060.0	0.0004033	107.812000036
1060.0	0.0004028	107.858999968
1060.0	0.000404	107.906000137
1070.0	0.0004088	108.17200017
1070.0	0.0004125	108.219000101
1070.0	0.0004133	108.265000105
1070.0	0.0004145	108.29700017
1070.0	0.0004168	108.344000101
1070.0	0.0004183	108.390000105
1070.0	0.0004188	108.42200017
1070.0	0.000418	108.469000101
1070.0	0.0004183	108.5
1070.0	0.0004195	108.54700017
1070.0	0.0004208	108.594000101
1070.0	0.0004203	108.625
1070.0	0.00042	108.67200017
1070.0	0.00042	108.719000101
1070.0	0.0004208	108.75
1070.0	0.0004205	108.79700017
1070.0	0.00042	108.828000069
1070.0	0.0004203	108.875
1070.0	0.0004203	108.92200017
1070.0	0.0004215	108.953000069
1070.0	0.0004203	109.0
1070.0	0.00042	109.04700017
1070.0	0.0004193	109.078000069
1070.0	0.0004208	109.125
1070.0	0.0004205	109.17200017
1070.0	0.0004203	109.203000069
1070.0	0.0004193	109.25
1070.0	0.0004193	109.281000137
1070.0	0.00042	109.328000069
1070.0	0.0004205	109.375
1070.0	0.0004193	109.406000137
1070.0	0.0004188	109.453000069
1070.0	0.0004188	109.5
1070.0	0.0004195	109.531000137
1070.0	0.0004193	109.578000069
1070.0	0.000418	109.608999968
1070.0	0.0004183	109.656000137
1080.0	0.0004258	109.937000036
1080.0	0.0004263	109.983999968
1080.0	0.0004283	110.015000105
1080.0	0.0004313	110.062000036
1080.0	0.0004313	110.094000101
1080.0	0.000432	110.140000105
1080.0	0.000433	110.187000036
1080.0	0.0004343	110.219000101
1080.0	0.0004338	110.265000105
1080.0	0.0004333	110.312000036
1080.0	0.0004338	110.344000101
1080.0	0.0004345	110.390000105
1080.0	0.0004355	110.42200017
1080.0	0.000435	110.469000101
1080.0	0.0004343	110.515000105
1080.0	0.0004353	110.54700017
1080.0	0.0004363	110.594000101
1080.0	0.0004363	110.640000105
1080.0	0.0004355	110.67200017
1080.0	0.0004345	110.719000101
1080.0	0.0004355	110.75
1080.0	0.0004358	110.79700017
1080.0	0.0004363	110.844000101
1080.0	0.0004345	110.875
1080.0	0.0004343	110.92200017
1080.0	0.0004358	110.969000101
1080.0	0.000434	111.015000105
1080.0	0.0004358	111.04700017
1080.0	0.0004343	111.094000101
1080.0	0.000434	111.125
1080.0	0.000435	111.17200017
1080.0	0.0004355	111.219000101
1080.0	0.0004343	111.265000105
1080.0	0.0004355	111.29700017
1080.0	0.000435	111.344000101
1080.0	0.0004338	111.390000105
1090.0	0.0004395	111.656000137
1090.0	0.00044	111.703000069
1090.0	0.000443	111.75
1090.0	0.0004445	111.781000137
1090.0	0.0004438	111.828000069
1090.0	0.0004443	111.875
1090.0	0.0004445	111.906000137
1090.0	0.0004468	111.953000069
1090.0	0.0004468	111.983999968
1090.0	0.0004455	112.031000137
1090.0	0.0004455	112.078000069
1090.0	0.0004458	112.108999968
1090.0	0.0004475	112.156000137
1090.0	0.0004475	112.203000069
1090.0	0.0004463	112.233999968
1090.0	0.0004468	112.281000137
1090.0	0.0004478	112.312000036
1090.0	0.000448	112.358999968
1090.0	0.0004468	112.406000137
1090.0	0.0004465	112.437000036
1090.0	0.0004465	112.483999968
1090.0	0.0004488	112.531000137
1090.0	0.0004478	112.562000036
1090.0	0.000447	112.608999968
1090.0	0.0004475	112.640000105
1090.0	0.000448	112.687000036
1090.0	0.0004493	112.733999968
1090.0	0.0004483	112.765000105
1090.0	0.0004478	112.812000036
1090.0	0.0004488	112.858999968
1090.0	0.0004475	112.890000105
1090.0	0.0004483	112.937000036
1090.0	0.000447	112.983999968
1090.0	0.0004465	113.015000105
1090.0	0.0004463	113.062000036
1090.0	0.0004478	113.108999968
1090.0	0.0004488	113.140000105
1100.0	0.0004495	113.42200017
1100.0	0.0004513	113.453000069
1100.0	0.0004525	113.5
1100.0	0.0004545	113.531000137
1100.0	0.0004565	113.578000069
1100.0	0.0004545	113.625
1100.0	0.000455	113.656000137
1100.0	0.0004558	113.703000069
1100.0	0.000457	113.75
1100.0	0.0004568	113.781000137
1100.0	0.0004568	113.828000069
1100.0	0.0004563	113.875
1100.0	0.0004578	113.906000137
1100.0	0.0004588	113.953000069
1100.0	0.0004578	113.983999968
1100.0	0.0004565	114.031000137
1100.0	0.0004563	114.078000069
1100.0	0.0004578	114.125
1100.0	0.0004555	114.156000137
1100.0	0.0004578	114.203000069
1100.0	0.0004565	114.25
1100.0	0.0004563	114.281000137
1100.0	0.0004563	114.328000069
1100.0	0.000457	114.375
1100.0	0.0004578	114.406000137
1100.0	0.0004565	114.453000069
1100.0	0.0004563	114.483999968
1100.0	0.0004565	114.531000137
1100.0	0.0004583	114.578000069
1100.0	0.0004575	114.608999968
1100.0	0.0004578	114.656000137
1100.0	0.0004565	114.703000069
1100.0	0.0004563	114.733999968
1100.0	0.0004588	114.781000137
1100.0	0.000457	114.828000069
1100.0	0.0004563	114.858999968
1100.0	0.0004563	114.906000137
1110.0	0.0004593	115.17200017
1110.0	0.0004615	115.219000101
1110.0	0.0004613	115.25
1110.0	0.0004605	115.29700017
1110.0	0.0004613	115.344000101
1110.0	0.0004618	115.375
1110.0	0.0004638	115.42200017
1110.0	0.0004618	115.469000101
1110.0	0.000462	115.5
1110.0	0.000463	115.54700017
1110.0	0.0004645	115.578000069
1110.0	0.000463	115.625
1110.0	0.000463	115.67200017
1110.0	0.0004628	115.703000069
1110.0	0.000463	115.75
1110.0	0.0004645	115.79700017
1110.0	0.0004643	115.828000069
1110.0	0.0004625	115.875
1110.0	0.000462	115.906000137
1110.0	0.000464	115.953000069
1110.0	0.000464	116.0
1110.0	0.0004628	116.031000137
1110.0	0.0004628	116.078000069
1110.0	0.000463	116.125
1110.0	0.000465	116.156000137
1110.0	0.0004645	116.203000069
1110.0	0.0004628	116.233999968
1110.0	0.0004625	116.281000137
1110.0	0.000464	116.328000069
1110.0	0.0004643	116.358999968
1110.0	0.0004638	116.406000137
1110.0	0.0004628	116.453000069
1110.0	0.0004633	116.483999968
1110.0	0.000464	116.531000137
1110.0	0.0004638	116.578000069
1110.0	0.0004628	116.608999968
1110.0	0.0004628	116.656000137
1120.0	0.000464	116.92200017
1120.0	0.0004655	116.953000069
1120.0	0.000464	117.0
1120.0	0.0004638	117.04700017
1120.0	0.0004645	117.078000069
1120.0	0.0004665	117.125
1120.0	0.0004665	117.17200017
1120.0	0.0004658	117.203000069
1120.0	0.0004655	117.25
1120.0	0.0004668	117.281000137
1120.0	0.000468	117.328000069
1120.0	0.000468	117.375
1120.0	0.0004668	117.406000137
1120.0	0.0004668	117.453000069
1120.0	0.0004688	117.5
1120.0	0.0004675	117.531000137
1120.0	0.0004683	117.578000069
1120.0	0.0004675	117.625
1120.0	0.0004675	117.656000137
1120.0	0.0004688	117.703000069
1120.0	0.0004675	117.733999968
1120.0	0.0004665	117.781000137
1120.0	0.0004668	117.828000069
1120.0	0.0004683	117.858999968
1120.0	0.0004688	117.906000137
1120.0	0.0004683	117.953000069
1120.0	0.0004675	117.983999968
1120.0	0.0004668	118.031000137
1120.0	0.000469	118.062000036
1120.0	0.0004678	118.108999968
1120.0	0.0004675	118.156000137
1120.0	0.000467	118.187000036
1120.0	0.0004668	118.233999968
1120.0	0.0004688	118.281000137
1120.0	0.000467	118.312000036
1120.0	0.0004658	118.358999968
1120.0	0.0004658	118.390000105
1130.0	0.0004675	118.67200017
1130.0	0.000468	118.703000069
1130.0	0.0004678	118.75
1130.0	0.0004675	118.781000137
1130.0	0.0004683	118.828000069
1130.0	0.0004693	118.875
1130.0	0.0004675	118.906000137
1130.0	0.0004675	118.953000069
1130.0	0.0004688	119.0
1130.0	0.0004693	119.031000137
1130.0	0.000468	119.078000069
1130.0	0.0004675	119.125
1130.0	0.0004675	119.156000137
1130.0	0.0004675	119.203000069
1130.0	0.000469	119.25
1130.0	0.0004693	119.281000137
1130.0	0.0004688	119.328000069
1130.0	0.0004678	119.358999968
1130.0	0.0004675	119.406000137
1130.0	0.000469	119.453000069
1130.0	0.000469	119.483999968
1130.0	0.000468	119.531000137
1130.0	0.000468	119.578000069
1130.0	0.0004695	119.608999968
1130.0	0.00047	119.656000137
1130.0	0.00047	119.703000069
1130.0	0.0004688	119.733999968
1130.0	0.0004683	119.781000137
1130.0	0.0004688	119.812000036
1130.0	0.0004703	119.858999968
1130.0	0.000469	119.906000137
1130.0	0.000469	119.953000069
1130.0	0.0004688	119.983999968
1130.0	0.000468	120.031000137
1130.0	0.0004688	120.078000069
1130.0	0.00047	120.108999968
1130.0	0.0004688	120.156000137
1140.0	0.0004688	120.42200017
1140.0	0.0004688	120.469000101
1140.0	0.00047	120.5
1140.0	0.0004688	120.54700017
1140.0	0.0004688	120.594000101
1140.0	0.000468	120.625
1140.0	0.000469	120.67200017
1140.0	0.0004703	120.703000069
1140.0	0.0004683	120.75
1140.0	0.0004683	120.79700017
1140.0	0.0004688	120.828000069
1140.0	0.0004703	120.875
1140.0	0.00047	120.92200017
1140.0	0.0004683	120.953000069
1140.0	0.0004688	121.0
1140.0	0.000469	121.04700017
1140.0	0.0004695	121.078000069
1140.0	0.0004705	121.125
1140.0	0.0004693	121.17200017
1140.0	0.0004683	121.219000101
1140.0	0.0004688	121.25
1140.0	0.0004695	121.29700017
1140.0	0.0004703	121.328000069
1140.0	0.000469	121.375
1140.0	0.0004688	121.42200017
1140.0	0.0004688	121.453000069
1140.0	0.0004695	121.5
1140.0	0.0004703	121.54700017
1140.0	0.00047	121.578000069
1140.0	0.0004678	121.625
1140.0	0.0004688	121.67200017
1140.0	0.0004695	121.703000069
1140.0	0.0004693	121.75
1140.0	0.00047	121.79700017
1140.0	0.0004688	121.828000069
1140.0	0.0004683	121.875
1150.0	0.0004675	122.140000105
1150.0	0.0004675	122.17200017
1150.0	0.0004665	122.219000101
1150.0	0.000467	122.265000105
1150.0	0.000468	122.29700017
1150.0	0.0004668	122.344000101
1150.0	0.0004658	122.390000105
1150.0	0.0004663	122.42200017
1150.0	0.0004663	122.469000101
1150.0	0.000468	122.515000105
1150.0	0.000468	122.54700017
1150.0	0.0004668	122.594000101
1150.0	0.0004675	122.625
1150.0	0.0004678	122.67200017
1150.0	0.0004693	122.719000101
1150.0	0.0004693	122.75
1150.0	0.0004675	122.79700017
1150.0	0.0004675	122.844000101
1150.0	0.0004688	122.890000105
1150.0	0.000467	122.92200017
1150.0	0.000469	122.969000101
1150.0	0.0004678	123.015000105
1150.0	0.0004678	123.04700017
1150.0	0.000468	123.094000101
1150.0	0.0004675	123.140000105
1150.0	0.000469	123.17200017
1150.0	0.0004678	123.219000101
1150.0	0.0004683	123.25
1150.0	0.000468	123.29700017
1150.0	0.0004693	123.344000101
1150.0	0.0004683	123.390000105
1150.0	0.00047	123.42200017
1150.0	0.0004688	123.469000101
1150.0	0.0004678	123.5
1150.0	0.000468	123.54700017
1150.0	0.000469	123.594000101
1160.0	0.0004693	123.858999968
1160.0	0.0004668	123.890000105
1160.0	0.0004668	123.937000036
1160.0	0.000468	123.983999968
1160.0	0.0004668	124.015000105
1160.0	0.0004665	124.062000036
1160.0	0.0004658	124.108999968
1160.0	0.0004663	124.140000105
1160.0	0.0004678	124.187000036
1160.0	0.0004663	124.219000101
1160.0	0.0004663	124.265000105
1160.0	0.0004665	124.312000036
1160.0	0.000468	124.344000101
1160.0	0.0004678	124.390000105
1160.0	0.0004663	124.437000036
1160.0	0.0004658	124.469000101
1160.0	0.0004655	124.515000105
1160.0	0.0004658	124.562000036
1160.0	0.0004675	124.594000101
1160.0	0.0004665	124.640000105
1160.0	0.0004658	124.687000036
1160.0	0.0004658	124.719000101
1160.0	0.0004675	124.765000105
1160.0	0.0004658	124.812000036
1160.0	0.0004675	124.844000101
1160.0	0.0004658	124.890000105
1160.0	0.0004658	124.937000036
1160.0	0.0004675	124.969000101
1160.0	0.0004683	125.015000105
1160.0	0.0004668	125.062000036
1160.0	0.0004665	125.094000101
1160.0	0.0004658	125.140000105
1160.0	0.0004665	125.17200017
1160.0	0.0004675	125.219000101
1160.0	0.0004658	125.265000105
1160.0	0.0004658	125.29700017
1160.0	0.0004655	125.344000101
1170.0	0.000465	125.608999968
1170.0	0.0004665	125.656000137
1170.0	0.000465	125.703000069
1170.0	0.0004643	125.733999968
1170.0	0.0004658	125.781000137
1170.0	0.0004665	125.812000036
1170.0	0.0004655	125.858999968
1170.0	0.000465	125.906000137
1170.0	0.0004645	125.937000036
1170.0	0.0004655	125.983999968
1170.0	0.0004668	126.031000137
1170.0	0.0004645	126.062000036
1170.0	0.0004643	126.108999968
1170.0	0.0004645	126.140000105
1170.0	0.0004653	126.187000036
1170.0	0.0004643	126.233999968
1170.0	0.0004638	126.265000105
1170.0	0.0004638	126.312000036
1170.0	0.0004643	126.358999968
1170.0	0.0004643	126.390000105
1170.0	0.000463	126.437000036
1170.0	0.000463	126.469000101
1170.0	0.000463	126.515000105
1170.0	0.000465	126.562000036
1170.0	0.0004663	126.594000101
1170.0	0.0004645	126.640000105
1170.0	0.0004645	126.687000036
1170.0	0.0004653	126.719000101
1170.0	0.0004658	126.765000105
1170.0	0.0004643	126.812000036
1170.0	0.0004638	126.844000101
1170.0	0.000463	126.890000105
1170.0	0.0004625	126.92200017
1170.0	0.000464	126.969000101
1170.0	0.0004638	127.015000105
1170.0	0.0004628	127.04700017
1170.0	0.0004625	127.094000101
1180.0	0.000464	127.358999968
1180.0	0.000465	127.406000137
1180.0	0.0004638	127.453000069
1180.0	0.000463	127.483999968
1180.0	0.0004633	127.531000137
1180.0	0.0004645	127.562000036
1180.0	0.0004655	127.608999968
1180.0	0.000465	127.656000137
1180.0	0.0004633	127.687000036
1180.0	0.0004638	127.733999968
1180.0	0.000465	127.781000137
1180.0	0.0004643	127.812000036
1180.0	0.000463	127.858999968
1180.0	0.000463	127.890000105
1180.0	0.0004645	127.937000036
1180.0	0.0004653	127.983999968
1180.0	0.000465	128.015000105
1180.0	0.0004638	128.062000036
1180.0	0.0004638	128.108999968
1180.0	0.0004645	128.140000105
1180.0	0.0004628	128.187000036
1180.0	0.0004625	128.219000101
1180.0	0.000462	128.265000105
1180.0	0.0004633	128.312000036
1180.0	0.000465	128.344000101
1180.0	0.000465	128.390000105
1180.0	0.0004638	128.437000036
1180.0	0.0004633	128.469000101
1180.0	0.0004655	128.515000105
1180.0	0.0004638	128.562000036
1180.0	0.000464	128.594000101
1180.0	0.0004638	128.640000105
1180.0	0.0004638	128.687000036
1180.0	0.000465	128.719000101
1180.0	0.0004655	128.765000105
1180.0	0.000464	128.812000036
1180.0	0.0004638	128.844000101
1190.0	0.000464	129.125
1190.0	0.0004658	129.156000137
1190.0	0.0004668	129.203000069
1190.0	0.000465	129.233999968
1190.0	0.0004653	129.281000137
1190.0	0.0004653	129.328000069
1190.0	0.0004665	129.358999968
1190.0	0.0004668	129.406000137
1190.0	0.0004668	129.453000069
1190.0	0.0004665	129.483999968
1190.0	0.000467	129.531000137
1190.0	0.0004683	129.562000036
1190.0	0.0004663	129.608999968
1190.0	0.0004653	129.656000137
1190.0	0.0004655	129.703000069
1190.0	0.0004655	129.733999968
1190.0	0.0004668	129.781000137
1190.0	0.000468	129.812000036
1190.0	0.0004668	129.858999968
1190.0	0.000467	129.906000137
1190.0	0.0004668	129.937000036
1190.0	0.0004688	129.983999968
1190.0	0.0004668	130.031000137
1190.0	0.0004665	130.062000036
1190.0	0.0004663	130.108999968
1190.0	0.0004678	130.140000105
1190.0	0.0004688	130.187000036
1190.0	0.000468	130.233999968
1190.0	0.0004668	130.265000105
1190.0	0.0004678	130.312000036
1190.0	0.0004678	130.358999968
1190.0	0.0004688	130.406000137
1190.0	0.0004675	130.437000036
1190.0	0.000467	130.483999968
1190.0	0.0004668	130.515000105
1190.0	0.000468	130.562000036
1190.0	0.0004688	130.608999968
1200.0	0.000468	130.875
1200.0	0.000468	130.92200017
1200.0	0.0004683	130.953000069
1200.0	0.0004703	131.0
1200.0	0.0004708	131.04700017
1200.0	0.0004693	131.078000069
1200.0	0.0004693	131.125
1200.0	0.0004705	131.17200017
1200.0	0.0004713	131.219000101
1200.0	0.0004713	131.25
1200.0	0.0004715	131.29700017
1200.0	0.00047	131.328000069
1200.0	0.00047	131.375
1200.0	0.00047	131.42200017
1200.0	0.000472	131.453000069
1200.0	0.0004718	131.5
1200.0	0.00047	131.54700017
1200.0	0.0004693	131.578000069
1200.0	0.0004683	131.625
1200.0	0.0004703	131.67200017
1200.0	0.00047	131.703000069
1200.0	0.000469	131.75
1200.0	0.0004688	131.781000137
1200.0	0.000469	131.828000069
1200.0	0.0004708	131.875
1200.0	0.0004703	131.906000137
1200.0	0.0004693	131.953000069
1200.0	0.0004703	132.0
1200.0	0.0004708	132.031000137
1200.0	0.0004715	132.078000069
1200.0	0.0004713	132.108999968
1200.0	0.00047	132.156000137
1200.0	0.0004703	132.203000069
1200.0	0.00047	132.233999968
1200.0	0.0004705	132.281000137
1200.0	0.0004688	132.328000069
1210.0	0.000473	132.594000101
1210.0	0.0004728	132.640000105
1210.0	0.0004745	132.67200017
1210.0	0.000474	132.719000101
1210.0	0.0004738	132.75
1210.0	0.0004738	132.79700017
1210.0	0.0004755	132.844000101
1210.0	0.0004763	132.875
1210.0	0.0004753	132.92200017
1210.0	0.0004755	132.969000101
1210.0	0.0004755	133.0
1210.0	0.0004765	133.04700017
1210.0	0.000478	133.094000101
1210.0	0.0004775	133.125
1210.0	0.0004768	133.17200017
1210.0	0.0004765	133.219000101
1210.0	0.000477	133.25
1210.0	0.000477	133.29700017
1210.0	0.0004763	133.344000101
1210.0	0.000475	133.375
1210.0	0.000475	133.42200017
1210.0	0.000475	133.469000101
1210.0	0.0004753	133.5
1210.0	0.0004763	133.54700017
1210.0	0.0004745	133.594000101
1210.0	0.0004743	133.625
1210.0	0.0004743	133.67200017
1210.0	0.0004755	133.719000101
1210.0	0.0004765	133.75
1210.0	0.0004755	133.79700017
1210.0	0.0004755	133.844000101
1210.0	0.0004755	133.875
1210.0	0.000477	133.92200017
1210.0	0.0004763	133.969000101
1210.0	0.0004768	134.0
1210.0	0.0004768	134.04700017
1220.0	0.0004788	134.312000036
1220.0	0.0004818	134.358999968
1220.0	0.0004813	134.390000105
1220.0	0.0004818	134.437000036
1220.0	0.0004815	134.483999968
1220.0	0.0004838	134.515000105
1220.0	0.0004843	134.562000036
1220.0	0.0004833	134.594000101
1220.0	0.0004828	134.640000105
1220.0	0.000482	134.687000036
1220.0	0.0004838	134.719000101
1220.0	0.0004843	134.765000105
1220.0	0.0004825	134.812000036
1220.0	0.0004825	134.844000101
1220.0	0.000485	134.890000105
1220.0	0.000485	134.937000036
1220.0	0.0004853	134.969000101
1220.0	0.000485	135.015000105
1220.0	0.0004838	135.062000036
1220.0	0.0004833	135.094000101
1220.0	0.0004843	135.140000105
1220.0	0.0004853	135.17200017
1220.0	0.0004833	135.219000101
1220.0	0.000483	135.265000105
1220.0	0.000483	135.29700017
1220.0	0.0004855	135.344000101
1220.0	0.0004843	135.390000105
1220.0	0.0004843	135.42200017
1220.0	0.000484	135.469000101
1220.0	0.0004845	135.515000105
1220.0	0.0004853	135.54700017
1220.0	0.0004838	135.594000101
1220.0	0.000483	135.625
1220.0	0.000483	135.67200017
1220.0	0.000484	135.719000101
1220.0	0.0004833	135.75
1220.0	0.000484	135.79700017
1230.0	0.0004863	136.062000036
1230.0	0.0004888	136.108999968
1230.0	0.0004888	136.140000105
1230.0	0.0004888	136.187000036
1230.0	0.0004895	136.233999968
1230.0	0.00049	136.265000105
1230.0	0.0004915	136.312000036
1230.0	0.000492	136.358999968
1230.0	0.0004915	136.390000105
1230.0	0.0004915	136.437000036
1230.0	0.0004908	136.483999968
1230.0	0.0004908	136.531000137
1230.0	0.0004905	136.562000036
1230.0	0.0004925	136.608999968
1230.0	0.0004908	136.656000137
1230.0	0.0004908	136.687000036
1230.0	0.0004908	136.733999968
1230.0	0.0004925	136.765000105
1230.0	0.000493	136.812000036
1230.0	0.0004915	136.858999968
1230.0	0.0004915	136.890000105
1230.0	0.0004913	136.937000036
1230.0	0.0004928	136.983999968
1230.0	0.0004925	137.015000105
1230.0	0.000493	137.062000036
1230.0	0.0004918	137.108999968
1230.0	0.0004918	137.140000105
1230.0	0.0004915	137.187000036
1230.0	0.0004933	137.233999968
1230.0	0.0004918	137.265000105
1230.0	0.0004918	137.312000036
1230.0	0.0004918	137.358999968
1230.0	0.000492	137.390000105
1230.0	0.0004933	137.437000036
1230.0	0.0004925	137.469000101
1230.0	0.0004905	137.515000105
1240.0	0.000495	137.781000137
1240.0	0.0004978	137.828000069
1240.0	0.0004968	137.875
1240.0	0.0005	137.92200017
1240.0	0.000498	137.953000069
1240.0	0.0004988	138.0
1240.0	0.0004995	138.031000137
1240.0	0.0005013	138.078000069
1240.0	0.0005005	138.125
1240.0	0.0004995	138.156000137
1240.0	0.0005	138.203000069
1240.0	0.0005008	138.25
1240.0	0.000502	138.281000137
1240.0	0.0005005	138.328000069
1240.0	0.0005013	138.375
1240.0	0.0005025	138.406000137
1240.0	0.0005033	138.453000069
1240.0	0.000502	138.483999968
1240.0	0.000502	138.531000137
1240.0	0.0005018	138.578000069
1240.0	0.0005025	138.608999968
1240.0	0.0005028	138.656000137
1240.0	0.0005005	138.703000069
1240.0	0.0005005	138.733999968
1240.0	0.0005003	138.781000137
1240.0	0.0005025	138.812000036
1240.0	0.000503	138.858999968
1240.0	0.0005015	138.906000137
1240.0	0.0005015	138.937000036
1240.0	0.0005005	138.983999968
1240.0	0.0005025	139.015000105
1240.0	0.0005028	139.062000036
1240.0	0.0005013	139.108999968
1240.0	0.0005008	139.140000105
1240.0	0.0005028	139.187000036
1240.0	0.000503	139.233999968
1240.0	0.0005025	139.265000105
1250.0	0.0005043	139.531000137
1250.0	0.0005053	139.578000069
1250.0	0.0005075	139.625
1250.0	0.0005063	139.656000137
1250.0	0.000507	139.703000069
1250.0	0.0005078	139.75
1250.0	0.0005095	139.781000137
1250.0	0.0005093	139.828000069
1250.0	0.0005093	139.858999968
1250.0	0.0005095	139.906000137
1250.0	0.0005105	139.953000069
1250.0	0.0005118	139.983999968
1250.0	0.0005105	140.031000137
1250.0	0.00051	140.078000069
1250.0	0.00051	140.108999968
1250.0	0.0005113	140.156000137
1250.0	0.0005118	140.187000036
1250.0	0.00051	140.233999968
1250.0	0.0005093	140.281000137
1250.0	0.0005095	140.312000036
1250.0	0.0005118	140.358999968
1250.0	0.0005108	140.406000137
1250.0	0.0005093	140.437000036
1250.0	0.0005088	140.483999968
1250.0	0.00051	140.515000105
1250.0	0.00051	140.562000036
1250.0	0.0005093	140.608999968
1250.0	0.0005088	140.640000105
1250.0	0.000508	140.687000036
1250.0	0.0005093	140.733999968
1250.0	0.0005088	140.781000137
1250.0	0.0005088	140.812000036
1250.0	0.0005088	140.858999968
1250.0	0.0005083	140.890000105
1250.0	0.00051	140.937000036
1250.0	0.0005108	140.983999968
1250.0	0.000509	141.015000105
1260.0	0.000513	141.281000137
1260.0	0.000515	141.328000069
1260.0	0.0005163	141.375
1260.0	0.0005155	141.406000137
1260.0	0.0005153	141.453000069
1260.0	0.0005155	141.5
1260.0	0.0005168	141.531000137
1260.0	0.0005183	141.578000069
1260.0	0.0005163	141.608999968
1260.0	0.0005165	141.656000137
1260.0	0.0005183	141.703000069
1260.0	0.0005183	141.733999968
1260.0	0.0005195	141.781000137
1260.0	0.000518	141.828000069
1260.0	0.000518	141.858999968
1260.0	0.0005195	141.906000137
1260.0	0.0005203	141.953000069
1260.0	0.0005188	141.983999968
1260.0	0.0005188	142.031000137
1260.0	0.000518	142.078000069
1260.0	0.0005193	142.108999968
1260.0	0.0005203	142.156000137
1260.0	0.0005193	142.187000036
1260.0	0.0005183	142.233999968
1260.0	0.000518	142.281000137
1260.0	0.0005183	142.312000036
1260.0	0.0005188	142.358999968
1260.0	0.0005188	142.406000137
1260.0	0.000518	142.437000036
1260.0	0.000518	142.483999968
1260.0	0.0005188	142.515000105
1260.0	0.00052	142.562000036
1260.0	0.0005183	142.608999968
1260.0	0.000518	142.640000105
1260.0	0.0005175	142.687000036
1260.0	0.0005195	142.733999968
1260.0	0.0005183	142.765000105
1270.0	0.00052	143.04700017
1270.0	0.0005208	143.078000069
1270.0	0.0005233	143.125
1270.0	0.0005243	143.156000137
1270.0	0.0005258	143.203000069
1270.0	0.0005243	143.25
1270.0	0.0005245	143.281000137
1270.0	0.0005253	143.328000069
1270.0	0.0005268	143.375
1270.0	0.0005263	143.406000137
1270.0	0.0005253	143.453000069
1270.0	0.0005258	143.5
1270.0	0.000527	143.531000137
1270.0	0.000528	143.578000069
1270.0	0.0005258	143.608999968
1270.0	0.0005258	143.656000137
1270.0	0.0005275	143.703000069
1270.0	0.0005275	143.733999968
1270.0	0.0005255	143.781000137
1270.0	0.000525	143.828000069
1270.0	0.000525	143.858999968
1270.0	0.0005245	143.906000137
1270.0	0.0005263	143.953000069
1270.0	0.0005268	143.983999968
1270.0	0.000525	144.031000137
1270.0	0.0005245	144.078000069
1270.0	0.0005265	144.108999968
1270.0	0.0005265	144.156000137
1270.0	0.0005263	144.203000069
1270.0	0.0005245	144.233999968
1270.0	0.0005245	144.281000137
1270.0	0.000525	144.312000036
1270.0	0.000527	144.358999968
1270.0	0.0005263	144.406000137
1270.0	0.0005253	144.437000036
1270.0	0.0005263	144.483999968
1270.0	0.0005258	144.531000137
1280.0	0.0005275	144.79700017
1280.0	0.0005275	144.828000069
1280.0	0.0005283	144.875
1280.0	0.0005295	144.906000137
1280.0	0.0005308	144.953000069
1280.0	0.0005293	145.0
1280.0	0.0005293	145.031000137
1280.0	0.0005313	145.078000069
1280.0	0.0005318	145.125
1280.0	0.0005303	145.156000137
1280.0	0.00053	145.203000069
1280.0	0.00053	145.25
1280.0	0.0005308	145.281000137
1280.0	0.0005318	145.328000069
1280.0	0.0005295	145.358999968
1280.0	0.0005293	145.406000137
1280.0	0.0005308	145.453000069
1280.0	0.0005308	145.5
1280.0	0.0005315	145.531000137
1280.0	0.00053	145.578000069
1280.0	0.00053	145.608999968
1280.0	0.0005295	145.656000137
1280.0	0.0005313	145.703000069
1280.0	0.0005315	145.733999968
1280.0	0.00053	145.781000137
1280.0	0.0005295	145.828000069
1280.0	0.0005295	145.858999968
1280.0	0.0005313	145.906000137
1280.0	0.0005303	145.937000036
1280.0	0.00053	145.983999968
1280.0	0.0005293	146.031000137
1280.0	0.0005295	146.062000036
1280.0	0.0005313	146.108999968
1280.0	0.0005293	146.156000137
1280.0	0.0005283	146.187000036
1280.0	0.0005283	146.233999968
1280.0	0.000528	146.281000137
1290.0	0.00053	146.54700017
1290.0	0.00053	146.578000069
1290.0	0.0005295	146.625
1290.0	0.0005295	146.67200017
1290.0	0.0005308	146.703000069
1290.0	0.0005318	146.75
1290.0	0.0005303	146.79700017
1290.0	0.00053	146.828000069
1290.0	0.0005295	146.875
1290.0	0.0005308	146.906000137
1290.0	0.000532	146.953000069
1290.0	0.0005303	147.0
1290.0	0.00053	147.031000137
1290.0	0.000532	147.078000069
1290.0	0.0005325	147.125
1290.0	0.0005305	147.156000137
1290.0	0.0005305	147.203000069
1290.0	0.0005305	147.25
1290.0	0.0005318	147.281000137
1290.0	0.0005325	147.328000069
1290.0	0.0005305	147.358999968
1290.0	0.0005305	147.406000137
1290.0	0.0005305	147.453000069
1290.0	0.0005325	147.483999968
1290.0	0.0005305	147.531000137
1290.0	0.0005313	147.578000069
1290.0	0.0005308	147.608999968
1290.0	0.0005325	147.656000137
1290.0	0.0005325	147.687000036
1290.0	0.0005305	147.733999968
1290.0	0.0005303	147.781000137
1290.0	0.00053	147.812000036
1290.0	0.0005315	147.858999968
1290.0	0.0005305	147.906000137
1290.0	0.0005305	147.937000036
1290.0	0.0005305	147.983999968
1290.0	0.0005308	148.015000105
1300.0	0.0005305	148.29700017
1300.0	0.000529	148.328000069
1300.0	0.0005283	148.375
1300.0	0.00053	148.406000137
1300.0	0.00053	148.453000069
1300.0	0.000528	148.5
1300.0	0.0005275	148.531000137
1300.0	0.0005268	148.578000069
1300.0	0.0005288	148.625
1300.0	0.0005295	148.656000137
1300.0	0.0005275	148.703000069
1300.0	0.000527	148.75
1300.0	0.0005283	148.781000137
1300.0	0.00053	148.828000069
1300.0	0.00053	148.858999968
1300.0	0.0005288	148.906000137
1300.0	0.0005283	148.953000069
1300.0	0.0005308	148.983999968
1300.0	0.0005308	149.031000137
1300.0	0.000529	149.062000036
1300.0	0.000529	149.108999968
1300.0	0.0005288	149.156000137
1300.0	0.0005293	149.187000036
1300.0	0.0005303	149.233999968
1300.0	0.0005283	149.281000137
1300.0	0.000528	149.312000036
1300.0	0.0005275	149.358999968
1300.0	0.0005295	149.406000137
1300.0	0.0005275	149.437000036
1300.0	0.0005278	149.483999968
1300.0	0.0005275	149.515000105
1300.0	0.0005275	149.562000036
1300.0	0.0005288	149.608999968
1300.0	0.0005283	149.640000105
1300.0	0.000528	149.687000036
1300.0	0.0005278	149.733999968
1300.0	0.000529	149.765000105
1310.0	0.0005258	150.04700017
1310.0	0.0005243	150.078000069
1310.0	0.0005233	150.125
1310.0	0.0005233	150.156000137
1310.0	0.0005238	150.203000069
1310.0	0.0005218	150.25
1310.0	0.0005208	150.281000137
1310.0	0.00052	150.328000069
1310.0	0.0005213	150.375
1310.0	0.000522	150.406000137
1310.0	0.0005205	150.453000069
1310.0	0.0005208	150.483999968
1310.0	0.00052	150.531000137
1310.0	0.000522	150.578000069
1310.0	0.000523	150.608999968
1310.0	0.0005213	150.656000137
1310.0	0.0005208	150.703000069
1310.0	0.0005218	150.733999968
1310.0	0.0005225	150.781000137
1310.0	0.0005203	150.812000036
1310.0	0.00052	150.858999968
1310.0	0.0005195	150.906000137
1310.0	0.0005218	150.937000036
1310.0	0.0005213	150.983999968
1310.0	0.0005205	151.031000137
1310.0	0.0005208	151.062000036
1310.0	0.0005208	151.108999968
1310.0	0.0005228	151.140000105
1310.0	0.0005233	151.187000036
1310.0	0.0005215	151.233999968
1310.0	0.0005213	151.265000105
1310.0	0.0005218	151.312000036
1310.0	0.0005228	151.358999968
1310.0	0.0005213	151.390000105
1310.0	0.0005213	151.437000036
1310.0	0.0005208	151.483999968
1310.0	0.000523	151.515000105
1320.0	0.000515	151.79700017
1320.0	0.0005138	151.828000069
1320.0	0.0005118	151.875
1320.0	0.00051	151.906000137
1320.0	0.00051	151.953000069
1320.0	0.0005095	152.0
1320.0	0.0005078	152.04700017
1320.0	0.0005075	152.078000069
1320.0	0.0005075	152.125
1320.0	0.0005088	152.156000137
1320.0	0.0005088	152.203000069
1320.0	0.0005078	152.25
1320.0	0.0005075	152.281000137
1320.0	0.0005068	152.328000069
1320.0	0.0005083	152.375
1320.0	0.0005093	152.406000137
1320.0	0.0005075	152.453000069
1320.0	0.0005075	152.483999968
1320.0	0.0005068	152.531000137
1320.0	0.000509	152.578000069
1320.0	0.0005093	152.608999968
1320.0	0.000507	152.656000137
1320.0	0.0005068	152.703000069
1320.0	0.0005078	152.733999968
1320.0	0.0005083	152.781000137
1320.0	0.0005068	152.812000036
1320.0	0.0005063	152.858999968
1320.0	0.0005058	152.906000137
1320.0	0.000507	152.937000036
1320.0	0.0005068	152.983999968
1320.0	0.0005058	153.031000137
1320.0	0.0005058	153.062000036
1320.0	0.0005053	153.108999968
1320.0	0.0005075	153.156000137
1320.0	0.0005078	153.187000036
1320.0	0.0005055	153.233999968
1320.0	0.0005068	153.281000137
1330.0	0.0005005	153.54700017
1330.0	0.0004993	153.594000101
1330.0	0.0004968	153.625
1330.0	0.000493	153.67200017
1330.0	0.0004915	153.719000101
1330.0	0.00049	153.75
1330.0	0.0004905	153.79700017
1330.0	0.00049	153.828000069
1330.0	0.0004875	153.875
1330.0	0.0004863	153.92200017
1330.0	0.0004865	153.953000069
1330.0	0.000487	154.0
1330.0	0.0004875	154.04700017
1330.0	0.0004858	154.078000069
1330.0	0.0004863	154.125
1330.0	0.0004855	154.17200017
1330.0	0.000487	154.203000069
1330.0	0.0004875	154.25
1330.0	0.0004858	154.29700017
1330.0	0.000485	154.328000069
1330.0	0.0004853	154.375
1330.0	0.0004868	154.406000137
1330.0	0.0004865	154.453000069
1330.0	0.0004853	154.5
1330.0	0.0004853	154.54700017
1330.0	0.000485	154.578000069
1330.0	0.0004868	154.625
1330.0	0.000487	154.67200017
1330.0	0.0004855	154.703000069
1330.0	0.000485	154.75
1330.0	0.000485	154.781000137
1330.0	0.0004865	154.828000069
1330.0	0.0004858	154.875
1330.0	0.0004855	154.906000137
1330.0	0.0004858	154.953000069
1330.0	0.0004858	155.0
1340.0	0.0004758	155.265000105
1340.0	0.0004728	155.312000036
1340.0	0.00047	155.344000101
1340.0	0.0004675	155.390000105
1340.0	0.0004668	155.42200017
1340.0	0.0004655	155.469000101
1340.0	0.000463	155.515000105
1340.0	0.0004615	155.54700017
1340.0	0.0004613	155.594000101
1340.0	0.0004618	155.640000105
1340.0	0.0004615	155.67200017
1340.0	0.00046	155.719000101
1340.0	0.00046	155.75
1340.0	0.0004618	155.79700017
1340.0	0.0004618	155.844000101
1340.0	0.0004613	155.875
1340.0	0.0004608	155.92200017
1340.0	0.0004608	155.969000101
1340.0	0.000462	156.0
1340.0	0.0004618	156.04700017
1340.0	0.0004603	156.078000069
1340.0	0.0004603	156.125
1340.0	0.0004615	156.17200017
1340.0	0.000462	156.203000069
1340.0	0.0004618	156.25
1340.0	0.00046	156.29700017
1340.0	0.0004603	156.328000069
1340.0	0.0004618	156.375
1340.0	0.0004618	156.42200017
1340.0	0.0004605	156.453000069
1340.0	0.0004613	156.5
1340.0	0.0004605	156.531000137
1340.0	0.0004618	156.578000069
1340.0	0.0004615	156.625
1340.0	0.00046	156.656000137
1340.0	0.0004593	156.703000069
1340.0	0.0004608	156.75
1350.0	0.0004493	157.015000105
1350.0	0.000447	157.062000036
1350.0	0.000443	157.108999968
1350.0	0.0004413	157.140000105
1350.0	0.0004393	157.187000036
1350.0	0.0004393	157.233999968
1350.0	0.0004368	157.265000105
1350.0	0.0004375	157.312000036
1350.0	0.0004358	157.358999968
1350.0	0.0004363	157.406000137
1350.0	0.0004355	157.437000036
1350.0	0.0004345	157.483999968
1350.0	0.0004363	157.515000105
1350.0	0.0004365	157.562000036
1350.0	0.000435	157.608999968
1350.0	0.000435	157.640000105
1350.0	0.000435	157.687000036
1350.0	0.0004363	157.733999968
1350.0	0.0004363	157.765000105
1350.0	0.000435	157.812000036
1350.0	0.0004353	157.844000101
1350.0	0.0004345	157.890000105
1350.0	0.0004368	157.937000036
1350.0	0.0004368	157.969000101
1350.0	0.000435	158.015000105
1350.0	0.0004343	158.062000036
1350.0	0.0004345	158.094000101
1350.0	0.000435	158.140000105
1350.0	0.0004343	158.187000036
1350.0	0.000434	158.219000101
1350.0	0.0004343	158.265000105
1350.0	0.0004358	158.29700017
1350.0	0.0004368	158.344000101
1350.0	0.0004353	158.390000105
1350.0	0.000435	158.42200017
1350.0	0.0004355	158.469000101
1360.0	0.0004243	158.733999968
1360.0	0.0004208	158.781000137
1360.0	0.0004178	158.812000036
1360.0	0.0004165	158.858999968
1360.0	0.000415	158.890000105
1360.0	0.0004133	158.937000036
1360.0	0.0004108	158.983999968
1360.0	0.00041	159.015000105
1360.0	0.0004105	159.062000036
1360.0	0.0004113	159.108999968
1360.0	0.00041	159.140000105
1360.0	0.00041	159.187000036
1360.0	0.00041	159.233999968
1360.0	0.0004115	159.265000105
1360.0	0.0004113	159.312000036
1360.0	0.00041	159.344000101
1360.0	0.0004103	159.390000105
1360.0	0.0004108	159.437000036
1360.0	0.0004113	159.469000101
1360.0	0.0004105	159.515000105
1360.0	0.0004095	159.562000036
1360.0	0.0004103	159.594000101
1360.0	0.0004088	159.640000105
1360.0	0.00041	159.687000036
1360.0	0.00041	159.719000101
1360.0	0.000409	159.765000105
1360.0	0.000409	159.812000036
1360.0	0.000409	159.858999968
1360.0	0.0004105	159.890000105
1360.0	0.0004108	159.937000036
1360.0	0.00041	159.969000101
1360.0	0.00041	160.015000105
1360.0	0.00041	160.062000036
1360.0	0.0004113	160.094000101
1360.0	0.0004115	160.140000105
1360.0	0.0004095	160.187000036
1370.0	0.0004	160.453000069
1370.0	0.0003968	160.483999968
1370.0	0.0003943	160.531000137
1370.0	0.0003913	160.562000036
1370.0	0.0003895	160.608999968
1370.0	0.000389	160.656000137
1370.0	0.0003883	160.687000036
1370.0	0.0003868	160.733999968
1370.0	0.0003858	160.781000137
1370.0	0.0003853	160.812000036
1370.0	0.0003858	160.858999968
1370.0	0.0003863	160.890000105
1370.0	0.0003853	160.937000036
1370.0	0.0003838	160.983999968
1370.0	0.000384	161.015000105
1370.0	0.0003845	161.062000036
1370.0	0.000385	161.108999968
1370.0	0.0003843	161.140000105
1370.0	0.0003843	161.187000036
1370.0	0.0003843	161.233999968
1370.0	0.000385	161.265000105
1370.0	0.0003853	161.312000036
1370.0	0.0003843	161.344000101
1370.0	0.0003833	161.390000105
1370.0	0.000385	161.437000036
1370.0	0.000383	161.483999968
1370.0	0.000384	161.515000105
1370.0	0.0003828	161.562000036
1370.0	0.0003828	161.594000101
1370.0	0.0003828	161.640000105
1370.0	0.0003838	161.687000036
1370.0	0.0003833	161.719000101
1370.0	0.0003825	161.765000105
1370.0	0.0003828	161.812000036
1370.0	0.0003833	161.844000101
1370.0	0.0003843	161.890000105
1370.0	0.0003838	161.937000036
1380.0	0.000374	162.203000069
1380.0	0.000372	162.233999968
1380.0	0.0003693	162.281000137
1380.0	0.0003655	162.312000036
1380.0	0.0003638	162.358999968
1380.0	0.000362	162.406000137
1380.0	0.000362	162.437000036
1380.0	0.0003613	162.483999968
1380.0	0.0003608	162.531000137
1380.0	0.0003608	162.562000036
1380.0	0.0003608	162.608999968
1380.0	0.0003613	162.656000137
1380.0	0.0003603	162.687000036
1380.0	0.0003605	162.733999968
1380.0	0.0003605	162.765000105
1380.0	0.000362	162.812000036
1380.0	0.000362	162.858999968
1380.0	0.0003605	162.890000105
1380.0	0.0003605	162.937000036
1380.0	0.0003603	162.983999968
1380.0	0.0003618	163.015000105
1380.0	0.0003613	163.062000036
1380.0	0.0003595	163.094000101
1380.0	0.0003593	163.140000105
1380.0	0.0003593	163.187000036
1380.0	0.0003605	163.219000101
1380.0	0.0003593	163.265000105
1380.0	0.0003595	163.312000036
1380.0	0.0003595	163.344000101
1380.0	0.0003608	163.390000105
1380.0	0.0003613	163.42200017
1380.0	0.0003605	163.469000101
1380.0	0.00036	163.515000105
1380.0	0.00036	163.54700017
1380.0	0.0003613	163.594000101
1380.0	0.0003618	163.640000105
1380.0	0.0003603	163.67200017
1390.0	0.000353	163.937000036
1390.0	0.0003508	163.983999968
1390.0	0.000348	164.031000137
1390.0	0.000345	164.062000036
1390.0	0.000343	164.108999968
1390.0	0.0003425	164.140000105
1390.0	0.000342	164.187000036
1390.0	0.0003408	164.233999968
1390.0	0.0003403	164.265000105
1390.0	0.0003395	164.312000036
1390.0	0.0003403	164.358999968
1390.0	0.0003408	164.390000105
1390.0	0.0003395	164.437000036
1390.0	0.00034	164.483999968
1390.0	0.00034	164.515000105
1390.0	0.0003405	164.562000036
1390.0	0.0003413	164.608999968
1390.0	0.0003408	164.640000105
1390.0	0.0003405	164.687000036
1390.0	0.0003403	164.733999968
1390.0	0.0003413	164.765000105
1390.0	0.0003408	164.812000036
1390.0	0.0003393	164.858999968
1390.0	0.000339	164.890000105
1390.0	0.000339	164.937000036
1390.0	0.0003393	164.983999968
1390.0	0.00034	165.015000105
1390.0	0.0003395	165.062000036
1390.0	0.0003395	165.094000101
1390.0	0.0003395	165.140000105
1390.0	0.0003393	165.187000036
1390.0	0.0003405	165.219000101
1390.0	0.00034	165.265000105
1390.0	0.0003395	165.312000036
1390.0	0.000339	165.344000101
1390.0	0.00034	165.390000105
1390.0	0.00034	165.42200017
1400.0	0.000334	165.703000069
1400.0	0.0003308	165.733999968
1400.0	0.0003305	165.781000137
1400.0	0.0003293	165.812000036
1400.0	0.000327	165.858999968
1400.0	0.000327	165.906000137
1400.0	0.0003258	165.953000069
1400.0	0.0003268	165.983999968
1400.0	0.0003268	166.031000137
1400.0	0.0003253	166.062000036
1400.0	0.000325	166.108999968
1400.0	0.0003245	166.156000137
1400.0	0.000325	166.187000036
1400.0	0.0003255	166.233999968
1400.0	0.0003245	166.281000137
1400.0	0.0003243	166.312000036
1400.0	0.0003243	166.358999968
1400.0	0.0003253	166.390000105
1400.0	0.000325	166.437000036
1400.0	0.000324	166.483999968
1400.0	0.0003238	166.515000105
1400.0	0.0003238	166.562000036
1400.0	0.000325	166.608999968
1400.0	0.0003243	166.640000105
1400.0	0.0003245	166.687000036
1400.0	0.000325	166.733999968
1400.0	0.0003263	166.765000105
1400.0	0.0003265	166.812000036
1400.0	0.0003245	166.844000101
1400.0	0.0003245	166.890000105
1400.0	0.0003245	166.937000036
1400.0	0.0003255	166.969000101
1400.0	0.0003255	167.015000105
1400.0	0.0003245	167.062000036
1400.0	0.0003245	167.094000101
1400.0	0.000325	167.140000105
1400.0	0.0003255	167.187000036
1410.0	0.000322	167.453000069
1410.0	0.0003195	167.483999968
1410.0	0.0003203	167.531000137
1410.0	0.0003195	167.562000036
1410.0	0.0003183	167.608999968
1410.0	0.0003178	167.656000137
1410.0	0.0003175	167.687000036
1410.0	0.000318	167.733999968
1410.0	0.0003175	167.781000137
1410.0	0.0003165	167.812000036
1410.0	0.0003158	167.858999968
1410.0	0.0003165	167.890000105
1410.0	0.0003168	167.937000036
1410.0	0.0003155	167.983999968
1410.0	0.0003153	168.015000105
1410.0	0.0003153	168.062000036
1410.0	0.0003165	168.108999968
1410.0	0.0003168	168.140000105
1410.0	0.0003155	168.187000036
1410.0	0.0003153	168.219000101
1410.0	0.0003163	168.265000105
1410.0	0.0003155	168.312000036
1410.0	0.0003165	168.358999968
1410.0	0.0003165	168.390000105
1410.0	0.0003163	168.437000036
1410.0	0.0003165	168.483999968
1410.0	0.0003175	168.515000105
1410.0	0.0003175	168.562000036
1410.0	0.0003165	168.594000101
1410.0	0.0003165	168.640000105
1410.0	0.0003163	168.687000036
1410.0	0.0003168	168.719000101
1410.0	0.000317	168.765000105
1410.0	0.0003158	168.812000036
1410.0	0.0003155	168.844000101
1410.0	0.0003155	168.890000105
1410.0	0.0003165	168.92200017
1420.0	0.000315	169.203000069
1420.0	0.0003133	169.233999968
1420.0	0.0003133	169.281000137
1420.0	0.000313	169.328000069
1420.0	0.0003138	169.358999968
1420.0	0.000313	169.406000137
1420.0	0.0003128	169.453000069
1420.0	0.0003133	169.483999968
1420.0	0.0003143	169.531000137
1420.0	0.000314	169.562000036
1420.0	0.0003125	169.608999968
1420.0	0.0003125	169.656000137
1420.0	0.0003138	169.703000069
1420.0	0.0003133	169.733999968
1420.0	0.0003138	169.781000137
1420.0	0.000313	169.812000036
1420.0	0.0003133	169.858999968
1420.0	0.0003133	169.906000137
1420.0	0.0003145	169.937000036
1420.0	0.0003145	169.983999968
1420.0	0.0003133	170.031000137
1420.0	0.000313	170.062000036
1420.0	0.0003128	170.108999968
1420.0	0.0003125	170.156000137
1420.0	0.0003133	170.187000036
1420.0	0.0003125	170.233999968
1420.0	0.0003125	170.281000137
1420.0	0.0003125	170.312000036
1420.0	0.000313	170.358999968
1420.0	0.000313	170.406000137
1420.0	0.0003118	170.437000036
1420.0	0.0003113	170.483999968
1420.0	0.0003108	170.515000105
1420.0	0.000312	170.562000036
1420.0	0.0003113	170.608999968
1420.0	0.0003125	170.656000137
1430.0	0.0003138	170.92200017
1430.0	0.0003133	170.953000069
1430.0	0.0003143	171.0
1430.0	0.0003153	171.04700017
1430.0	0.0003158	171.078000069
1430.0	0.0003145	171.125
1430.0	0.0003155	171.17200017
1430.0	0.0003158	171.203000069
1430.0	0.0003168	171.25
1430.0	0.0003158	171.29700017
1430.0	0.0003158	171.328000069
1430.0	0.0003155	171.375
1430.0	0.0003165	171.406000137
1430.0	0.0003175	171.453000069
1430.0	0.0003163	171.5
1430.0	0.0003163	171.531000137
1430.0	0.0003175	171.578000069
1430.0	0.0003168	171.625
1430.0	0.0003158	171.656000137
1430.0	0.0003155	171.703000069
1430.0	0.0003158	171.75
1430.0	0.0003168	171.781000137
1430.0	0.0003168	171.828000069
1430.0	0.0003155	171.858999968
1430.0	0.0003155	171.906000137
1430.0	0.0003155	171.953000069
1430.0	0.0003168	171.983999968
1430.0	0.0003175	172.031000137
1430.0	0.0003168	172.062000036
1430.0	0.000317	172.108999968
1430.0	0.0003163	172.156000137
1430.0	0.0003175	172.187000036
1430.0	0.0003158	172.233999968
1430.0	0.0003153	172.281000137
1430.0	0.0003153	172.312000036
1430.0	0.0003163	172.358999968
1430.0	0.0003165	172.406000137
1440.0	0.0003188	172.67200017
1440.0	0.0003193	172.719000101
1440.0	0.0003193	172.75
1440.0	0.0003203	172.79700017
1440.0	0.0003203	172.828000069
1440.0	0.0003205	172.875
1440.0	0.0003208	172.92200017
1440.0	0.0003225	172.953000069
1440.0	0.0003218	173.0
1440.0	0.000323	173.04700017
1440.0	0.0003225	173.078000069
1440.0	0.0003228	173.125
1440.0	0.0003228	173.17200017
1440.0	0.0003238	173.203000069
1440.0	0.0003238	173.25
1440.0	0.000323	173.29700017
1440.0	0.0003228	173.328000069
1440.0	0.0003233	173.375
1440.0	0.0003233	173.42200017
1440.0	0.0003225	173.453000069
1440.0	0.0003228	173.5
1440.0	0.000323	173.531000137
1440.0	0.0003245	173.578000069
1440.0	0.0003245	173.625
1440.0	0.0003238	173.656000137
1440.0	0.0003238	173.703000069
1440.0	0.0003233	173.75
1440.0	0.0003243	173.781000137
1440.0	0.0003243	173.828000069
1440.0	0.0003228	173.858999968
1440.0	0.0003225	173.906000137
1440.0	0.0003228	173.953000069
1440.0	0.0003233	173.983999968
1440.0	0.0003228	174.031000137
1440.0	0.0003228	174.078000069
1440.0	0.000323	174.108999968
1440.0	0.0003238	174.156000137
1450.0	0.0003278	174.42200017
1450.0	0.0003283	174.469000101
1450.0	0.00033	174.5
1450.0	0.000332	174.54700017
1450.0	0.0003328	174.578000069
1450.0	0.0003318	174.625
1450.0	0.0003318	174.67200017
1450.0	0.0003318	174.703000069
1450.0	0.000333	174.75
1450.0	0.0003338	174.79700017
1450.0	0.000333	174.828000069
1450.0	0.000333	174.875
1450.0	0.000334	174.906000137
1450.0	0.0003338	174.953000069
1450.0	0.0003325	175.0
1450.0	0.000332	175.031000137
1450.0	0.0003325	175.078000069
1450.0	0.000333	175.125
1450.0	0.0003325	175.156000137
1450.0	0.000332	175.203000069
1450.0	0.0003325	175.25
1450.0	0.0003333	175.281000137
1450.0	0.0003338	175.328000069
1450.0	0.0003325	175.358999968
1450.0	0.000333	175.406000137
1450.0	0.000333	175.453000069
1450.0	0.0003338	175.483999968
1450.0	0.0003343	175.531000137
1450.0	0.000333	175.562000036
1450.0	0.000333	175.608999968
1450.0	0.000333	175.656000137
1450.0	0.0003343	175.687000036
1450.0	0.0003343	175.733999968
1450.0	0.000333	175.781000137
1450.0	0.000333	175.812000036
1450.0	0.0003333	175.858999968
1450.0	0.0003345	175.890000105
1460.0	0.000337	176.17200017
1460.0	0.0003388	176.203000069
1460.0	0.0003408	176.25
1460.0	0.0003418	176.281000137
1460.0	0.0003428	176.328000069
1460.0	0.000342	176.375
1460.0	0.000342	176.406000137
1460.0	0.000344	176.453000069
1460.0	0.0003443	176.5
1460.0	0.0003438	176.531000137
1460.0	0.0003438	176.578000069
1460.0	0.0003438	176.625
1460.0	0.0003445	176.656000137
1460.0	0.0003453	176.703000069
1460.0	0.0003443	176.733999968
1460.0	0.0003443	176.781000137
1460.0	0.0003445	176.828000069
1460.0	0.000345	176.858999968
1460.0	0.0003453	176.906000137
1460.0	0.0003443	176.953000069
1460.0	0.0003443	176.983999968
1460.0	0.0003453	177.031000137
1460.0	0.0003453	177.062000036
1460.0	0.000344	177.108999968
1460.0	0.0003433	177.156000137
1460.0	0.0003438	177.187000036
1460.0	0.000344	177.233999968
1460.0	0.000344	177.281000137
1460.0	0.000343	177.312000036
1460.0	0.000343	177.358999968
1460.0	0.000343	177.390000105
1460.0	0.0003443	177.437000036
1460.0	0.0003443	177.483999968
1460.0	0.0003438	177.515000105
1460.0	0.0003438	177.562000036
1460.0	0.0003455	177.608999968
1460.0	0.0003455	177.640000105
1470.0	0.000348	177.92200017
1470.0	0.0003488	177.953000069
1470.0	0.0003508	178.0
1470.0	0.0003518	178.04700017
1470.0	0.0003513	178.078000069
1470.0	0.0003518	178.125
1470.0	0.0003518	178.156000137
1470.0	0.0003533	178.203000069
1470.0	0.0003538	178.25
1470.0	0.000353	178.281000137
1470.0	0.0003538	178.328000069
1470.0	0.000354	178.375
1470.0	0.000355	178.406000137
1470.0	0.0003545	178.453000069
1470.0	0.0003533	178.483999968
1470.0	0.000353	178.531000137
1470.0	0.000353	178.578000069
1470.0	0.0003538	178.608999968
1470.0	0.0003528	178.656000137
1470.0	0.000353	178.687000036
1470.0	0.000353	178.733999968
1470.0	0.000354	178.781000137
1470.0	0.0003533	178.812000036
1470.0	0.000352	178.858999968
1470.0	0.0003518	178.906000137
1470.0	0.0003515	178.937000036
1470.0	0.000353	178.983999968
1470.0	0.000353	179.031000137
1470.0	0.000352	179.062000036
1470.0	0.0003525	179.108999968
1470.0	0.0003528	179.140000105
1470.0	0.0003543	179.187000036
1470.0	0.0003533	179.233999968
1470.0	0.000353	179.265000105
1470.0	0.0003528	179.312000036
1470.0	0.0003543	179.358999968
1470.0	0.0003543	179.390000105
1480.0	0.000355	179.656000137
1480.0	0.0003545	179.703000069
1480.0	0.000357	179.75
1480.0	0.0003575	179.781000137
1480.0	0.000357	179.828000069
1480.0	0.0003575	179.858999968
1480.0	0.0003583	179.906000137
1480.0	0.00036	179.953000069
1480.0	0.0003603	179.983999968
1480.0	0.0003593	180.031000137
1480.0	0.000359	180.078000069
1480.0	0.000359	180.108999968
1480.0	0.0003605	180.156000137
1480.0	0.0003593	180.187000036
1480.0	0.000359	180.233999968
1480.0	0.0003588	180.281000137
1480.0	0.00036	180.312000036
1480.0	0.000359	180.358999968
1480.0	0.0003603	180.406000137
1480.0	0.0003593	180.437000036
1480.0	0.000359	180.483999968
1480.0	0.000359	180.531000137
1480.0	0.0003593	180.562000036
1480.0	0.0003593	180.608999968
1480.0	0.000358	180.656000137
1480.0	0.000358	180.687000036
1480.0	0.0003595	180.733999968
1480.0	0.00036	180.781000137
1480.0	0.0003603	180.812000036
1480.0	0.0003595	180.858999968
1480.0	0.0003595	180.906000137
1480.0	0.0003595	180.937000036
1480.0	0.0003608	180.983999968
1480.0	0.0003605	181.031000137
1480.0	0.0003593	181.062000036
1480.0	0.0003593	181.108999968
1480.0	0.0003593	181.140000105
1490.0	0.0003618	181.42200017
1490.0	0.000362	181.453000069
1490.0	0.000362	181.5
1490.0	0.0003628	181.54700017
1490.0	0.0003643	181.578000069
1490.0	0.0003645	181.625
1490.0	0.0003633	181.67200017
1490.0	0.0003633	181.703000069
1490.0	0.0003638	181.75
1490.0	0.000365	181.79700017
1490.0	0.0003643	181.828000069
1490.0	0.0003638	181.875
1490.0	0.0003633	181.906000137
1490.0	0.0003633	181.953000069
1490.0	0.0003643	182.0
1490.0	0.000363	182.031000137
1490.0	0.0003633	182.078000069
1490.0	0.000363	182.125
1490.0	0.0003643	182.156000137
1490.0	0.0003638	182.203000069
1490.0	0.0003633	182.233999968
1490.0	0.000363	182.281000137
1490.0	0.000363	182.328000069
1490.0	0.0003643	182.358999968
1490.0	0.0003643	182.406000137
1490.0	0.0003638	182.453000069
1490.0	0.0003633	182.483999968
1490.0	0.0003643	182.531000137
1490.0	0.0003645	182.562000036
1490.0	0.000363	182.608999968
1490.0	0.0003633	182.656000137
1490.0	0.0003633	182.687000036
1490.0	0.000365	182.733999968
1490.0	0.000365	182.781000137
1490.0	0.000364	182.812000036
1490.0	0.0003633	182.858999968
1490.0	0.0003633	182.890000105
1500.0	0.0003643	183.17200017
1500.0	0.0003658	183.203000069
1500.0	0.000365	183.25
1500.0	0.0003653	183.29700017
1500.0	0.000365	183.328000069
1500.0	0.0003663	183.375
1500.0	0.0003653	183.42200017
1500.0	0.0003645	183.453000069
1500.0	0.0003645	183.5
1500.0	0.0003663	183.531000137
1500.0	0.0003665	183.578000069
1500.0	0.0003655	183.625
1500.0	0.0003655	183.656000137
1500.0	0.0003655	183.703000069
1500.0	0.000367	183.75
1500.0	0.0003658	183.781000137
1500.0	0.0003658	183.828000069
1500.0	0.0003663	183.875
1500.0	0.0003658	183.906000137
1500.0	0.0003678	183.953000069
1500.0	0.0003678	184.0
1500.0	0.0003665	184.031000137
1500.0	0.0003663	184.078000069
1500.0	0.0003658	184.125
1500.0	0.0003668	184.156000137
1500.0	0.0003663	184.203000069
1500.0	0.000365	184.233999968
1500.0	0.0003655	184.281000137
1500.0	0.0003653	184.328000069
1500.0	0.0003653	184.375
1500.0	0.0003668	184.406000137
1500.0	0.0003663	184.453000069
1500.0	0.0003663	184.483999968
1500.0	0.0003658	184.531000137
1500.0	0.0003655	184.578000069
1500.0	0.0003668	184.608999968
1500.0	0.0003663	184.656000137
1510.0	0.000367	184.937000036
1510.0	0.0003658	184.969000101
1510.0	0.0003663	185.015000105
1510.0	0.0003675	185.04700017
1510.0	0.0003663	185.094000101
1510.0	0.0003665	185.140000105
1510.0	0.0003668	185.17200017
1510.0	0.0003678	185.219000101
1510.0	0.0003675	185.265000105
1510.0	0.0003663	185.29700017
1510.0	0.0003665	185.344000101
1510.0	0.0003663	185.375
1510.0	0.000368	185.42200017
1510.0	0.0003678	185.469000101
1510.0	0.0003668	185.5
1510.0	0.0003665	185.54700017
1510.0	0.000367	185.594000101
1510.0	0.0003675	185.625
1510.0	0.0003663	185.67200017
1510.0	0.0003663	185.719000101
1510.0	0.0003663	185.75
1510.0	0.0003675	185.79700017
1510.0	0.0003678	185.828000069
1510.0	0.0003663	185.875
1510.0	0.0003663	185.92200017
1510.0	0.0003668	185.953000069
1510.0	0.000368	186.0
1510.0	0.000368	186.04700017
1510.0	0.000367	186.078000069
1510.0	0.000367	186.125
1510.0	0.0003678	186.156000137
1510.0	0.0003688	186.203000069
1510.0	0.0003678	186.25
1510.0	0.0003678	186.281000137
1510.0	0.0003675	186.328000069
1510.0	0.0003678	186.375
1510.0	0.0003688	186.406000137
1520.0	0.0003665	186.687000036
1520.0	0.0003668	186.719000101
1520.0	0.0003668	186.765000105
1520.0	0.0003668	186.812000036
1520.0	0.000368	186.844000101
1520.0	0.000368	186.890000105
1520.0	0.000367	186.937000036
1520.0	0.0003675	186.969000101
1520.0	0.0003675	187.015000105
1520.0	0.0003688	187.04700017
1520.0	0.000369	187.094000101
1520.0	0.0003678	187.140000105
1520.0	0.0003675	187.17200017
1520.0	0.000369	187.219000101
1520.0	0.000369	187.265000105
1520.0	0.0003675	187.29700017
1520.0	0.000367	187.344000101
1520.0	0.0003675	187.375
1520.0	0.000368	187.42200017
1520.0	0.0003678	187.469000101
1520.0	0.0003665	187.5
1520.0	0.0003663	187.54700017
1520.0	0.0003678	187.594000101
1520.0	0.0003675	187.625
1520.0	0.0003665	187.67200017
1520.0	0.0003668	187.719000101
1520.0	0.0003668	187.75
1520.0	0.0003688	187.79700017
1520.0	0.0003688	187.828000069
1520.0	0.0003675	187.875
1520.0	0.0003675	187.92200017
1520.0	0.0003688	187.969000101
1520.0	0.0003678	188.0
1520.0	0.0003688	188.04700017
1520.0	0.0003675	188.078000069
1520.0	0.000367	188.125
1520.0	0.000367	188.17200017
1530.0	0.000367	188.437000036
1530.0	0.000368	188.483999968
1530.0	0.0003678	188.531000137
1530.0	0.0003663	188.562000036
1530.0	0.0003663	188.608999968
1530.0	0.0003658	188.656000137
1530.0	0.0003665	188.687000036
1530.0	0.0003675	188.733999968
1530.0	0.0003663	188.781000137
1530.0	0.0003658	188.812000036
1530.0	0.0003658	188.858999968
1530.0	0.0003655	188.906000137
1530.0	0.0003668	188.937000036
1530.0	0.0003663	188.983999968
1530.0	0.0003663	189.031000137
1530.0	0.0003658	189.062000036
1530.0	0.0003658	189.108999968
1530.0	0.0003668	189.156000137
1530.0	0.0003655	189.187000036
1530.0	0.0003653	189.233999968
1530.0	0.0003645	189.265000105
1530.0	0.0003665	189.312000036
1530.0	0.0003653	189.358999968
1530.0	0.0003663	189.406000137
1530.0	0.0003653	189.437000036
1530.0	0.0003655	189.483999968
1530.0	0.0003663	189.515000105
1530.0	0.0003675	189.562000036
1530.0	0.0003668	189.608999968
1530.0	0.0003665	189.640000105
1530.0	0.0003663	189.687000036
1530.0	0.000367	189.733999968
1530.0	0.0003675	189.765000105
1530.0	0.0003665	189.812000036
1530.0	0.0003663	189.844000101
1530.0	0.0003665	189.890000105
1530.0	0.0003675	189.937000036
1540.0	0.0003643	190.203000069
1540.0	0.000365	190.25
1540.0	0.000363	190.29700017
1540.0	0.000363	190.344000101
1540.0	0.0003638	190.375
1540.0	0.0003633	190.42200017
1540.0	0.0003643	190.469000101
1540.0	0.000365	190.5
1540.0	0.000364	190.54700017
1540.0	0.000364	190.594000101
1540.0	0.000364	190.625
1540.0	0.000365	190.67200017
1540.0	0.0003653	190.703000069
1540.0	0.0003638	190.75
1540.0	0.0003633	190.79700017
1540.0	0.0003628	190.828000069
1540.0	0.0003638	190.875
1540.0	0.000364	190.92200017
1540.0	0.000363	190.953000069
1540.0	0.000363	191.0
1540.0	0.0003643	191.031000137
1540.0	0.000365	191.078000069
1540.0	0.0003643	191.125
1540.0	0.0003645	191.156000137
1540.0	0.0003645	191.203000069
1540.0	0.0003658	191.25
1540.0	0.0003663	191.281000137
1540.0	0.0003645	191.328000069
1540.0	0.000364	191.358999968
1540.0	0.0003645	191.406000137
1540.0	0.0003655	191.453000069
1540.0	0.000364	191.483999968
1540.0	0.0003633	191.531000137
1540.0	0.0003638	191.578000069
1540.0	0.000365	191.608999968
1540.0	0.0003643	191.656000137
1540.0	0.000364	191.687000036
1550.0	0.0003625	191.969000101
1550.0	0.0003608	192.015000105
1550.0	0.00036	192.04700017
1550.0	0.0003613	192.094000101
1550.0	0.0003605	192.140000105
1550.0	0.0003593	192.187000036
1550.0	0.0003593	192.219000101
1550.0	0.0003593	192.265000105
1550.0	0.0003603	192.29700017
1550.0	0.00036	192.344000101
1550.0	0.0003595	192.390000105
1550.0	0.000358	192.42200017
1550.0	0.0003583	192.469000101
1550.0	0.0003603	192.515000105
1550.0	0.00036	192.54700017
1550.0	0.0003593	192.594000101
1550.0	0.0003603	192.640000105
1550.0	0.0003593	192.67200017
1550.0	0.00036	192.719000101
1550.0	0.0003603	192.765000105
1550.0	0.00036	192.79700017
1550.0	0.0003588	192.844000101
1550.0	0.0003588	192.890000105
1550.0	0.0003588	192.937000036
1550.0	0.0003583	192.969000101
1550.0	0.0003593	193.015000105
1550.0	0.0003595	193.062000036
1550.0	0.0003583	193.094000101
1550.0	0.0003583	193.140000105
1550.0	0.000358	193.187000036
1550.0	0.0003595	193.219000101
1550.0	0.00036	193.265000105
1550.0	0.0003588	193.312000036
1550.0	0.0003588	193.344000101
1550.0	0.0003595	193.390000105
1550.0	0.00036	193.437000036
1560.0	0.0003555	193.703000069
1560.0	0.0003553	193.75
1560.0	0.000354	193.79700017
1560.0	0.0003518	193.828000069
1560.0	0.0003515	193.875
1560.0	0.0003515	193.906000137
1560.0	0.0003508	193.953000069
1560.0	0.000349	194.0
1560.0	0.0003488	194.031000137
1560.0	0.0003483	194.078000069
1560.0	0.00035	194.125
1560.0	0.00035	194.156000137
1560.0	0.0003493	194.203000069
1560.0	0.0003495	194.233999968
1560.0	0.0003505	194.281000137
1560.0	0.0003515	194.328000069
1560.0	0.0003503	194.358999968
1560.0	0.0003503	194.406000137
1560.0	0.0003505	194.453000069
1560.0	0.0003513	194.483999968
1560.0	0.0003508	194.531000137
1560.0	0.00035	194.562000036
1560.0	0.00035	194.608999968
1560.0	0.0003495	194.656000137
1560.0	0.0003505	194.687000036
1560.0	0.0003503	194.733999968
1560.0	0.0003495	194.781000137
1560.0	0.0003495	194.812000036
1560.0	0.0003508	194.858999968
1560.0	0.0003513	194.906000137
1560.0	0.0003495	194.937000036
1560.0	0.0003493	194.983999968
1560.0	0.0003493	195.031000137
1560.0	0.000349	195.062000036
1560.0	0.00035	195.108999968
1560.0	0.00035	195.156000137
1560.0	0.000349	195.187000036
1570.0	0.0003455	195.469000101
1570.0	0.000343	195.5
1570.0	0.000342	195.54700017
1570.0	0.0003418	195.594000101
1570.0	0.0003408	195.625
1570.0	0.0003388	195.67200017
1570.0	0.0003388	195.719000101
1570.0	0.0003393	195.75
1570.0	0.000339	195.79700017
1570.0	0.0003378	195.828000069
1570.0	0.000338	195.875
1570.0	0.0003378	195.92200017
1570.0	0.000339	195.953000069
1570.0	0.0003383	196.0
1570.0	0.0003378	196.04700017
1570.0	0.0003375	196.078000069
1570.0	0.0003383	196.125
1570.0	0.0003383	196.156000137
1570.0	0.0003378	196.203000069
1570.0	0.0003365	196.25
1570.0	0.0003365	196.281000137
1570.0	0.0003375	196.328000069
1570.0	0.0003365	196.375
1570.0	0.0003358	196.406000137
1570.0	0.0003358	196.453000069
1570.0	0.0003363	196.5
1570.0	0.000337	196.531000137
1570.0	0.0003375	196.578000069
1570.0	0.0003363	196.608999968
1570.0	0.0003358	196.656000137
1570.0	0.0003365	196.703000069
1570.0	0.000337	196.733999968
1570.0	0.0003355	196.781000137
1570.0	0.0003358	196.828000069
1570.0	0.0003365	196.858999968
1570.0	0.0003375	196.906000137
1570.0	0.0003375	196.937000036
1580.0	0.0003305	197.219000101
1580.0	0.0003288	197.265000105
1580.0	0.0003268	197.29700017
1580.0	0.0003253	197.344000101
1580.0	0.000325	197.390000105
1580.0	0.0003233	197.42200017
1580.0	0.0003228	197.469000101
1580.0	0.000322	197.5
1580.0	0.000323	197.54700017
1580.0	0.000323	197.594000101
1580.0	0.000322	197.625
1580.0	0.0003218	197.67200017
1580.0	0.0003225	197.719000101
1580.0	0.0003233	197.75
1580.0	0.0003233	197.79700017
1580.0	0.000322	197.844000101
1580.0	0.0003218	197.875
1580.0	0.0003233	197.92200017
1580.0	0.0003233	197.953000069
1580.0	0.0003225	198.0
1580.0	0.0003215	198.04700017
1580.0	0.0003215	198.078000069
1580.0	0.000322	198.125
1580.0	0.000322	198.17200017
1580.0	0.0003215	198.203000069
1580.0	0.0003215	198.25
1580.0	0.0003215	198.281000137
1580.0	0.0003225	198.328000069
1580.0	0.0003228	198.375
1580.0	0.0003215	198.406000137
1580.0	0.0003213	198.453000069
1580.0	0.000322	198.5
1580.0	0.000323	198.531000137
1580.0	0.0003225	198.578000069
1580.0	0.0003218	198.608999968
1580.0	0.0003218	198.656000137
1580.0	0.000323	198.703000069
1590.0	0.0003145	198.969000101
1590.0	0.000312	199.015000105
1590.0	0.0003093	199.062000036
1590.0	0.0003075	199.094000101
1590.0	0.0003063	199.140000105
1590.0	0.0003068	199.17200017
1590.0	0.0003045	199.219000101
1590.0	0.0003043	199.265000105
1590.0	0.0003043	199.29700017
1590.0	0.0003053	199.344000101
1590.0	0.000305	199.390000105
1590.0	0.0003043	199.42200017
1590.0	0.0003045	199.469000101
1590.0	0.000305	199.5
1590.0	0.0003055	199.54700017
1590.0	0.000305	199.594000101
1590.0	0.000304	199.625
1590.0	0.0003038	199.67200017
1590.0	0.0003033	199.719000101
1590.0	0.000304	199.75
1590.0	0.0003038	199.79700017
1590.0	0.0003025	199.828000069
1590.0	0.0003028	199.875
1590.0	0.0003038	199.92200017
1590.0	0.0003045	199.953000069
1590.0	0.0003038	200.0
1590.0	0.0003038	200.04700017
1590.0	0.000304	200.078000069
1590.0	0.000305	200.125
1590.0	0.000305	200.17200017
1590.0	0.000304	200.203000069
1590.0	0.0003038	200.25
1590.0	0.0003033	200.281000137
1590.0	0.0003043	200.328000069
1590.0	0.000304	200.375
1590.0	0.0003025	200.406000137
1590.0	0.000302	200.453000069
1600.0	0.0002963	200.733999968
1600.0	0.0002943	200.765000105
1600.0	0.0002918	200.812000036
1600.0	0.000289	200.844000101
1600.0	0.0002875	200.890000105
1600.0	0.0002863	200.937000036
1600.0	0.0002865	200.969000101
1600.0	0.000285	201.015000105
1600.0	0.000284	201.062000036
1600.0	0.0002843	201.094000101
1600.0	0.0002843	201.140000105
1600.0	0.0002845	201.17200017
1600.0	0.0002838	201.219000101
1600.0	0.0002838	201.265000105
1600.0	0.0002833	201.29700017
1600.0	0.000285	201.344000101
1600.0	0.0002845	201.390000105
1600.0	0.0002838	201.42200017
1600.0	0.0002838	201.469000101
1600.0	0.0002838	201.5
1600.0	0.0002845	201.54700017
1600.0	0.0002843	201.594000101
1600.0	0.0002833	201.625
1600.0	0.0002833	201.67200017
1600.0	0.0002833	201.719000101
1600.0	0.0002838	201.75
1600.0	0.0002838	201.79700017
1600.0	0.000282	201.844000101
1600.0	0.0002825	201.875
1600.0	0.0002838	201.92200017
1600.0	0.0002833	201.953000069
1600.0	0.000283	202.0
1600.0	0.000283	202.04700017
1600.0	0.0002833	202.078000069
1600.0	0.0002845	202.125
1600.0	0.0002845	202.17200017
1600.0	0.000284	202.203000069
1610.0	0.0002758	202.483999968
1610.0	0.000272	202.531000137
1610.0	0.0002693	202.562000036
1610.0	0.000268	202.608999968
1610.0	0.0002665	202.656000137
1610.0	0.0002645	202.687000036
1610.0	0.0002638	202.733999968
1610.0	0.000263	202.765000105
1610.0	0.0002633	202.812000036
1610.0	0.0002628	202.858999968
1610.0	0.0002618	202.890000105
1610.0	0.0002615	202.937000036
1610.0	0.0002613	202.983999968
1610.0	0.000262	203.015000105
1610.0	0.0002618	203.062000036
1610.0	0.0002615	203.094000101
1610.0	0.0002618	203.140000105
1610.0	0.0002628	203.187000036
1610.0	0.0002625	203.219000101
1610.0	0.0002615	203.265000105
1610.0	0.0002613	203.312000036
1610.0	0.0002615	203.344000101
1610.0	0.0002618	203.390000105
1610.0	0.0002605	203.42200017
1610.0	0.0002605	203.469000101
1610.0	0.0002605	203.515000105
1610.0	0.0002608	203.54700017
1610.0	0.0002613	203.594000101
1610.0	0.0002605	203.640000105
1610.0	0.0002603	203.67200017
1610.0	0.0002605	203.719000101
1610.0	0.0002613	203.765000105
1610.0	0.0002613	203.79700017
1610.0	0.0002618	203.844000101
1610.0	0.0002605	203.890000105
1610.0	0.0002608	203.92200017
1610.0	0.0002615	203.969000101
1620.0	0.000253	204.25
1620.0	0.0002493	204.281000137
1620.0	0.0002468	204.328000069
1620.0	0.0002433	204.375
1620.0	0.0002415	204.406000137
1620.0	0.0002405	204.453000069
1620.0	0.0002403	204.5
1620.0	0.0002388	204.531000137
1620.0	0.000238	204.578000069
1620.0	0.0002383	204.625
1620.0	0.0002378	204.656000137
1620.0	0.000238	204.703000069
1620.0	0.0002388	204.75
1620.0	0.0002375	204.781000137
1620.0	0.0002375	204.828000069
1620.0	0.000237	204.875
1620.0	0.0002378	204.906000137
1620.0	0.0002375	204.953000069
1620.0	0.0002368	204.983999968
1620.0	0.000237	205.031000137
1620.0	0.000238	205.078000069
1620.0	0.0002378	205.108999968
1620.0	0.0002375	205.156000137
1620.0	0.0002368	205.203000069
1620.0	0.0002363	205.233999968
1620.0	0.000237	205.281000137
1620.0	0.0002378	205.312000036
1620.0	0.0002375	205.358999968
1620.0	0.0002368	205.406000137
1620.0	0.000237	205.437000036
1620.0	0.0002375	205.483999968
1620.0	0.0002375	205.531000137
1620.0	0.0002368	205.562000036
1620.0	0.0002368	205.608999968
1620.0	0.0002368	205.640000105
1620.0	0.0002378	205.687000036
1620.0	0.0002368	205.733999968
1630.0	0.0002265	206.015000105
1630.0	0.000224	206.04700017
1630.0	0.0002205	206.094000101
1630.0	0.0002183	206.140000105
1630.0	0.000217	206.17200017
1630.0	0.0002163	206.219000101
1630.0	0.0002153	206.265000105
1630.0	0.000214	206.29700017
1630.0	0.0002138	206.344000101
1630.0	0.000214	206.390000105
1630.0	0.0002133	206.42200017
1630.0	0.000213	206.469000101
1630.0	0.0002125	206.5
1630.0	0.000213	206.54700017
1630.0	0.0002138	206.594000101
1630.0	0.000213	206.625
1630.0	0.0002125	206.67200017
1630.0	0.0002125	206.719000101
1630.0	0.0002128	206.75
1630.0	0.0002133	206.79700017
1630.0	0.000213	206.828000069
1630.0	0.0002128	206.875
1630.0	0.0002125	206.92200017
1630.0	0.0002128	206.953000069
1630.0	0.0002138	207.0
1630.0	0.0002128	207.04700017
1630.0	0.0002128	207.078000069
1630.0	0.0002128	207.125
1630.0	0.0002133	207.156000137
1630.0	0.000213	207.203000069
1630.0	0.0002125	207.25
1630.0	0.0002125	207.281000137
1630.0	0.0002128	207.328000069
1630.0	0.000213	207.375
1630.0	0.0002128	207.406000137
1630.0	0.0002125	207.453000069
1630.0	0.0002125	207.483999968
1640.0	0.0002033	207.781000137
1640.0	0.0002003	207.812000036
1640.0	0.0001978	207.858999968
1640.0	0.0001965	207.890000105
1640.0	0.000195	207.937000036
1640.0	0.000193	207.983999968
1640.0	0.000192	208.015000105
1640.0	0.0001918	208.062000036
1640.0	0.000192	208.108999968
1640.0	0.0001918	208.140000105
1640.0	0.0001908	208.187000036
1640.0	0.0001905	208.233999968
1640.0	0.0001915	208.265000105
1640.0	0.0001913	208.312000036
1640.0	0.0001905	208.344000101
1640.0	0.0001905	208.390000105
1640.0	0.0001905	208.437000036
1640.0	0.0001915	208.469000101
1640.0	0.0001915	208.515000105
1640.0	0.0001908	208.562000036
1640.0	0.0001908	208.594000101
1640.0	0.0001913	208.640000105
1640.0	0.0001913	208.67200017
1640.0	0.0001913	208.719000101
1640.0	0.0001903	208.765000105
1640.0	0.00019	208.79700017
1640.0	0.0001905	208.844000101
1640.0	0.0001903	208.890000105
1640.0	0.0001893	208.92200017
1640.0	0.0001893	208.969000101
1640.0	0.0001893	209.0
1640.0	0.00019	209.04700017
1640.0	0.0001903	209.094000101
1640.0	0.00019	209.125
1640.0	0.00019	209.17200017
1640.0	0.0001895	209.219000101
1640.0	0.0001908	209.25
1650.0	0.0001818	209.531000137
1650.0	0.000179	209.578000069
1650.0	0.0001765	209.625
1650.0	0.0001743	209.656000137
1650.0	0.0001733	209.703000069
1650.0	0.0001725	209.75
1650.0	0.0001713	209.781000137
1650.0	0.0001703	209.828000069
1650.0	0.0001693	209.858999968
1650.0	0.000169	209.906000137
1650.0	0.000169	209.953000069
1650.0	0.00017	209.983999968
1650.0	0.0001693	210.031000137
1650.0	0.0001693	210.078000069
1650.0	0.0001693	210.108999968
1650.0	0.0001695	210.156000137
1650.0	0.000169	210.187000036
1650.0	0.0001688	210.233999968
1650.0	0.0001688	210.281000137
1650.0	0.000169	210.312000036
1650.0	0.000169	210.358999968
1650.0	0.0001688	210.406000137
1650.0	0.000168	210.437000036
1650.0	0.0001683	210.483999968
1650.0	0.000169	210.515000105
1650.0	0.000169	210.562000036
1650.0	0.0001683	210.608999968
1650.0	0.0001683	210.640000105
1650.0	0.000169	210.687000036
1650.0	0.0001693	210.733999968
1650.0	0.0001695	210.765000105
1650.0	0.000169	210.812000036
1650.0	0.000169	210.844000101
1650.0	0.000169	210.890000105
1650.0	0.0001693	210.937000036
1650.0	0.0001693	210.969000101
1650.0	0.0001688	211.015000105
1660.0	0.0001605	211.29700017
1660.0	0.0001578	211.344000101
1660.0	0.0001555	211.375
1660.0	0.0001538	211.42200017
1660.0	0.0001528	211.469000101
1660.0	0.0001518	211.5
1660.0	0.0001508	211.54700017
1660.0	0.0001508	211.594000101
1660.0	0.0001505	211.625
1660.0	0.0001508	211.67200017
1660.0	0.0001505	211.719000101
1660.0	0.0001503	211.75
1660.0	0.0001495	211.79700017
1660.0	0.00015	211.844000101
1660.0	0.0001503	211.875
1660.0	0.00015	211.92200017
1660.0	0.0001495	211.953000069
1660.0	0.00015	212.0
1660.0	0.0001493	212.04700017
1660.0	0.00015	212.078000069
1660.0	0.00015	212.125
1660.0	0.0001495	212.17200017
1660.0	0.000149	212.203000069
1660.0	0.0001495	212.25
1660.0	0.00015	212.29700017
1660.0	0.00015	212.328000069
1660.0	0.00015	212.375
1660.0	0.0001503	212.406000137
1660.0	0.0001508	212.453000069
1660.0	0.0001503	212.5
1660.0	0.0001495	212.531000137
1660.0	0.000149	212.578000069
1660.0	0.000149	212.625
1660.0	0.000149	212.656000137
1660.0	0.0001488	212.703000069
1660.0	0.0001488	212.733999968
1660.0	0.0001493	212.781000137
1670.0	0.0001428	213.062000036
1670.0	0.0001403	213.108999968
1670.0	0.0001383	213.140000105
1670.0	0.0001378	213.187000036
1670.0	0.0001365	213.233999968
1670.0	0.0001355	213.265000105
1670.0	0.000135	213.312000036
1670.0	0.000135	213.358999968
1670.0	0.0001343	213.390000105
1670.0	0.0001338	213.437000036
1670.0	0.000133	213.469000101
1670.0	0.000133	213.515000105
1670.0	0.000133	213.562000036
1670.0	0.0001333	213.594000101
1670.0	0.0001333	213.640000105
1670.0	0.0001333	213.687000036
1670.0	0.000133	213.719000101
1670.0	0.000133	213.765000105
1670.0	0.0001338	213.812000036
1670.0	0.0001333	213.844000101
1670.0	0.000133	213.890000105
1670.0	0.000133	213.937000036
1670.0	0.0001333	213.969000101
1670.0	0.000133	214.015000105
1670.0	0.0001328	214.062000036
1670.0	0.0001328	214.094000101
1670.0	0.0001328	214.140000105
1670.0	0.000133	214.17200017
1670.0	0.0001325	214.219000101
1670.0	0.000132	214.265000105
1670.0	0.000132	214.29700017
1670.0	0.0001328	214.344000101
1670.0	0.000133	214.390000105
1670.0	0.000133	214.42200017
1670.0	0.0001328	214.469000101
1670.0	0.0001328	214.5
1680.0	0.0001258	214.79700017
1680.0	0.000124	214.828000069
1680.0	0.000122	214.875
1680.0	0.0001213	214.92200017
1680.0	0.0001203	214.953000069
1680.0	0.000119	215.0
1680.0	0.0001183	215.04700017
1680.0	0.000118	215.078000069
1680.0	0.000118	215.125
1680.0	0.0001183	215.156000137
1680.0	0.000118	215.203000069
1680.0	0.0001178	215.25
1680.0	0.0001178	215.281000137
1680.0	0.000118	215.328000069
1680.0	0.000118	215.375
1680.0	0.0001175	215.406000137
1680.0	0.000117	215.453000069
1680.0	0.0001178	215.5
1680.0	0.000118	215.531000137
1680.0	0.0001178	215.578000069
1680.0	0.0001178	215.608999968
1680.0	0.0001178	215.656000137
1680.0	0.000118	215.703000069
1680.0	0.000118	215.733999968
1680.0	0.0001175	215.781000137
1680.0	0.0001175	215.828000069
1680.0	0.0001178	215.858999968
1680.0	0.000118	215.906000137
1680.0	0.0001178	215.937000036
1680.0	0.0001178	215.983999968
1680.0	0.0001178	216.031000137
1680.0	0.000118	216.062000036
1680.0	0.000118	216.108999968
1680.0	0.0001175	216.156000137
1680.0	0.000117	216.187000036
1680.0	0.000117	216.233999968
1680.0	0.000117	216.265000105
1690.0	0.0001118	216.562000036
1690.0	0.00011	216.594000101
1690.0	0.0001088	216.640000105
1690.0	0.0001078	216.687000036
1690.0	0.0001065	216.733999968
1690.0	0.0001055	216.765000105
1690.0	0.0001053	216.812000036
1690.0	0.0001055	216.858999968
1690.0	0.0001053	216.890000105
1690.0	0.0001053	216.937000036
1690.0	0.0001045	216.969000101
1690.0	0.0001043	217.015000105
1690.0	0.0001038	217.062000036
1690.0	0.000104	217.094000101
1690.0	0.0001038	217.140000105
1690.0	0.0001038	217.187000036
1690.0	0.0001038	217.219000101
1690.0	0.0001043	217.265000105
1690.0	0.000105	217.29700017
1690.0	0.0001045	217.344000101
1690.0	0.0001043	217.390000105
1690.0	0.0001043	217.42200017
1690.0	0.0001043	217.469000101
1690.0	0.0001043	217.515000105
1690.0	0.0001043	217.54700017
1690.0	0.000105	217.594000101
1690.0	0.0001055	217.625
1690.0	0.0001058	217.67200017
1690.0	0.0001055	217.719000101
1690.0	0.000105	217.75
1690.0	0.000105	217.79700017
1690.0	0.0001055	217.844000101
1690.0	0.0001055	217.875
1690.0	0.0001053	217.92200017
1690.0	0.000105	217.969000101
1690.0	0.0001045	218.0
1690.0	0.0001045	218.04700017
1700.0	0.0001005	218.328000069
1700.0	9.88e-05	218.375
1700.0	9.78e-05	218.406000137
1700.0	9.65e-05	218.453000069
1700.0	9.55e-05	218.5
1700.0	9.53e-05	218.54700017
1700.0	9.45e-05	218.578000069
1700.0	9.45e-05	218.625
1700.0	9.43e-05	218.656000137
1700.0	9.33e-05	218.703000069
1700.0	9.3e-05	218.75
1700.0	9.28e-05	218.781000137
1700.0	9.3e-05	218.828000069
1700.0	9.33e-05	218.875
1700.0	9.28e-05	218.906000137
1700.0	9.25e-05	218.953000069
1700.0	9.2e-05	219.0
1700.0	9.25e-05	219.031000137
1700.0	9.2e-05	219.078000069
1700.0	9.18e-05	219.108999968
1700.0	9.18e-05	219.156000137
1700.0	9.2e-05	219.203000069
1700.0	9.25e-05	219.233999968
1700.0	9.25e-05	219.281000137
1700.0	9.25e-05	219.312000036
1700.0	9.25e-05	219.358999968
1700.0	9.25e-05	219.406000137
1700.0	9.25e-05	219.437000036
1700.0	9.2e-05	219.483999968
1700.0	9.25e-05	219.531000137
1700.0	9.25e-05	219.578000069
1700.0	9.25e-05	219.608999968
1700.0	9.28e-05	219.656000137
1700.0	9.28e-05	219.703000069
1700.0	9.28e-05	219.733999968
1700.0	9.25e-05	219.781000137
1710.0	8.88e-05	220.062000036
1710.0	8.78e-05	220.108999968
1710.0	8.68e-05	220.156000137
1710.0	8.58e-05	220.187000036
1710.0	8.53e-05	220.233999968
1710.0	8.53e-05	220.265000105
1710.0	8.43e-05	220.312000036
1710.0	8.4e-05	220.358999968
1710.0	8.38e-05	220.406000137
1710.0	8.38e-05	220.437000036
1710.0	8.38e-05	220.483999968
1710.0	8.4e-05	220.515000105
1710.0	8.38e-05	220.562000036
1710.0	8.38e-05	220.608999968
1710.0	8.38e-05	220.640000105
1710.0	8.43e-05	220.687000036
1710.0	8.43e-05	220.733999968
1710.0	8.43e-05	220.765000105
1710.0	8.38e-05	220.812000036
1710.0	8.4e-05	220.858999968
1710.0	8.43e-05	220.890000105
1710.0	8.43e-05	220.937000036
1710.0	8.4e-05	220.983999968
1710.0	8.38e-05	221.015000105
1710.0	8.33e-05	221.062000036
1710.0	8.33e-05	221.108999968
1710.0	8.3e-05	221.140000105
1710.0	8.33e-05	221.187000036
1710.0	8.3e-05	221.233999968
1710.0	8.28e-05	221.265000105
1710.0	8.3e-05	221.312000036
1710.0	8.33e-05	221.358999968
1710.0	8.28e-05	221.390000105
1710.0	8.28e-05	221.437000036
1710.0	8.25e-05	221.469000101
1710.0	8.28e-05	221.515000105
1710.0	8.28e-05	221.562000036
1720.0	7.95e-05	221.844000101
1720.0	7.83e-05	221.890000105
1720.0	7.78e-05	221.92200017
1720.0	7.7e-05	221.969000101
1720.0	7.65e-05	222.015000105
1720.0	7.58e-05	222.04700017
1720.0	7.58e-05	222.094000101
1720.0	7.58e-05	222.140000105
1720.0	7.58e-05	222.17200017
1720.0	7.55e-05	222.219000101
1720.0	7.53e-05	222.25
1720.0	7.53e-05	222.29700017
1720.0	7.5e-05	222.344000101
1720.0	7.45e-05	222.375
1720.0	7.5e-05	222.42200017
1720.0	7.5e-05	222.469000101
1720.0	7.53e-05	222.5
1720.0	7.5e-05	222.54700017
1720.0	7.5e-05	222.578000069
1720.0	7.5e-05	222.625
1720.0	7.5e-05	222.67200017
1720.0	7.5e-05	222.703000069
1720.0	7.5e-05	222.75
1720.0	7.45e-05	222.79700017
1720.0	7.5e-05	222.828000069
1720.0	7.53e-05	222.875
1720.0	7.53e-05	222.92200017
1720.0	7.53e-05	222.953000069
1720.0	7.53e-05	223.0
1720.0	7.53e-05	223.031000137
1720.0	7.55e-05	223.078000069
1720.0	7.55e-05	223.125
1720.0	7.58e-05	223.156000137
1720.0	7.58e-05	223.203000069
1720.0	7.58e-05	223.25
1720.0	7.55e-05	223.281000137
1720.0	7.53e-05	223.328000069
1730.0	7.28e-05	223.608999968
1730.0	7.2e-05	223.656000137
1730.0	7.08e-05	223.703000069
1730.0	7e-05	223.733999968
1730.0	6.95e-05	223.781000137
1730.0	6.93e-05	223.828000069
1730.0	6.93e-05	223.858999968
1730.0	6.93e-05	223.906000137
1730.0	6.88e-05	223.937000036
1730.0	6.88e-05	223.983999968
1730.0	6.88e-05	224.031000137
1730.0	6.88e-05	224.062000036
1730.0	6.88e-05	224.108999968
1730.0	6.8e-05	224.156000137
1730.0	6.8e-05	224.187000036
1730.0	6.83e-05	224.233999968
1730.0	6.88e-05	224.281000137
1730.0	6.88e-05	224.312000036
1730.0	6.83e-05	224.358999968
1730.0	6.83e-05	224.390000105
1730.0	6.83e-05	224.437000036
1730.0	6.83e-05	224.483999968
1730.0	6.78e-05	224.531000137
1730.0	6.8e-05	224.562000036
1730.0	6.78e-05	224.608999968
1730.0	6.88e-05	224.656000137
1730.0	6.88e-05	224.687000036
1730.0	6.9e-05	224.733999968
1730.0	6.88e-05	224.781000137
1730.0	6.83e-05	224.812000036
1730.0	6.88e-05	224.858999968
1730.0	6.9e-05	224.890000105
1730.0	6.88e-05	224.937000036
1730.0	6.9e-05	224.983999968
1730.0	6.88e-05	225.015000105
1730.0	6.9e-05	225.062000036
1740.0	6.68e-05	225.344000101
1740.0	6.63e-05	225.390000105
1740.0	6.55e-05	225.437000036
1740.0	6.53e-05	225.469000101
1740.0	6.43e-05	225.515000105
1740.0	6.38e-05	225.562000036
1740.0	6.33e-05	225.594000101
1740.0	6.33e-05	225.640000105
1740.0	6.38e-05	225.67200017
1740.0	6.33e-05	225.719000101
1740.0	6.3e-05	225.765000105
1740.0	6.28e-05	225.79700017
1740.0	6.28e-05	225.844000101
1740.0	6.28e-05	225.890000105
1740.0	6.28e-05	225.92200017
1740.0	6.25e-05	225.969000101
1740.0	6.25e-05	226.0
1740.0	6.25e-05	226.04700017
1740.0	6.25e-05	226.094000101
1740.0	6.18e-05	226.125
1740.0	6.18e-05	226.17200017
1740.0	6.2e-05	226.219000101
1740.0	6.25e-05	226.25
1740.0	6.25e-05	226.29700017
1740.0	6.2e-05	226.328000069
1740.0	6.2e-05	226.375
1740.0	6.28e-05	226.42200017
1740.0	6.28e-05	226.453000069
1740.0	6.25e-05	226.5
1740.0	6.25e-05	226.54700017
1740.0	6.25e-05	226.578000069
1740.0	6.25e-05	226.625
1740.0	6.25e-05	226.67200017
1740.0	6.18e-05	226.703000069
1740.0	6.18e-05	226.75
1740.0	6.18e-05	226.781000137
1740.0	6.18e-05	226.828000069
1750.0	6e-05	227.108999968
1750.0	5.9e-05	227.156000137
1750.0	5.9e-05	227.203000069
1750.0	5.88e-05	227.233999968
1750.0	5.83e-05	227.281000137
1750.0	5.83e-05	227.328000069
1750.0	5.83e-05	227.358999968
1750.0	5.8e-05	227.406000137
1750.0	5.78e-05	227.437000036
1750.0	5.78e-05	227.483999968
1750.0	5.78e-05	227.531000137
1750.0	5.8e-05	227.562000036
1750.0	5.8e-05	227.608999968
1750.0	5.78e-05	227.656000137
1750.0	5.75e-05	227.687000036
1750.0	5.75e-05	227.733999968
1750.0	5.78e-05	227.765000105
1750.0	5.75e-05	227.812000036
1750.0	5.7e-05	227.858999968
1750.0	5.7e-05	227.890000105
1750.0	5.78e-05	227.937000036
1750.0	5.78e-05	227.983999968
1750.0	5.78e-05	228.015000105
1750.0	5.75e-05	228.062000036
1750.0	5.7e-05	228.108999968
1750.0	5.7e-05	228.140000105
1750.0	5.68e-05	228.187000036
1750.0	5.65e-05	228.219000101
1750.0	5.63e-05	228.265000105
1750.0	5.63e-05	228.312000036
1750.0	5.68e-05	228.344000101
1750.0	5.63e-05	228.390000105
1750.0	5.63e-05	228.437000036
1750.0	5.58e-05	228.469000101
1750.0	5.63e-05	228.515000105
1750.0	5.65e-05	228.54700017
1750.0	5.65e-05	228.594000101
1760.0	5.53e-05	228.875
1760.0	5.43e-05	228.92200017
1760.0	5.33e-05	228.969000101
1760.0	5.28e-05	229.0
1760.0	5.25e-05	229.04700017
1760.0	5.25e-05	229.094000101
1760.0	5.25e-05	229.125
1760.0	5.25e-05	229.17200017
1760.0	5.2e-05	229.203000069
1760.0	5.18e-05	229.25
1760.0	5.18e-05	229.29700017
1760.0	5.18e-05	229.328000069
1760.0	5.15e-05	229.375
1760.0	5.15e-05	229.42200017
1760.0	5.15e-05	229.453000069
1760.0	5.15e-05	229.5
1760.0	5.18e-05	229.54700017
1760.0	5.15e-05	229.578000069
1760.0	5.15e-05	229.625
1760.0	5.18e-05	229.656000137
1760.0	5.2e-05	229.703000069
1760.0	5.18e-05	229.75
1760.0	5.15e-05	229.781000137
1760.0	5.15e-05	229.828000069
1760.0	5.15e-05	229.875
1760.0	5.18e-05	229.906000137
1760.0	5.18e-05	229.953000069
1760.0	5.18e-05	229.983999968
1760.0	5.18e-05	230.031000137
1760.0	5.2e-05	230.078000069
1760.0	5.2e-05	230.108999968
1760.0	5.18e-05	230.156000137
1760.0	5.15e-05	230.203000069
1760.0	5.15e-05	230.233999968
1760.0	5.15e-05	230.281000137
1760.0	5.15e-05	230.312000036
1760.0	5.13e-05	230.358999968
1770.0	4.88e-05	230.640000105
1770.0	4.83e-05	230.687000036
1770.0	4.78e-05	230.733999968
1770.0	4.78e-05	230.765000105
1770.0	4.75e-05	230.812000036
1770.0	4.75e-05	230.858999968
1770.0	4.75e-05	230.890000105
1770.0	4.68e-05	230.937000036
1770.0	4.68e-05	230.983999968
1770.0	4.68e-05	231.015000105
1770.0	4.68e-05	231.062000036
1770.0	4.65e-05	231.094000101
1770.0	4.63e-05	231.140000105
1770.0	4.58e-05	231.187000036
1770.0	4.63e-05	231.219000101
1770.0	4.63e-05	231.265000105
1770.0	4.58e-05	231.312000036
1770.0	4.63e-05	231.344000101
1770.0	4.63e-05	231.390000105
1770.0	4.65e-05	231.42200017
1770.0	4.63e-05	231.469000101
1770.0	4.63e-05	231.515000105
1770.0	4.63e-05	231.54700017
1770.0	4.65e-05	231.594000101
1770.0	4.65e-05	231.640000105
1770.0	4.68e-05	231.67200017
1770.0	4.68e-05	231.719000101
1770.0	4.68e-05	231.75
1770.0	4.68e-05	231.79700017
1770.0	4.7e-05	231.844000101
1770.0	4.7e-05	231.890000105
1770.0	4.75e-05	231.92200017
1770.0	4.7e-05	231.969000101
1770.0	4.7e-05	232.015000105
1770.0	4.75e-05	232.04700017
1770.0	4.7e-05	232.094000101
1770.0	4.7e-05	232.125
1780.0	4.55e-05	232.42200017
1780.0	4.5e-05	232.453000069
1780.0	4.45e-05	232.5
1780.0	4.43e-05	232.54700017
1780.0	4.4e-05	232.594000101
1780.0	4.43e-05	232.625
1780.0	4.4e-05	232.67200017
1780.0	4.38e-05	232.703000069
1780.0	4.33e-05	232.75
1780.0	4.33e-05	232.79700017
1780.0	4.33e-05	232.828000069
1780.0	4.33e-05	232.875
1780.0	4.33e-05	232.92200017
1780.0	4.33e-05	232.953000069
1780.0	4.3e-05	233.0
1780.0	4.3e-05	233.031000137
1780.0	4.28e-05	233.078000069
1780.0	4.25e-05	233.125
1780.0	4.25e-05	233.156000137
1780.0	4.28e-05	233.203000069
1780.0	4.3e-05	233.25
1780.0	4.28e-05	233.281000137
1780.0	4.25e-05	233.328000069
1780.0	4.2e-05	233.375
1780.0	4.2e-05	233.406000137
1780.0	4.18e-05	233.453000069
1780.0	4.15e-05	233.483999968
1780.0	4.15e-05	233.531000137
1780.0	4.15e-05	233.578000069
1780.0	4.18e-05	233.625
1780.0	4.25e-05	233.656000137
1780.0	4.28e-05	233.703000069
1780.0	4.3e-05	233.733999968
1780.0	4.3e-05	233.781000137
1780.0	4.33e-05	233.828000069
1780.0	4.3e-05	233.858999968
1780.0	4.28e-05	233.906000137
1790.0	4.08e-05	234.187000036
1790.0	4.05e-05	234.233999968
1790.0	3.95e-05	234.281000137
1790.0	3.9e-05	234.312000036
1790.0	3.88e-05	234.358999968
1790.0	3.9e-05	234.390000105
1790.0	3.83e-05	234.437000036
1790.0	3.83e-05	234.483999968
1790.0	3.8e-05	234.515000105
1790.0	3.8e-05	234.562000036
1790.0	3.78e-05	234.608999968
1790.0	3.78e-05	234.640000105
1790.0	3.75e-05	234.687000036
1790.0	3.78e-05	234.733999968
1790.0	3.8e-05	234.765000105
1790.0	3.83e-05	234.812000036
1790.0	3.8e-05	234.844000101
1790.0	3.8e-05	234.890000105
1790.0	3.8e-05	234.937000036
1790.0	3.83e-05	234.969000101
1790.0	3.8e-05	235.015000105
1790.0	3.8e-05	235.062000036
1790.0	3.78e-05	235.094000101
1790.0	3.78e-05	235.140000105
1790.0	3.78e-05	235.17200017
1790.0	3.78e-05	235.219000101
1790.0	3.78e-05	235.265000105
1790.0	3.75e-05	235.29700017
1790.0	3.78e-05	235.344000101
1790.0	3.78e-05	235.390000105
1790.0	3.75e-05	235.42200017
1790.0	3.78e-05	235.469000101
1790.0	3.78e-05	235.5
1790.0	3.8e-05	235.54700017
1790.0	3.8e-05	235.594000101
1790.0	3.78e-05	235.625
1790.0	3.78e-05	235.67200017
1800.0	3.7e-05	235.953000069
1800.0	3.68e-05	236.0
1800.0	3.58e-05	236.04700017
1800.0	3.53e-05	236.078000069
1800.0	3.45e-05	236.125
1800.0	3.4e-05	236.17200017
1800.0	3.38e-05	236.203000069
1800.0	3.33e-05	236.25
1800.0	3.38e-05	236.281000137
1800.0	3.38e-05	236.328000069
1800.0	3.3e-05	236.375
1800.0	3.28e-05	236.406000137
1800.0	3.25e-05	236.453000069
1800.0	3.25e-05	236.5
1800.0	3.3e-05	236.531000137
1800.0	3.3e-05	236.578000069
1800.0	3.33e-05	236.608999968
1800.0	3.33e-05	236.656000137
1800.0	3.38e-05	236.703000069
1800.0	3.4e-05	236.733999968
1800.0	3.38e-05	236.781000137
1800.0	3.33e-05	236.828000069
1800.0	3.3e-05	236.858999968
1800.0	3.3e-05	236.906000137
1800.0	3.3e-05	236.937000036
1800.0	3.28e-05	236.983999968
1800.0	3.3e-05	237.031000137
1800.0	3.3e-05	237.062000036
1800.0	3.3e-05	237.108999968
1800.0	3.3e-05	237.156000137
1800.0	3.3e-05	237.187000036
1800.0	3.38e-05	237.233999968
1800.0	3.38e-05	237.265000105
1800.0	3.38e-05	237.312000036
1800.0	3.33e-05	237.358999968
1800.0	3.33e-05	237.390000105
1800.0	3.33e-05	237.437000036
