Your edit line - do NOT delete this line
Wavelength [nm], Voltage [V], Elapsed time [s]
800.0	8.5e-06	16.0
800.0	8.3e-06	16.0310001373
800.0	8.3e-06	16.0620000362
800.0	8.3e-06	16.0929999352
800.0	8.3e-06	16.125
800.0	8.3e-06	16.1560001373
800.0	8.3e-06	16.1870000362
800.0	8.5e-06	16.2179999352
800.0	8.7e-06	16.25
800.0	8.8e-06	16.2960000038
800.0	8.8e-06	16.3280000687
800.0	8.8e-06	16.3589999676
800.0	8.8e-06	16.3900001049
800.0	8.8e-06	16.4210000038
800.0	9.1e-06	16.4530000687
800.0	9.1e-06	16.4839999676
800.0	9e-06	16.5150001049
800.0	9e-06	16.5460000038
800.0	8.8e-06	16.5780000687
800.0	8.7e-06	16.625
800.0	8.3e-06	16.6560001373
800.0	8.2e-06	16.6870000362
800.0	8.3e-06	16.7179999352
800.0	8.1e-06	16.75
800.0	7.8e-06	16.7810001373
800.0	7.7e-06	16.8280000687
800.0	7.7e-06	16.8589999676
800.0	7.7e-06	16.8900001049
800.0	7.7e-06	16.9210000038
800.0	7.7e-06	16.9530000687
800.0	7.8e-06	16.9839999676
800.0	7.8e-06	17.0150001049
800.0	8.1e-06	17.0460000038
800.0	8.2e-06	17.0780000687
800.0	8.3e-06	17.1089999676
800.0	8.3e-06	17.1560001373
800.0	8.5e-06	17.1870000362
800.0	8.7e-06	17.2179999352
800.0	8.7e-06	17.25
800.0	8.7e-06	17.2810001373
800.0	8.8e-06	17.3120000362
800.0	8.8e-06	17.3429999352
800.0	9e-06	17.375
800.0	9e-06	17.4060001373
800.0	8.8e-06	17.4370000362
800.0	8.8e-06	17.4839999676
800.0	9e-06	17.5150001049
800.0	9e-06	17.5460000038
800.0	9e-06	17.5780000687
800.0	9.1e-06	17.6089999676
800.0	9e-06	17.6400001049
800.0	9.1e-06	17.6710000038
800.0	9.1e-06	17.7030000687
800.0	9.3e-06	17.7339999676
800.0	9.5e-06	17.7810001373
800.0	9.5e-06	17.8120000362
800.0	9.5e-06	17.8429999352
800.0	9.3e-06	17.875
800.0	9.1e-06	17.9060001373
800.0	9.3e-06	17.9370000362
800.0	9.3e-06	17.9679999352
810.0	8.8e-06	18.2960000038
810.0	9e-06	18.3280000687
810.0	9e-06	18.3589999676
810.0	9e-06	18.3900001049
810.0	9e-06	18.4210000038
810.0	9e-06	18.4530000687
810.0	9e-06	18.4839999676
810.0	9e-06	18.5310001373
810.0	8.8e-06	18.5620000362
810.0	8.8e-06	18.5929999352
810.0	8.8e-06	18.625
810.0	9e-06	18.6560001373
810.0	9.1e-06	18.6870000362
810.0	9.1e-06	18.7179999352
810.0	9.1e-06	18.75
810.0	9.3e-06	18.7810001373
810.0	9.5e-06	18.8280000687
810.0	9.7e-06	18.8589999676
810.0	9.7e-06	18.8900001049
810.0	9.7e-06	18.9210000038
810.0	9.7e-06	18.9530000687
810.0	9.7e-06	18.9839999676
810.0	1e-05	19.0150001049
810.0	1e-05	19.0620000362
810.0	1e-05	19.0929999352
810.0	9.7e-06	19.125
810.0	9.6e-06	19.1560001373
810.0	9.7e-06	19.1870000362
810.0	9.6e-06	19.2339999676
810.0	9.3e-06	19.2650001049
810.0	9.1e-06	19.2960000038
810.0	9.1e-06	19.3280000687
810.0	8.8e-06	19.3589999676
810.0	8.8e-06	19.3900001049
810.0	8.8e-06	19.4210000038
810.0	9e-06	19.4530000687
810.0	8.8e-06	19.4839999676
810.0	9e-06	19.5310001373
810.0	9e-06	19.5620000362
810.0	9e-06	19.5929999352
810.0	8.8e-06	19.625
810.0	8.8e-06	19.6560001373
810.0	9e-06	19.6870000362
810.0	9.1e-06	19.7179999352
810.0	9.5e-06	19.75
810.0	9.7e-06	19.7810001373
810.0	1e-05	19.8280000687
810.0	1e-05	19.8589999676
810.0	1e-05	19.8900001049
810.0	9.7e-06	19.9370000362
810.0	9.5e-06	19.9679999352
810.0	9.3e-06	20.0
810.0	9.3e-06	20.0310001373
810.0	9.3e-06	20.0620000362
810.0	9.1e-06	20.0929999352
810.0	9.3e-06	20.125
810.0	9.5e-06	20.1560001373
810.0	9.3e-06	20.1870000362
810.0	9.3e-06	20.2179999352
810.0	9.3e-06	20.25
820.0	9.3e-06	20.5620000362
820.0	9.3e-06	20.6089999676
820.0	9.3e-06	20.6400001049
820.0	9.3e-06	20.6710000038
820.0	9.3e-06	20.7030000687
820.0	9.3e-06	20.7339999676
820.0	9.3e-06	20.7650001049
820.0	9.3e-06	20.7960000038
820.0	9.3e-06	20.8280000687
820.0	9.5e-06	20.8589999676
820.0	9.7e-06	20.9060001373
820.0	9.7e-06	20.9370000362
820.0	1e-05	20.9679999352
820.0	1.01e-05	21.0
820.0	1.02e-05	21.0460000038
820.0	1.02e-05	21.0780000687
820.0	1.01e-05	21.1089999676
820.0	1.02e-05	21.1560001373
820.0	1.01e-05	21.1870000362
820.0	1.01e-05	21.2339999676
820.0	1e-05	21.2650001049
820.0	9.7e-06	21.2960000038
820.0	9.6e-06	21.3280000687
820.0	9.6e-06	21.3589999676
820.0	9.6e-06	21.3900001049
820.0	9.5e-06	21.4210000038
820.0	9.5e-06	21.4679999352
820.0	9.6e-06	21.5
820.0	9.7e-06	21.5310001373
820.0	9.7e-06	21.5620000362
820.0	9.7e-06	21.5929999352
820.0	9.7e-06	21.625
820.0	9.6e-06	21.6560001373
820.0	9.6e-06	21.6870000362
820.0	9.6e-06	21.7179999352
820.0	9.7e-06	21.75
820.0	9.6e-06	21.7960000038
820.0	9.6e-06	21.8280000687
820.0	9.6e-06	21.8589999676
820.0	9.6e-06	21.8900001049
820.0	9.6e-06	21.9210000038
820.0	9.7e-06	21.9530000687
820.0	9.7e-06	21.9839999676
820.0	1e-05	22.0310001373
820.0	9.7e-06	22.0620000362
820.0	9.7e-06	22.0929999352
820.0	9.6e-06	22.125
820.0	9.6e-06	22.1560001373
820.0	9.6e-06	22.1870000362
820.0	9.6e-06	22.2179999352
820.0	9.6e-06	22.25
820.0	9.7e-06	22.2810001373
820.0	9.7e-06	22.3280000687
820.0	1e-05	22.3589999676
820.0	9.7e-06	22.3900001049
820.0	9.7e-06	22.4210000038
820.0	1e-05	22.4530000687
820.0	1.01e-05	22.5
820.0	1e-05	22.5310001373
820.0	9.7e-06	22.5620000362
830.0	1.01e-05	22.8900001049
830.0	1.02e-05	22.9210000038
830.0	1.03e-05	22.9530000687
830.0	1.07e-05	23.0
830.0	1.07e-05	23.0310001373
830.0	1.07e-05	23.0780000687
830.0	1.08e-05	23.1089999676
830.0	1.1e-05	23.1400001049
830.0	1.1e-05	23.1870000362
830.0	1.12e-05	23.2179999352
830.0	1.12e-05	23.25
830.0	1.1e-05	23.2960000038
830.0	1.08e-05	23.3280000687
830.0	1.07e-05	23.3589999676
830.0	1.06e-05	23.4060001373
830.0	1.03e-05	23.4370000362
830.0	1.02e-05	23.4839999676
830.0	1.02e-05	23.5150001049
830.0	1.01e-05	23.5460000038
830.0	1.02e-05	23.5929999352
830.0	1.02e-05	23.625
830.0	1.02e-05	23.6560001373
830.0	1.02e-05	23.7030000687
830.0	1.01e-05	23.7339999676
830.0	1.02e-05	23.7810001373
830.0	1.02e-05	23.8120000362
830.0	1.03e-05	23.8429999352
830.0	1.06e-05	23.8900001049
830.0	1.07e-05	23.9210000038
830.0	1.07e-05	23.9530000687
830.0	1.08e-05	24.0
830.0	1.08e-05	24.0310001373
830.0	1.08e-05	24.0620000362
830.0	1.1e-05	24.1089999676
830.0	1.1e-05	24.1400001049
830.0	1.13e-05	24.1870000362
830.0	1.13e-05	24.2179999352
830.0	1.13e-05	24.25
830.0	1.1e-05	24.2960000038
830.0	1.1e-05	24.3280000687
830.0	1.08e-05	24.3589999676
830.0	1.07e-05	24.4060001373
830.0	1.08e-05	24.4370000362
830.0	1.1e-05	24.4679999352
830.0	1.1e-05	24.5150001049
830.0	1.1e-05	24.5460000038
830.0	1.1e-05	24.5929999352
830.0	1.07e-05	24.625
830.0	1.07e-05	24.6560001373
830.0	1.07e-05	24.7030000687
830.0	1.07e-05	24.7339999676
830.0	1.07e-05	24.7650001049
830.0	1.06e-05	24.8120000362
830.0	1.06e-05	24.8429999352
840.0	1.12e-05	25.1560001373
840.0	1.12e-05	25.2030000687
840.0	1.12e-05	25.2339999676
840.0	1.1e-05	25.2650001049
840.0	1.08e-05	25.3120000362
840.0	1.1e-05	25.3429999352
840.0	1.13e-05	25.3900001049
840.0	1.15e-05	25.4210000038
840.0	1.16e-05	25.4530000687
840.0	1.18e-05	25.5
840.0	1.18e-05	25.5310001373
840.0	1.18e-05	25.5620000362
840.0	1.18e-05	25.6089999676
840.0	1.18e-05	25.6400001049
840.0	1.16e-05	25.6710000038
840.0	1.16e-05	25.7179999352
840.0	1.13e-05	25.75
840.0	1.12e-05	25.7960000038
840.0	1.12e-05	25.8280000687
840.0	1.12e-05	25.8589999676
840.0	1.13e-05	25.9060001373
840.0	1.15e-05	25.9370000362
840.0	1.18e-05	25.9679999352
840.0	1.18e-05	26.0150001049
840.0	1.18e-05	26.0460000038
840.0	1.16e-05	26.0929999352
840.0	1.15e-05	26.125
840.0	1.13e-05	26.1560001373
840.0	1.15e-05	26.2030000687
840.0	1.16e-05	26.2339999676
840.0	1.16e-05	26.2650001049
840.0	1.15e-05	26.3120000362
840.0	1.16e-05	26.3429999352
840.0	1.15e-05	26.375
840.0	1.13e-05	26.4210000038
840.0	1.15e-05	26.4530000687
840.0	1.18e-05	26.5
840.0	1.2e-05	26.5310001373
840.0	1.2e-05	26.5620000362
840.0	1.21e-05	26.6089999676
840.0	1.18e-05	26.6400001049
840.0	1.18e-05	26.6710000038
840.0	1.18e-05	26.7179999352
840.0	1.2e-05	26.75
840.0	1.18e-05	26.7810001373
840.0	1.18e-05	26.8280000687
840.0	1.16e-05	26.8589999676
840.0	1.16e-05	26.9060001373
840.0	1.18e-05	26.9370000362
840.0	1.18e-05	26.9679999352
840.0	1.21e-05	27.0150001049
840.0	1.21e-05	27.0460000038
840.0	1.21e-05	27.0780000687
840.0	1.18e-05	27.125
850.0	1.16e-05	27.4370000362
850.0	1.16e-05	27.4679999352
850.0	1.2e-05	27.5
850.0	1.25e-05	27.5460000038
850.0	1.26e-05	27.5780000687
850.0	1.27e-05	27.625
850.0	1.28e-05	27.6560001373
850.0	1.28e-05	27.6870000362
850.0	1.31e-05	27.7339999676
850.0	1.31e-05	27.7650001049
850.0	1.32e-05	27.7960000038
850.0	1.31e-05	27.8429999352
850.0	1.27e-05	27.875
850.0	1.26e-05	27.9210000038
850.0	1.26e-05	27.9530000687
850.0	1.27e-05	27.9839999676
850.0	1.27e-05	28.0310001373
850.0	1.28e-05	28.0620000362
850.0	1.32e-05	28.0929999352
850.0	1.32e-05	28.1400001049
850.0	1.31e-05	28.1710000038
850.0	1.28e-05	28.2030000687
850.0	1.28e-05	28.25
850.0	1.28e-05	28.2810001373
850.0	1.31e-05	28.3280000687
850.0	1.31e-05	28.3589999676
850.0	1.28e-05	28.3900001049
850.0	1.28e-05	28.4370000362
850.0	1.31e-05	28.4679999352
850.0	1.31e-05	28.5
850.0	1.28e-05	28.5460000038
850.0	1.27e-05	28.5780000687
850.0	1.27e-05	28.6089999676
850.0	1.26e-05	28.6560001373
850.0	1.27e-05	28.6870000362
850.0	1.31e-05	28.7339999676
850.0	1.31e-05	28.7650001049
850.0	1.32e-05	28.7960000038
850.0	1.32e-05	28.8429999352
850.0	1.31e-05	28.875
850.0	1.31e-05	28.9060001373
850.0	1.28e-05	28.9530000687
850.0	1.28e-05	28.9839999676
850.0	1.31e-05	29.0150001049
850.0	1.28e-05	29.0620000362
850.0	1.26e-05	29.0929999352
850.0	1.25e-05	29.1400001049
850.0	1.22e-05	29.1710000038
850.0	1.21e-05	29.2030000687
850.0	1.21e-05	29.25
850.0	1.25e-05	29.2810001373
850.0	1.27e-05	29.3120000362
850.0	1.28e-05	29.3589999676
850.0	1.27e-05	29.3900001049
860.0	1.33e-05	29.7030000687
860.0	1.33e-05	29.7339999676
860.0	1.35e-05	29.7810001373
860.0	1.35e-05	29.8120000362
860.0	1.37e-05	29.8589999676
860.0	1.38e-05	29.8900001049
860.0	1.41e-05	29.9210000038
860.0	1.43e-05	29.9679999352
860.0	1.43e-05	30.0
860.0	1.4e-05	30.0310001373
860.0	1.38e-05	30.0780000687
860.0	1.38e-05	30.1089999676
860.0	1.38e-05	30.1560001373
860.0	1.38e-05	30.1870000362
860.0	1.4e-05	30.2179999352
860.0	1.4e-05	30.2650001049
860.0	1.41e-05	30.2960000038
860.0	1.43e-05	30.3280000687
860.0	1.43e-05	30.375
860.0	1.45e-05	30.4060001373
860.0	1.45e-05	30.4370000362
860.0	1.46e-05	30.4839999676
860.0	1.46e-05	30.5150001049
860.0	1.45e-05	30.5460000038
860.0	1.45e-05	30.5929999352
860.0	1.43e-05	30.625
860.0	1.43e-05	30.6710000038
860.0	1.43e-05	30.7030000687
860.0	1.43e-05	30.7339999676
860.0	1.45e-05	30.7810001373
860.0	1.43e-05	30.8120000362
860.0	1.41e-05	30.8429999352
860.0	1.4e-05	30.8900001049
860.0	1.4e-05	30.9210000038
860.0	1.41e-05	30.9679999352
860.0	1.43e-05	31.0
860.0	1.43e-05	31.0310001373
860.0	1.45e-05	31.0780000687
860.0	1.45e-05	31.1089999676
860.0	1.46e-05	31.1400001049
860.0	1.46e-05	31.1870000362
860.0	1.46e-05	31.2179999352
860.0	1.47e-05	31.25
860.0	1.47e-05	31.2960000038
860.0	1.46e-05	31.3280000687
860.0	1.45e-05	31.375
860.0	1.43e-05	31.4060001373
860.0	1.41e-05	31.4370000362
860.0	1.41e-05	31.4839999676
860.0	1.4e-05	31.5150001049
860.0	1.41e-05	31.5460000038
860.0	1.41e-05	31.5929999352
860.0	1.43e-05	31.625
860.0	1.4e-05	31.6560001373
870.0	1.47e-05	31.9679999352
870.0	1.5e-05	32.0
870.0	1.52e-05	32.0460000038
870.0	1.53e-05	32.0780000687
870.0	1.53e-05	32.1089999676
870.0	1.51e-05	32.1560001373
870.0	1.5e-05	32.1870000362
870.0	1.5e-05	32.2339999676
870.0	1.51e-05	32.2650001049
870.0	1.52e-05	32.2960000038
870.0	1.52e-05	32.3429999352
870.0	1.53e-05	32.375
870.0	1.56e-05	32.4060001373
870.0	1.56e-05	32.4530000687
870.0	1.56e-05	32.4839999676
870.0	1.53e-05	32.5150001049
870.0	1.53e-05	32.5620000362
870.0	1.56e-05	32.5929999352
870.0	1.57e-05	32.6400001049
870.0	1.58e-05	32.6710000038
870.0	1.6e-05	32.7030000687
870.0	1.58e-05	32.75
870.0	1.6e-05	32.7810001373
870.0	1.6e-05	32.8120000362
870.0	1.62e-05	32.8589999676
870.0	1.6e-05	32.8900001049
870.0	1.6e-05	32.9210000038
870.0	1.62e-05	32.9679999352
870.0	1.62e-05	33.0
870.0	1.6e-05	33.0460000038
870.0	1.62e-05	33.0780000687
870.0	1.6e-05	33.1089999676
870.0	1.58e-05	33.1560001373
870.0	1.56e-05	33.1870000362
870.0	1.52e-05	33.2179999352
870.0	1.51e-05	33.2650001049
870.0	1.51e-05	33.2960000038
870.0	1.51e-05	33.3280000687
870.0	1.5e-05	33.375
870.0	1.51e-05	33.4060001373
870.0	1.53e-05	33.4530000687
870.0	1.53e-05	33.4839999676
870.0	1.53e-05	33.5150001049
870.0	1.52e-05	33.5620000362
870.0	1.5e-05	33.5929999352
870.0	1.47e-05	33.625
870.0	1.5e-05	33.6710000038
870.0	1.51e-05	33.7030000687
870.0	1.56e-05	33.7339999676
870.0	1.6e-05	33.7810001373
870.0	1.63e-05	33.8120000362
870.0	1.63e-05	33.8589999676
870.0	1.62e-05	33.8900001049
870.0	1.62e-05	33.9210000038
870.0	1.6e-05	33.9679999352
880.0	1.66e-05	34.2650001049
880.0	1.65e-05	34.2960000038
880.0	1.65e-05	34.3429999352
880.0	1.63e-05	34.375
880.0	1.62e-05	34.4060001373
880.0	1.63e-05	34.4530000687
880.0	1.65e-05	34.4839999676
880.0	1.63e-05	34.5150001049
880.0	1.65e-05	34.5620000362
880.0	1.65e-05	34.5929999352
880.0	1.66e-05	34.6400001049
880.0	1.68e-05	34.6710000038
880.0	1.7e-05	34.7030000687
880.0	1.71e-05	34.75
880.0	1.72e-05	34.7810001373
880.0	1.75e-05	34.8120000362
880.0	1.76e-05	34.8589999676
880.0	1.77e-05	34.8900001049
880.0	1.77e-05	34.9210000038
880.0	1.77e-05	34.9679999352
880.0	1.76e-05	35.0
880.0	1.76e-05	35.0460000038
880.0	1.77e-05	35.0780000687
880.0	1.77e-05	35.1089999676
880.0	1.75e-05	35.1560001373
880.0	1.72e-05	35.1870000362
880.0	1.71e-05	35.2179999352
880.0	1.71e-05	35.2650001049
880.0	1.71e-05	35.2960000038
880.0	1.71e-05	35.3280000687
880.0	1.72e-05	35.375
880.0	1.72e-05	35.4060001373
880.0	1.71e-05	35.4530000687
880.0	1.71e-05	35.4839999676
880.0	1.71e-05	35.5150001049
880.0	1.72e-05	35.5620000362
880.0	1.76e-05	35.5929999352
880.0	1.76e-05	35.625
880.0	1.77e-05	35.6710000038
880.0	1.78e-05	35.7030000687
880.0	1.81e-05	35.75
880.0	1.81e-05	35.7810001373
880.0	1.82e-05	35.8120000362
880.0	1.81e-05	35.8589999676
880.0	1.81e-05	35.8900001049
880.0	1.81e-05	35.9210000038
880.0	1.78e-05	35.9679999352
880.0	1.77e-05	36.0
880.0	1.77e-05	36.0310001373
880.0	1.76e-05	36.0780000687
880.0	1.76e-05	36.1089999676
880.0	1.77e-05	36.1560001373
880.0	1.76e-05	36.1870000362
880.0	1.75e-05	36.2179999352
880.0	1.72e-05	36.2650001049
890.0	1.85e-05	36.5620000362
890.0	1.87e-05	36.5929999352
890.0	1.88e-05	36.6400001049
890.0	1.9e-05	36.6710000038
890.0	1.9e-05	36.7179999352
890.0	1.9e-05	36.75
890.0	1.91e-05	36.7810001373
890.0	1.93e-05	36.8280000687
890.0	1.93e-05	36.8589999676
890.0	1.95e-05	36.8900001049
890.0	1.95e-05	36.9370000362
890.0	1.96e-05	36.9679999352
890.0	1.96e-05	37.0
890.0	1.96e-05	37.0460000038
890.0	1.96e-05	37.0780000687
890.0	1.96e-05	37.125
890.0	1.97e-05	37.1560001373
890.0	2e-05	37.1870000362
890.0	1.97e-05	37.2339999676
890.0	1.97e-05	37.2650001049
890.0	1.97e-05	37.2960000038
890.0	1.96e-05	37.3429999352
890.0	1.96e-05	37.375
890.0	1.95e-05	37.4210000038
890.0	1.91e-05	37.4530000687
890.0	1.9e-05	37.4839999676
890.0	1.91e-05	37.5310001373
890.0	1.93e-05	37.5620000362
890.0	1.93e-05	37.5929999352
890.0	1.95e-05	37.6400001049
890.0	1.95e-05	37.6710000038
890.0	1.96e-05	37.7030000687
890.0	1.96e-05	37.75
890.0	1.96e-05	37.7810001373
890.0	1.95e-05	37.8280000687
890.0	1.93e-05	37.8589999676
890.0	1.93e-05	37.8900001049
890.0	1.95e-05	37.9370000362
890.0	1.95e-05	37.9679999352
890.0	1.95e-05	38.0
890.0	1.96e-05	38.0460000038
890.0	1.97e-05	38.0780000687
890.0	1.96e-05	38.1089999676
890.0	1.96e-05	38.1560001373
890.0	1.95e-05	38.1870000362
890.0	1.95e-05	38.2339999676
890.0	1.93e-05	38.2650001049
890.0	1.91e-05	38.2960000038
890.0	1.88e-05	38.3429999352
890.0	1.87e-05	38.375
890.0	1.88e-05	38.4060001373
890.0	1.91e-05	38.4530000687
890.0	1.95e-05	38.4839999676
890.0	1.97e-05	38.5310001373
900.0	2.07e-05	38.8280000687
900.0	2.08e-05	38.875
900.0	2.12e-05	38.9060001373
900.0	2.15e-05	38.9370000362
900.0	2.16e-05	38.9839999676
900.0	2.18e-05	39.0150001049
900.0	2.18e-05	39.0460000038
900.0	2.18e-05	39.0929999352
900.0	2.2e-05	39.125
900.0	2.2e-05	39.1560001373
900.0	2.2e-05	39.2030000687
900.0	2.21e-05	39.2339999676
900.0	2.21e-05	39.2810001373
900.0	2.21e-05	39.3120000362
900.0	2.2e-05	39.3429999352
900.0	2.16e-05	39.3900001049
900.0	2.15e-05	39.4210000038
900.0	2.12e-05	39.4530000687
900.0	2.1e-05	39.5
900.0	2.1e-05	39.5310001373
900.0	2.1e-05	39.5780000687
900.0	2.13e-05	39.6089999676
900.0	2.15e-05	39.6400001049
900.0	2.16e-05	39.6870000362
900.0	2.18e-05	39.7179999352
900.0	2.16e-05	39.75
900.0	2.16e-05	39.7960000038
900.0	2.15e-05	39.8280000687
900.0	2.15e-05	39.8589999676
900.0	2.16e-05	39.9060001373
900.0	2.18e-05	39.9370000362
900.0	2.21e-05	39.9839999676
900.0	2.21e-05	40.0150001049
900.0	2.21e-05	40.0460000038
900.0	2.2e-05	40.0929999352
900.0	2.18e-05	40.125
900.0	2.18e-05	40.1560001373
900.0	2.18e-05	40.2030000687
900.0	2.18e-05	40.2339999676
900.0	2.16e-05	40.2810001373
900.0	2.15e-05	40.3120000362
900.0	2.15e-05	40.3429999352
900.0	2.15e-05	40.3900001049
900.0	2.16e-05	40.4210000038
900.0	2.18e-05	40.4530000687
900.0	2.18e-05	40.5
900.0	2.18e-05	40.5310001373
900.0	2.18e-05	40.5620000362
900.0	2.2e-05	40.6089999676
900.0	2.18e-05	40.6400001049
900.0	2.18e-05	40.6710000038
900.0	2.18e-05	40.7179999352
900.0	2.16e-05	40.75
900.0	2.16e-05	40.7960000038
910.0	2.27e-05	41.0929999352
910.0	2.31e-05	41.125
910.0	2.32e-05	41.1560001373
910.0	2.35e-05	41.2030000687
910.0	2.38e-05	41.2339999676
910.0	2.4e-05	41.2810001373
910.0	2.4e-05	41.3120000362
910.0	2.4e-05	41.3429999352
910.0	2.41e-05	41.3900001049
910.0	2.43e-05	41.4210000038
910.0	2.43e-05	41.4679999352
910.0	2.41e-05	41.5
910.0	2.41e-05	41.5310001373
910.0	2.4e-05	41.5780000687
910.0	2.38e-05	41.6089999676
910.0	2.4e-05	41.6560001373
910.0	2.4e-05	41.6870000362
910.0	2.4e-05	41.7179999352
910.0	2.38e-05	41.7650001049
910.0	2.37e-05	41.7960000038
910.0	2.35e-05	41.8280000687
910.0	2.37e-05	41.875
910.0	2.38e-05	41.9060001373
910.0	2.41e-05	41.9370000362
910.0	2.43e-05	41.9839999676
910.0	2.45e-05	42.0150001049
910.0	2.46e-05	42.0620000362
910.0	2.46e-05	42.0929999352
910.0	2.45e-05	42.125
910.0	2.43e-05	42.1710000038
910.0	2.43e-05	42.2030000687
910.0	2.43e-05	42.2339999676
910.0	2.41e-05	42.2810001373
910.0	2.41e-05	42.3120000362
910.0	2.38e-05	42.3429999352
910.0	2.4e-05	42.3900001049
910.0	2.38e-05	42.4210000038
910.0	2.4e-05	42.4679999352
910.0	2.41e-05	42.5
910.0	2.43e-05	42.5310001373
910.0	2.43e-05	42.5780000687
910.0	2.43e-05	42.6089999676
910.0	2.41e-05	42.6400001049
910.0	2.4e-05	42.6870000362
910.0	2.38e-05	42.7179999352
910.0	2.38e-05	42.75
910.0	2.38e-05	42.7960000038
910.0	2.38e-05	42.8280000687
910.0	2.38e-05	42.875
910.0	2.38e-05	42.9060001373
910.0	2.37e-05	42.9370000362
910.0	2.37e-05	42.9839999676
910.0	2.38e-05	43.0150001049
910.0	2.38e-05	43.0460000038
920.0	2.56e-05	43.3429999352
920.0	2.58e-05	43.3900001049
920.0	2.62e-05	43.4210000038
920.0	2.63e-05	43.4530000687
920.0	2.65e-05	43.5
920.0	2.68e-05	43.5310001373
920.0	2.68e-05	43.5780000687
920.0	2.66e-05	43.6089999676
920.0	2.66e-05	43.6400001049
920.0	2.65e-05	43.6870000362
920.0	2.68e-05	43.7179999352
920.0	2.7e-05	43.75
920.0	2.71e-05	43.7960000038
920.0	2.71e-05	43.8280000687
920.0	2.75e-05	43.8589999676
920.0	2.77e-05	43.9060001373
920.0	2.77e-05	43.9370000362
920.0	2.75e-05	43.9839999676
920.0	2.71e-05	44.0150001049
920.0	2.66e-05	44.0460000038
920.0	2.63e-05	44.0929999352
920.0	2.63e-05	44.125
920.0	2.63e-05	44.1560001373
920.0	2.65e-05	44.2030000687
920.0	2.65e-05	44.2339999676
920.0	2.65e-05	44.2650001049
920.0	2.68e-05	44.3120000362
920.0	2.71e-05	44.3429999352
920.0	2.7e-05	44.3900001049
920.0	2.7e-05	44.4210000038
920.0	2.68e-05	44.4530000687
920.0	2.66e-05	44.5
920.0	2.66e-05	44.5310001373
920.0	2.65e-05	44.5620000362
920.0	2.63e-05	44.6089999676
920.0	2.63e-05	44.6400001049
920.0	2.66e-05	44.6710000038
920.0	2.68e-05	44.7179999352
920.0	2.7e-05	44.75
920.0	2.7e-05	44.7960000038
920.0	2.71e-05	44.8280000687
920.0	2.71e-05	44.8589999676
920.0	2.7e-05	44.9060001373
920.0	2.68e-05	44.9370000362
920.0	2.68e-05	44.9679999352
920.0	2.68e-05	45.0150001049
920.0	2.68e-05	45.0460000038
920.0	2.7e-05	45.0929999352
920.0	2.71e-05	45.125
920.0	2.75e-05	45.1560001373
920.0	2.72e-05	45.2030000687
920.0	2.7e-05	45.2339999676
920.0	2.68e-05	45.2810001373
920.0	2.68e-05	45.3120000362
930.0	2.83e-05	45.6089999676
930.0	2.87e-05	45.6400001049
930.0	2.88e-05	45.6710000038
930.0	2.91e-05	45.7179999352
930.0	2.95e-05	45.75
930.0	2.96e-05	45.7810001373
930.0	2.97e-05	45.8280000687
930.0	2.96e-05	45.8589999676
930.0	2.96e-05	45.9060001373
930.0	2.96e-05	45.9370000362
930.0	2.95e-05	45.9679999352
930.0	2.95e-05	46.0150001049
930.0	2.97e-05	46.0460000038
930.0	3e-05	46.0780000687
930.0	3e-05	46.125
930.0	3e-05	46.1560001373
930.0	2.97e-05	46.2030000687
930.0	2.97e-05	46.2339999676
930.0	3e-05	46.2650001049
930.0	3.02e-05	46.3120000362
930.0	3.03e-05	46.3429999352
930.0	3.06e-05	46.375
930.0	3.06e-05	46.4210000038
930.0	3.03e-05	46.4530000687
930.0	3.03e-05	46.4839999676
930.0	3.02e-05	46.5310001373
930.0	3e-05	46.5620000362
930.0	2.96e-05	46.6089999676
930.0	2.93e-05	46.6400001049
930.0	2.93e-05	46.6710000038
930.0	2.93e-05	46.7179999352
930.0	2.93e-05	46.75
930.0	2.95e-05	46.7810001373
930.0	2.96e-05	46.8280000687
930.0	2.96e-05	46.8589999676
930.0	2.96e-05	46.8900001049
930.0	2.96e-05	46.9370000362
930.0	2.96e-05	46.9679999352
930.0	2.96e-05	47.0150001049
930.0	2.96e-05	47.0460000038
930.0	2.97e-05	47.0780000687
930.0	2.97e-05	47.125
930.0	3e-05	47.1560001373
930.0	2.97e-05	47.1870000362
930.0	3e-05	47.2339999676
930.0	3e-05	47.2650001049
930.0	2.97e-05	47.2960000038
930.0	2.96e-05	47.3429999352
930.0	2.95e-05	47.375
930.0	2.95e-05	47.4210000038
930.0	2.95e-05	47.4530000687
930.0	2.95e-05	47.4839999676
930.0	2.95e-05	47.5310001373
930.0	2.96e-05	47.5620000362
940.0	3.02e-05	47.8589999676
940.0	3.07e-05	47.8900001049
940.0	3.12e-05	47.9210000038
940.0	3.15e-05	47.9679999352
940.0	3.15e-05	48.0
940.0	3.16e-05	48.0460000038
940.0	3.2e-05	48.0780000687
940.0	3.2e-05	48.1089999676
940.0	3.2e-05	48.1560001373
940.0	3.21e-05	48.1870000362
940.0	3.21e-05	48.2179999352
940.0	3.21e-05	48.2650001049
940.0	3.21e-05	48.2960000038
940.0	3.22e-05	48.3280000687
940.0	3.26e-05	48.375
940.0	3.26e-05	48.4060001373
940.0	3.25e-05	48.4530000687
940.0	3.22e-05	48.4839999676
940.0	3.22e-05	48.5150001049
940.0	3.22e-05	48.5620000362
940.0	3.22e-05	48.5929999352
940.0	3.25e-05	48.625
940.0	3.25e-05	48.6710000038
940.0	3.25e-05	48.7030000687
940.0	3.22e-05	48.75
940.0	3.21e-05	48.7810001373
940.0	3.21e-05	48.8120000362
940.0	3.22e-05	48.8589999676
940.0	3.22e-05	48.8900001049
940.0	3.22e-05	48.9210000038
940.0	3.25e-05	48.9679999352
940.0	3.25e-05	49.0
940.0	3.22e-05	49.0310001373
940.0	3.21e-05	49.0780000687
940.0	3.2e-05	49.1089999676
940.0	3.18e-05	49.1560001373
940.0	3.18e-05	49.1870000362
940.0	3.18e-05	49.2179999352
940.0	3.18e-05	49.2650001049
940.0	3.21e-05	49.2960000038
940.0	3.21e-05	49.3280000687
940.0	3.21e-05	49.375
940.0	3.22e-05	49.4060001373
940.0	3.22e-05	49.4370000362
940.0	3.22e-05	49.4839999676
940.0	3.21e-05	49.5150001049
940.0	3.21e-05	49.5460000038
940.0	3.2e-05	49.5929999352
940.0	3.2e-05	49.625
940.0	3.18e-05	49.6710000038
940.0	3.16e-05	49.7030000687
940.0	3.16e-05	49.7339999676
940.0	3.15e-05	49.7810001373
940.0	3.18e-05	49.8120000362
950.0	3.31e-05	50.1089999676
950.0	3.33e-05	50.1400001049
950.0	3.35e-05	50.1710000038
950.0	3.38e-05	50.2179999352
950.0	3.43e-05	50.25
950.0	3.46e-05	50.2810001373
950.0	3.5e-05	50.3280000687
950.0	3.51e-05	50.3589999676
950.0	3.52e-05	50.3900001049
950.0	3.52e-05	50.4370000362
950.0	3.51e-05	50.4679999352
950.0	3.51e-05	50.5
950.0	3.52e-05	50.5460000038
950.0	3.52e-05	50.5780000687
950.0	3.52e-05	50.625
950.0	3.52e-05	50.6560001373
950.0	3.56e-05	50.6870000362
950.0	3.56e-05	50.7339999676
950.0	3.53e-05	50.7650001049
950.0	3.53e-05	50.7960000038
950.0	3.52e-05	50.8429999352
950.0	3.53e-05	50.875
950.0	3.53e-05	50.9210000038
950.0	3.53e-05	50.9530000687
950.0	3.52e-05	50.9839999676
950.0	3.52e-05	51.0310001373
950.0	3.52e-05	51.0620000362
950.0	3.52e-05	51.0929999352
950.0	3.52e-05	51.1400001049
950.0	3.52e-05	51.1710000038
950.0	3.52e-05	51.2030000687
950.0	3.53e-05	51.25
950.0	3.56e-05	51.2810001373
950.0	3.57e-05	51.3280000687
950.0	3.58e-05	51.3589999676
950.0	3.6e-05	51.3900001049
950.0	3.58e-05	51.4370000362
950.0	3.57e-05	51.4679999352
950.0	3.56e-05	51.5
950.0	3.56e-05	51.5460000038
950.0	3.56e-05	51.5780000687
950.0	3.56e-05	51.6089999676
950.0	3.56e-05	51.6560001373
950.0	3.53e-05	51.6870000362
950.0	3.52e-05	51.7339999676
950.0	3.5e-05	51.7650001049
950.0	3.47e-05	51.7960000038
950.0	3.46e-05	51.8429999352
950.0	3.47e-05	51.875
950.0	3.5e-05	51.9060001373
950.0	3.5e-05	51.9530000687
950.0	3.5e-05	51.9839999676
950.0	3.5e-05	52.0310001373
950.0	3.5e-05	52.0620000362
960.0	3.62e-05	52.3429999352
960.0	3.65e-05	52.375
960.0	3.7e-05	52.4060001373
960.0	3.72e-05	52.4530000687
960.0	3.75e-05	52.4839999676
960.0	3.76e-05	52.5310001373
960.0	3.76e-05	52.5620000362
960.0	3.77e-05	52.5929999352
960.0	3.77e-05	52.6400001049
960.0	3.78e-05	52.6710000038
960.0	3.81e-05	52.7030000687
960.0	3.82e-05	52.75
960.0	3.82e-05	52.7810001373
960.0	3.82e-05	52.8280000687
960.0	3.81e-05	52.8589999676
960.0	3.81e-05	52.8900001049
960.0	3.81e-05	52.9370000362
960.0	3.81e-05	52.9679999352
960.0	3.78e-05	53.0
960.0	3.78e-05	53.0460000038
960.0	3.78e-05	53.0780000687
960.0	3.78e-05	53.1089999676
960.0	3.81e-05	53.1560001373
960.0	3.81e-05	53.1870000362
960.0	3.77e-05	53.2179999352
960.0	3.76e-05	53.2650001049
960.0	3.76e-05	53.2960000038
960.0	3.76e-05	53.3429999352
960.0	3.76e-05	53.375
960.0	3.76e-05	53.4060001373
960.0	3.77e-05	53.4530000687
960.0	3.77e-05	53.4839999676
960.0	3.77e-05	53.5150001049
960.0	3.78e-05	53.5620000362
960.0	3.81e-05	53.5929999352
960.0	3.78e-05	53.6400001049
960.0	3.78e-05	53.6710000038
960.0	3.78e-05	53.7030000687
960.0	3.78e-05	53.75
960.0	3.78e-05	53.7810001373
960.0	3.78e-05	53.8120000362
960.0	3.81e-05	53.8589999676
960.0	3.81e-05	53.8900001049
960.0	3.81e-05	53.9210000038
960.0	3.81e-05	53.9679999352
960.0	3.78e-05	54.0
960.0	3.78e-05	54.0460000038
960.0	3.78e-05	54.0780000687
960.0	3.78e-05	54.1089999676
960.0	3.81e-05	54.1560001373
960.0	3.81e-05	54.1870000362
960.0	3.78e-05	54.2179999352
960.0	3.77e-05	54.2650001049
960.0	3.77e-05	54.2960000038
970.0	3.91e-05	54.5620000362
970.0	3.95e-05	54.6089999676
970.0	3.97e-05	54.6400001049
970.0	4.01e-05	54.6870000362
970.0	4.02e-05	54.7179999352
970.0	4.02e-05	54.75
970.0	4.03e-05	54.7960000038
970.0	4.06e-05	54.8280000687
970.0	4.06e-05	54.8589999676
970.0	4.08e-05	54.9060001373
970.0	4.07e-05	54.9370000362
970.0	4.07e-05	54.9679999352
970.0	4.07e-05	55.0150001049
970.0	4.06e-05	55.0460000038
970.0	4.03e-05	55.0929999352
970.0	4.02e-05	55.125
970.0	4.01e-05	55.1560001373
970.0	4.02e-05	55.2030000687
970.0	4.06e-05	55.2339999676
970.0	4.1e-05	55.2650001049
970.0	4.13e-05	55.3120000362
970.0	4.15e-05	55.3429999352
970.0	4.16e-05	55.375
970.0	4.16e-05	55.4210000038
970.0	4.15e-05	55.4530000687
970.0	4.15e-05	55.5
970.0	4.15e-05	55.5310001373
970.0	4.16e-05	55.5620000362
970.0	4.13e-05	55.6089999676
970.0	4.1e-05	55.6400001049
970.0	4.07e-05	55.6710000038
970.0	4.03e-05	55.7179999352
970.0	4.06e-05	55.75
970.0	4.03e-05	55.7960000038
970.0	4.06e-05	55.8280000687
970.0	4.06e-05	55.8589999676
970.0	4.06e-05	55.9060001373
970.0	4.08e-05	55.9370000362
970.0	4.08e-05	55.9679999352
970.0	4.08e-05	56.0150001049
970.0	4.1e-05	56.0460000038
970.0	4.1e-05	56.0780000687
970.0	4.1e-05	56.125
970.0	4.1e-05	56.1560001373
970.0	4.1e-05	56.2030000687
970.0	4.08e-05	56.2339999676
970.0	4.08e-05	56.2650001049
970.0	4.12e-05	56.3120000362
970.0	4.13e-05	56.3429999352
970.0	4.12e-05	56.375
970.0	4.1e-05	56.4210000038
970.0	4.08e-05	56.4530000687
970.0	4.08e-05	56.5
970.0	4.08e-05	56.5310001373
980.0	4.21e-05	56.7960000038
980.0	4.21e-05	56.8429999352
980.0	4.21e-05	56.875
980.0	4.22e-05	56.9210000038
980.0	4.25e-05	56.9530000687
980.0	4.25e-05	56.9839999676
980.0	4.26e-05	57.0310001373
980.0	4.26e-05	57.0620000362
980.0	4.27e-05	57.0929999352
980.0	4.28e-05	57.1400001049
980.0	4.31e-05	57.1710000038
980.0	4.31e-05	57.2030000687
980.0	4.32e-05	57.25
980.0	4.31e-05	57.2810001373
980.0	4.31e-05	57.3280000687
980.0	4.32e-05	57.3589999676
980.0	4.33e-05	57.3900001049
980.0	4.35e-05	57.4370000362
980.0	4.33e-05	57.4679999352
980.0	4.32e-05	57.5
980.0	4.31e-05	57.5460000038
980.0	4.27e-05	57.5780000687
980.0	4.26e-05	57.625
980.0	4.26e-05	57.6560001373
980.0	4.26e-05	57.6870000362
980.0	4.28e-05	57.7339999676
980.0	4.27e-05	57.7650001049
980.0	4.31e-05	57.7960000038
980.0	4.32e-05	57.8429999352
980.0	4.35e-05	57.875
980.0	4.37e-05	57.9060001373
980.0	4.4e-05	57.9530000687
980.0	4.4e-05	57.9839999676
980.0	4.38e-05	58.0310001373
980.0	4.37e-05	58.0620000362
980.0	4.37e-05	58.0929999352
980.0	4.37e-05	58.1400001049
980.0	4.35e-05	58.1710000038
980.0	4.35e-05	58.2030000687
980.0	4.35e-05	58.25
980.0	4.35e-05	58.2810001373
980.0	4.35e-05	58.3120000362
980.0	4.32e-05	58.3589999676
980.0	4.31e-05	58.3900001049
980.0	4.31e-05	58.4370000362
980.0	4.28e-05	58.4679999352
980.0	4.28e-05	58.5
980.0	4.32e-05	58.5460000038
980.0	4.33e-05	58.5780000687
980.0	4.32e-05	58.6089999676
980.0	4.32e-05	58.6560001373
980.0	4.33e-05	58.6870000362
980.0	4.33e-05	58.7179999352
980.0	4.33e-05	58.7650001049
990.0	4.47e-05	59.0310001373
990.0	4.52e-05	59.0780000687
990.0	4.57e-05	59.1089999676
990.0	4.62e-05	59.1400001049
990.0	4.62e-05	59.1870000362
990.0	4.62e-05	59.2179999352
990.0	4.62e-05	59.25
990.0	4.6e-05	59.2960000038
990.0	4.62e-05	59.3280000687
990.0	4.62e-05	59.375
990.0	4.6e-05	59.4060001373
990.0	4.58e-05	59.4370000362
990.0	4.57e-05	59.4839999676
990.0	4.57e-05	59.5150001049
990.0	4.57e-05	59.5460000038
990.0	4.57e-05	59.5929999352
990.0	4.56e-05	59.625
990.0	4.53e-05	59.6560001373
990.0	4.56e-05	59.7030000687
990.0	4.58e-05	59.7339999676
990.0	4.6e-05	59.7810001373
990.0	4.58e-05	59.8120000362
990.0	4.58e-05	59.8429999352
990.0	4.58e-05	59.8900001049
990.0	4.58e-05	59.9210000038
990.0	4.6e-05	59.9530000687
990.0	4.63e-05	60.0
990.0	4.63e-05	60.0310001373
990.0	4.65e-05	60.0620000362
990.0	4.63e-05	60.1089999676
990.0	4.63e-05	60.1400001049
990.0	4.63e-05	60.1870000362
990.0	4.6e-05	60.2179999352
990.0	4.58e-05	60.25
990.0	4.56e-05	60.2960000038
990.0	4.56e-05	60.3280000687
990.0	4.56e-05	60.3589999676
990.0	4.56e-05	60.4060001373
990.0	4.56e-05	60.4370000362
990.0	4.57e-05	60.4679999352
990.0	4.6e-05	60.5150001049
990.0	4.62e-05	60.5460000038
990.0	4.62e-05	60.5929999352
990.0	4.63e-05	60.625
990.0	4.62e-05	60.6560001373
990.0	4.62e-05	60.7030000687
990.0	4.62e-05	60.7339999676
990.0	4.62e-05	60.7650001049
990.0	4.6e-05	60.8120000362
990.0	4.6e-05	60.8429999352
990.0	4.6e-05	60.875
990.0	4.62e-05	60.9210000038
990.0	4.62e-05	60.9530000687
990.0	4.62e-05	61.0
1000.0	4.66e-05	61.2650001049
1000.0	4.68e-05	61.2960000038
1000.0	4.71e-05	61.3429999352
1000.0	4.72e-05	61.375
1000.0	4.75e-05	61.4060001373
1000.0	4.77e-05	61.4530000687
1000.0	4.78e-05	61.4839999676
1000.0	4.81e-05	61.5310001373
1000.0	4.82e-05	61.5620000362
1000.0	4.81e-05	61.5929999352
1000.0	4.81e-05	61.6400001049
1000.0	4.81e-05	61.6710000038
1000.0	4.81e-05	61.7030000687
1000.0	4.78e-05	61.75
1000.0	4.78e-05	61.7810001373
1000.0	4.78e-05	61.8120000362
1000.0	4.78e-05	61.8589999676
1000.0	4.82e-05	61.8900001049
1000.0	4.83e-05	61.9210000038
1000.0	4.85e-05	61.9679999352
1000.0	4.85e-05	62.0
1000.0	4.85e-05	62.0460000038
1000.0	4.82e-05	62.0780000687
1000.0	4.81e-05	62.1089999676
1000.0	4.78e-05	62.1560001373
1000.0	4.78e-05	62.1870000362
1000.0	4.81e-05	62.2179999352
1000.0	4.81e-05	62.2650001049
1000.0	4.81e-05	62.2960000038
1000.0	4.82e-05	62.3429999352
1000.0	4.82e-05	62.375
1000.0	4.82e-05	62.4060001373
1000.0	4.85e-05	62.4530000687
1000.0	4.88e-05	62.4839999676
1000.0	4.87e-05	62.5150001049
1000.0	4.87e-05	62.5620000362
1000.0	4.88e-05	62.5929999352
1000.0	4.88e-05	62.625
1000.0	4.9e-05	62.6710000038
1000.0	4.91e-05	62.7030000687
1000.0	4.91e-05	62.75
1000.0	4.9e-05	62.7810001373
1000.0	4.88e-05	62.8120000362
1000.0	4.85e-05	62.8589999676
1000.0	4.87e-05	62.8900001049
1000.0	4.87e-05	62.9210000038
1000.0	4.85e-05	62.9679999352
1000.0	4.83e-05	63.0
1000.0	4.83e-05	63.0460000038
1000.0	4.83e-05	63.0780000687
1000.0	4.83e-05	63.1089999676
1000.0	4.83e-05	63.1560001373
1000.0	4.83e-05	63.1870000362
1000.0	4.85e-05	63.2179999352
1010.0	4.97e-05	63.5
1010.0	5.02e-05	63.5310001373
1010.0	5.03e-05	63.5620000362
1010.0	5.06e-05	63.6089999676
1010.0	5.08e-05	63.6400001049
1010.0	5.12e-05	63.6710000038
1010.0	5.12e-05	63.7179999352
1010.0	5.12e-05	63.75
1010.0	5.12e-05	63.7960000038
1010.0	5.12e-05	63.8280000687
1010.0	5.12e-05	63.8589999676
1010.0	5.1e-05	63.9060001373
1010.0	5.1e-05	63.9370000362
1010.0	5.1e-05	63.9679999352
1010.0	5.1e-05	64.0150001049
1010.0	5.12e-05	64.0460000038
1010.0	5.15e-05	64.0929999352
1010.0	5.16e-05	64.125
1010.0	5.16e-05	64.1560001373
1010.0	5.16e-05	64.2030000687
1010.0	5.16e-05	64.2339999676
1010.0	5.16e-05	64.2650001049
1010.0	5.16e-05	64.3120000362
1010.0	5.16e-05	64.3429999352
1010.0	5.13e-05	64.375
1010.0	5.1e-05	64.4210000038
1010.0	5.08e-05	64.4530000687
1010.0	5.06e-05	64.5
1010.0	5.06e-05	64.5310001373
1010.0	5.07e-05	64.5620000362
1010.0	5.08e-05	64.6089999676
1010.0	5.12e-05	64.6400001049
1010.0	5.13e-05	64.6710000038
1010.0	5.13e-05	64.7179999352
1010.0	5.13e-05	64.75
1010.0	5.15e-05	64.7810001373
1010.0	5.13e-05	64.8280000687
1010.0	5.13e-05	64.8589999676
1010.0	5.15e-05	64.9060001373
1010.0	5.13e-05	64.9370000362
1010.0	5.1e-05	64.9679999352
1010.0	5.08e-05	65.0150001049
1010.0	5.08e-05	65.0460000038
1010.0	5.1e-05	65.0780000687
1010.0	5.13e-05	65.125
1010.0	5.18e-05	65.1560001373
1010.0	5.2e-05	65.2030000687
1010.0	5.18e-05	65.2339999676
1010.0	5.18e-05	65.2650001049
1010.0	5.16e-05	65.3120000362
1010.0	5.16e-05	65.3429999352
1010.0	5.16e-05	65.375
1010.0	5.16e-05	65.4210000038
1010.0	5.15e-05	65.4530000687
1020.0	5.26e-05	65.7339999676
1020.0	5.28e-05	65.7650001049
1020.0	5.32e-05	65.7960000038
1020.0	5.35e-05	65.8429999352
1020.0	5.37e-05	65.875
1020.0	5.37e-05	65.9060001373
1020.0	5.35e-05	65.9530000687
1020.0	5.35e-05	65.9839999676
1020.0	5.37e-05	66.0310001373
1020.0	5.4e-05	66.0620000362
1020.0	5.41e-05	66.0929999352
1020.0	5.41e-05	66.1400001049
1020.0	5.38e-05	66.1710000038
1020.0	5.37e-05	66.2030000687
1020.0	5.35e-05	66.25
1020.0	5.35e-05	66.2810001373
1020.0	5.35e-05	66.3280000687
1020.0	5.37e-05	66.3589999676
1020.0	5.38e-05	66.3900001049
1020.0	5.38e-05	66.4370000362
1020.0	5.41e-05	66.4679999352
1020.0	5.41e-05	66.5
1020.0	5.41e-05	66.5460000038
1020.0	5.4e-05	66.5780000687
1020.0	5.38e-05	66.6089999676
1020.0	5.37e-05	66.6560001373
1020.0	5.35e-05	66.6870000362
1020.0	5.33e-05	66.7339999676
1020.0	5.35e-05	66.7650001049
1020.0	5.37e-05	66.7960000038
1020.0	5.33e-05	66.8429999352
1020.0	5.32e-05	66.875
1020.0	5.32e-05	66.9060001373
1020.0	5.33e-05	66.9530000687
1020.0	5.35e-05	66.9839999676
1020.0	5.37e-05	67.0150001049
1020.0	5.37e-05	67.0620000362
1020.0	5.37e-05	67.0929999352
1020.0	5.35e-05	67.1400001049
1020.0	5.33e-05	67.1710000038
1020.0	5.35e-05	67.2030000687
1020.0	5.37e-05	67.25
1020.0	5.38e-05	67.2810001373
1020.0	5.38e-05	67.3120000362
1020.0	5.38e-05	67.3589999676
1020.0	5.4e-05	67.3900001049
1020.0	5.41e-05	67.4210000038
1020.0	5.43e-05	67.4679999352
1020.0	5.43e-05	67.5
1020.0	5.45e-05	67.5460000038
1020.0	5.45e-05	67.5780000687
1020.0	5.43e-05	67.6089999676
1020.0	5.43e-05	67.6560001373
1020.0	5.41e-05	67.6870000362
1030.0	5.52e-05	67.9679999352
1030.0	5.57e-05	68.0
1030.0	5.58e-05	68.0310001373
1030.0	5.63e-05	68.0780000687
1030.0	5.66e-05	68.1089999676
1030.0	5.7e-05	68.1560001373
1030.0	5.71e-05	68.1870000362
1030.0	5.71e-05	68.2179999352
1030.0	5.7e-05	68.2650001049
1030.0	5.7e-05	68.2960000038
1030.0	5.71e-05	68.3280000687
1030.0	5.71e-05	68.375
1030.0	5.71e-05	68.4060001373
1030.0	5.71e-05	68.4370000362
1030.0	5.71e-05	68.4839999676
1030.0	5.68e-05	68.5150001049
1030.0	5.66e-05	68.5460000038
1030.0	5.65e-05	68.5929999352
1030.0	5.63e-05	68.625
1030.0	5.65e-05	68.6710000038
1030.0	5.66e-05	68.7030000687
1030.0	5.68e-05	68.7339999676
1030.0	5.68e-05	68.7810001373
1030.0	5.65e-05	68.8120000362
1030.0	5.65e-05	68.8429999352
1030.0	5.63e-05	68.8900001049
1030.0	5.65e-05	68.9210000038
1030.0	5.65e-05	68.9679999352
1030.0	5.65e-05	69.0
1030.0	5.66e-05	69.0310001373
1030.0	5.66e-05	69.0780000687
1030.0	5.68e-05	69.1089999676
1030.0	5.68e-05	69.1400001049
1030.0	5.68e-05	69.1870000362
1030.0	5.68e-05	69.2179999352
1030.0	5.68e-05	69.25
1030.0	5.7e-05	69.2960000038
1030.0	5.68e-05	69.3280000687
1030.0	5.68e-05	69.375
1030.0	5.7e-05	69.4060001373
1030.0	5.68e-05	69.4370000362
1030.0	5.66e-05	69.4839999676
1030.0	5.66e-05	69.5150001049
1030.0	5.68e-05	69.5460000038
1030.0	5.68e-05	69.5929999352
1030.0	5.68e-05	69.625
1030.0	5.68e-05	69.6560001373
1030.0	5.7e-05	69.7030000687
1030.0	5.71e-05	69.7339999676
1030.0	5.72e-05	69.7810001373
1030.0	5.71e-05	69.8120000362
1030.0	5.7e-05	69.8429999352
1030.0	5.7e-05	69.8900001049
1030.0	5.7e-05	69.9210000038
1040.0	5.76e-05	70.1870000362
1040.0	5.78e-05	70.2339999676
1040.0	5.81e-05	70.2650001049
1040.0	5.83e-05	70.2960000038
1040.0	5.85e-05	70.3429999352
1040.0	5.88e-05	70.375
1040.0	5.9e-05	70.4210000038
1040.0	5.93e-05	70.4530000687
1040.0	5.95e-05	70.4839999676
1040.0	5.91e-05	70.5310001373
1040.0	5.91e-05	70.5620000362
1040.0	5.9e-05	70.5929999352
1040.0	5.91e-05	70.6400001049
1040.0	5.9e-05	70.6710000038
1040.0	5.9e-05	70.7030000687
1040.0	5.9e-05	70.75
1040.0	5.9e-05	70.7810001373
1040.0	5.88e-05	70.8280000687
1040.0	5.9e-05	70.8589999676
1040.0	5.91e-05	70.8900001049
1040.0	5.91e-05	70.9370000362
1040.0	5.93e-05	70.9679999352
1040.0	5.93e-05	71.0
1040.0	5.95e-05	71.0460000038
1040.0	5.96e-05	71.0780000687
1040.0	5.96e-05	71.125
1040.0	5.96e-05	71.1560001373
1040.0	5.97e-05	71.1870000362
1040.0	5.97e-05	71.2339999676
1040.0	6e-05	71.2650001049
1040.0	6.01e-05	71.2960000038
1040.0	6.01e-05	71.3429999352
1040.0	6.01e-05	71.375
1040.0	6.01e-05	71.4060001373
1040.0	6e-05	71.4530000687
1040.0	6e-05	71.4839999676
1040.0	6e-05	71.5310001373
1040.0	5.97e-05	71.5620000362
1040.0	5.97e-05	71.5929999352
1040.0	5.97e-05	71.6400001049
1040.0	5.96e-05	71.6710000038
1040.0	5.96e-05	71.7030000687
1040.0	5.96e-05	71.75
1040.0	5.97e-05	71.7810001373
1040.0	6e-05	71.8280000687
1040.0	6.01e-05	71.8589999676
1040.0	6e-05	71.8900001049
1040.0	6.01e-05	71.9370000362
1040.0	6e-05	71.9679999352
1040.0	6e-05	72.0
1040.0	6e-05	72.0460000038
1040.0	6.01e-05	72.0780000687
1040.0	5.97e-05	72.1089999676
1040.0	5.96e-05	72.1560001373
1050.0	6.06e-05	72.4210000038
1050.0	6.1e-05	72.4530000687
1050.0	6.16e-05	72.5
1050.0	6.21e-05	72.5310001373
1050.0	6.25e-05	72.5780000687
1050.0	6.26e-05	72.6089999676
1050.0	6.27e-05	72.6400001049
1050.0	6.27e-05	72.6870000362
1050.0	6.27e-05	72.7179999352
1050.0	6.28e-05	72.7650001049
1050.0	6.28e-05	72.7960000038
1050.0	6.28e-05	72.8280000687
1050.0	6.28e-05	72.875
1050.0	6.31e-05	72.9060001373
1050.0	6.31e-05	72.9530000687
1050.0	6.28e-05	72.9839999676
1050.0	6.27e-05	73.0150001049
1050.0	6.27e-05	73.0620000362
1050.0	6.26e-05	73.0929999352
1050.0	6.26e-05	73.125
1050.0	6.26e-05	73.1710000038
1050.0	6.26e-05	73.2030000687
1050.0	6.26e-05	73.25
1050.0	6.27e-05	73.2810001373
1050.0	6.28e-05	73.3120000362
1050.0	6.31e-05	73.3589999676
1050.0	6.31e-05	73.3900001049
1050.0	6.31e-05	73.4370000362
1050.0	6.31e-05	73.4679999352
1050.0	6.31e-05	73.5
1050.0	6.31e-05	73.5460000038
1050.0	6.31e-05	73.5780000687
1050.0	6.32e-05	73.6089999676
1050.0	6.32e-05	73.6560001373
1050.0	6.31e-05	73.6870000362
1050.0	6.32e-05	73.7179999352
1050.0	6.32e-05	73.7650001049
1050.0	6.33e-05	73.7960000038
1050.0	6.33e-05	73.8429999352
1050.0	6.32e-05	73.875
1050.0	6.32e-05	73.9060001373
1050.0	6.32e-05	73.9530000687
1050.0	6.32e-05	73.9839999676
1050.0	6.31e-05	74.0150001049
1050.0	6.32e-05	74.0620000362
1050.0	6.33e-05	74.0929999352
1050.0	6.35e-05	74.1400001049
1050.0	6.37e-05	74.1710000038
1050.0	6.35e-05	74.2030000687
1050.0	6.35e-05	74.25
1050.0	6.33e-05	74.2810001373
1050.0	6.35e-05	74.3280000687
1050.0	6.35e-05	74.3589999676
1050.0	6.35e-05	74.3900001049
1060.0	6.46e-05	74.6710000038
1060.0	6.51e-05	74.7030000687
1060.0	6.56e-05	74.7339999676
1060.0	6.57e-05	74.7810001373
1060.0	6.6e-05	74.8120000362
1060.0	6.62e-05	74.8429999352
1060.0	6.62e-05	74.8900001049
1060.0	6.63e-05	74.9210000038
1060.0	6.65e-05	74.9679999352
1060.0	6.65e-05	75.0
1060.0	6.66e-05	75.0310001373
1060.0	6.68e-05	75.0780000687
1060.0	6.68e-05	75.1089999676
1060.0	6.68e-05	75.1400001049
1060.0	6.68e-05	75.1870000362
1060.0	6.68e-05	75.2179999352
1060.0	6.7e-05	75.2650001049
1060.0	6.71e-05	75.2960000038
1060.0	6.7e-05	75.3280000687
1060.0	6.7e-05	75.375
1060.0	6.7e-05	75.4060001373
1060.0	6.68e-05	75.4370000362
1060.0	6.68e-05	75.4839999676
1060.0	6.68e-05	75.5150001049
1060.0	6.68e-05	75.5460000038
1060.0	6.7e-05	75.5929999352
1060.0	6.71e-05	75.625
1060.0	6.71e-05	75.6710000038
1060.0	6.71e-05	75.7030000687
1060.0	6.71e-05	75.7339999676
1060.0	6.71e-05	75.7810001373
1060.0	6.71e-05	75.8120000362
1060.0	6.71e-05	75.8589999676
1060.0	6.72e-05	75.8900001049
1060.0	6.72e-05	75.9210000038
1060.0	6.71e-05	75.9679999352
1060.0	6.71e-05	76.0
1060.0	6.7e-05	76.0310001373
1060.0	6.68e-05	76.0780000687
1060.0	6.65e-05	76.1089999676
1060.0	6.65e-05	76.1560001373
1060.0	6.65e-05	76.1870000362
1060.0	6.63e-05	76.2179999352
1060.0	6.63e-05	76.2650001049
1060.0	6.63e-05	76.2960000038
1060.0	6.63e-05	76.3280000687
1060.0	6.66e-05	76.375
1060.0	6.7e-05	76.4060001373
1060.0	6.71e-05	76.4370000362
1060.0	6.71e-05	76.4839999676
1060.0	6.71e-05	76.5150001049
1060.0	6.72e-05	76.5620000362
1060.0	6.71e-05	76.5929999352
1060.0	6.71e-05	76.625
1070.0	6.88e-05	76.9060001373
1070.0	6.95e-05	76.9370000362
1070.0	7.01e-05	76.9679999352
1070.0	7.02e-05	77.0150001049
1070.0	7.01e-05	77.0460000038
1070.0	7.01e-05	77.0780000687
1070.0	7.02e-05	77.125
1070.0	7.06e-05	77.1560001373
1070.0	7.07e-05	77.2030000687
1070.0	7.07e-05	77.2339999676
1070.0	7.08e-05	77.2650001049
1070.0	7.1e-05	77.3120000362
1070.0	7.1e-05	77.3429999352
1070.0	7.12e-05	77.375
1070.0	7.13e-05	77.4210000038
1070.0	7.15e-05	77.4530000687
1070.0	7.15e-05	77.4839999676
1070.0	7.15e-05	77.5310001373
1070.0	7.15e-05	77.5620000362
1070.0	7.12e-05	77.6089999676
1070.0	7.1e-05	77.6400001049
1070.0	7.1e-05	77.6710000038
1070.0	7.12e-05	77.7179999352
1070.0	7.13e-05	77.75
1070.0	7.15e-05	77.7810001373
1070.0	7.15e-05	77.8280000687
1070.0	7.15e-05	77.8589999676
1070.0	7.13e-05	77.9060001373
1070.0	7.12e-05	77.9370000362
1070.0	7.13e-05	77.9679999352
1070.0	7.12e-05	78.0150001049
1070.0	7.12e-05	78.0460000038
1070.0	7.1e-05	78.0780000687
1070.0	7.1e-05	78.125
1070.0	7.1e-05	78.1560001373
1070.0	7.1e-05	78.1870000362
1070.0	7.12e-05	78.2339999676
1070.0	7.12e-05	78.2650001049
1070.0	7.12e-05	78.3120000362
1070.0	7.12e-05	78.3429999352
1070.0	7.1e-05	78.375
1070.0	7.12e-05	78.4210000038
1070.0	7.12e-05	78.4530000687
1070.0	7.12e-05	78.4839999676
1070.0	7.08e-05	78.5310001373
1070.0	7.08e-05	78.5620000362
1070.0	7.1e-05	78.5929999352
1070.0	7.1e-05	78.6400001049
1070.0	7.1e-05	78.6710000038
1070.0	7.1e-05	78.7179999352
1070.0	7.1e-05	78.75
1070.0	7.08e-05	78.7810001373
1070.0	7.07e-05	78.8280000687
1070.0	7.08e-05	78.8589999676
1080.0	7.21e-05	79.125
1080.0	7.27e-05	79.1710000038
1080.0	7.35e-05	79.2030000687
1080.0	7.41e-05	79.2339999676
1080.0	7.45e-05	79.2810001373
1080.0	7.47e-05	79.3120000362
1080.0	7.5e-05	79.3589999676
1080.0	7.52e-05	79.3900001049
1080.0	7.53e-05	79.4210000038
1080.0	7.56e-05	79.4679999352
1080.0	7.56e-05	79.5
1080.0	7.56e-05	79.5310001373
1080.0	7.57e-05	79.5780000687
1080.0	7.56e-05	79.6089999676
1080.0	7.53e-05	79.6560001373
1080.0	7.52e-05	79.6870000362
1080.0	7.51e-05	79.7179999352
1080.0	7.51e-05	79.7650001049
1080.0	7.52e-05	79.7960000038
1080.0	7.53e-05	79.8280000687
1080.0	7.53e-05	79.875
1080.0	7.52e-05	79.9060001373
1080.0	7.52e-05	79.9370000362
1080.0	7.52e-05	79.9839999676
1080.0	7.53e-05	80.0150001049
1080.0	7.52e-05	80.0620000362
1080.0	7.52e-05	80.0929999352
1080.0	7.53e-05	80.125
1080.0	7.56e-05	80.1710000038
1080.0	7.58e-05	80.2030000687
1080.0	7.62e-05	80.2339999676
1080.0	7.62e-05	80.2810001373
1080.0	7.63e-05	80.3120000362
1080.0	7.63e-05	80.3429999352
1080.0	7.62e-05	80.3900001049
1080.0	7.62e-05	80.4210000038
1080.0	7.6e-05	80.4679999352
1080.0	7.6e-05	80.5
1080.0	7.6e-05	80.5310001373
1080.0	7.6e-05	80.5780000687
1080.0	7.6e-05	80.6089999676
1080.0	7.6e-05	80.6400001049
1080.0	7.6e-05	80.6870000362
1080.0	7.6e-05	80.7179999352
1080.0	7.57e-05	80.75
1080.0	7.53e-05	80.7960000038
1080.0	7.51e-05	80.8280000687
1080.0	7.5e-05	80.875
1080.0	7.5e-05	80.9060001373
1080.0	7.47e-05	80.9370000362
1080.0	7.47e-05	80.9839999676
1080.0	7.5e-05	81.0150001049
1080.0	7.51e-05	81.0460000038
1080.0	7.52e-05	81.0929999352
1090.0	7.7e-05	81.3589999676
1090.0	7.77e-05	81.3900001049
1090.0	7.83e-05	81.4370000362
1090.0	7.87e-05	81.4679999352
1090.0	7.9e-05	81.5
1090.0	7.95e-05	81.5460000038
1090.0	7.97e-05	81.5780000687
1090.0	8.01e-05	81.6089999676
1090.0	8.03e-05	81.6560001373
1090.0	8.06e-05	81.6870000362
1090.0	8.07e-05	81.7179999352
1090.0	8.07e-05	81.7650001049
1090.0	8.07e-05	81.7960000038
1090.0	8.08e-05	81.8429999352
1090.0	8.1e-05	81.875
1090.0	8.1e-05	81.9060001373
1090.0	8.12e-05	81.9530000687
1090.0	8.1e-05	81.9839999676
1090.0	8.07e-05	82.0150001049
1090.0	8.07e-05	82.0620000362
1090.0	8.08e-05	82.0929999352
1090.0	8.07e-05	82.1400001049
1090.0	8.06e-05	82.1710000038
1090.0	8.08e-05	82.2030000687
1090.0	8.1e-05	82.25
1090.0	8.1e-05	82.2810001373
1090.0	8.08e-05	82.3120000362
1090.0	8.1e-05	82.3589999676
1090.0	8.1e-05	82.3900001049
1090.0	8.12e-05	82.4210000038
1090.0	8.12e-05	82.4679999352
1090.0	8.1e-05	82.5
1090.0	8.1e-05	82.5460000038
1090.0	8.1e-05	82.5780000687
1090.0	8.08e-05	82.6089999676
1090.0	8.07e-05	82.6560001373
1090.0	8.07e-05	82.6870000362
1090.0	8.08e-05	82.7179999352
1090.0	8.08e-05	82.7650001049
1090.0	8.1e-05	82.7960000038
1090.0	8.08e-05	82.8280000687
1090.0	8.08e-05	82.875
1090.0	8.08e-05	82.9060001373
1090.0	8.08e-05	82.9530000687
1090.0	8.07e-05	82.9839999676
1090.0	8.07e-05	83.0150001049
1090.0	8.07e-05	83.0620000362
1090.0	8.07e-05	83.0929999352
1090.0	8.07e-05	83.125
1090.0	8.06e-05	83.1710000038
1090.0	8.07e-05	83.2030000687
1090.0	8.03e-05	83.25
1090.0	8.03e-05	83.2810001373
1090.0	8.06e-05	83.3120000362
1100.0	8.33e-05	83.5780000687
1100.0	8.45e-05	83.6089999676
1100.0	8.53e-05	83.6560001373
1100.0	8.58e-05	83.6870000362
1100.0	8.63e-05	83.7339999676
1100.0	8.66e-05	83.7650001049
1100.0	8.7e-05	83.7960000038
1100.0	8.71e-05	83.8429999352
1100.0	8.72e-05	83.875
1100.0	8.75e-05	83.9060001373
1100.0	8.75e-05	83.9530000687
1100.0	8.72e-05	83.9839999676
1100.0	8.71e-05	84.0150001049
1100.0	8.7e-05	84.0620000362
1100.0	8.71e-05	84.0929999352
1100.0	8.72e-05	84.1400001049
1100.0	8.76e-05	84.1710000038
1100.0	8.77e-05	84.2030000687
1100.0	8.78e-05	84.25
1100.0	8.81e-05	84.2810001373
1100.0	8.81e-05	84.3120000362
1100.0	8.78e-05	84.3589999676
1100.0	8.81e-05	84.3900001049
1100.0	8.78e-05	84.4210000038
1100.0	8.81e-05	84.4679999352
1100.0	8.81e-05	84.5
1100.0	8.81e-05	84.5460000038
1100.0	8.78e-05	84.5780000687
1100.0	8.78e-05	84.6089999676
1100.0	8.81e-05	84.6560001373
1100.0	8.81e-05	84.6870000362
1100.0	8.81e-05	84.7179999352
1100.0	8.81e-05	84.7650001049
1100.0	8.76e-05	84.7960000038
1100.0	8.75e-05	84.8280000687
1100.0	8.75e-05	84.875
1100.0	8.75e-05	84.9060001373
1100.0	8.75e-05	84.9530000687
1100.0	8.75e-05	84.9839999676
1100.0	8.72e-05	85.0150001049
1100.0	8.72e-05	85.0620000362
1100.0	8.72e-05	85.0929999352
1100.0	8.75e-05	85.125
1100.0	8.75e-05	85.1710000038
1100.0	8.75e-05	85.2030000687
1100.0	8.75e-05	85.25
1100.0	8.75e-05	85.2810001373
1100.0	8.76e-05	85.3120000362
1100.0	8.75e-05	85.3589999676
1100.0	8.72e-05	85.3900001049
1100.0	8.71e-05	85.4210000038
1100.0	8.72e-05	85.4679999352
1100.0	8.76e-05	85.5
1100.0	8.77e-05	85.5310001373
1110.0	9.06e-05	85.7960000038
1110.0	9.15e-05	85.8280000687
1110.0	9.26e-05	85.875
1110.0	9.33e-05	85.9060001373
1110.0	9.4e-05	85.9370000362
1110.0	9.45e-05	85.9839999676
1110.0	9.5e-05	86.0150001049
1110.0	9.53e-05	86.0620000362
1110.0	9.58e-05	86.0929999352
1110.0	9.6e-05	86.125
1110.0	9.58e-05	86.1710000038
1110.0	9.57e-05	86.2030000687
1110.0	9.57e-05	86.2339999676
1110.0	9.57e-05	86.2810001373
1110.0	9.58e-05	86.3120000362
1110.0	9.6e-05	86.3429999352
1110.0	9.6e-05	86.3900001049
1110.0	9.6e-05	86.4210000038
1110.0	9.62e-05	86.4679999352
1110.0	9.62e-05	86.5
1110.0	9.63e-05	86.5310001373
1110.0	9.63e-05	86.5780000687
1110.0	9.62e-05	86.6089999676
1110.0	9.62e-05	86.6400001049
1110.0	9.6e-05	86.6870000362
1110.0	9.6e-05	86.7179999352
1110.0	9.58e-05	86.7650001049
1110.0	9.57e-05	86.7960000038
1110.0	9.57e-05	86.8280000687
1110.0	9.57e-05	86.875
1110.0	9.57e-05	86.9060001373
1110.0	9.57e-05	86.9370000362
1110.0	9.57e-05	86.9839999676
1110.0	9.57e-05	87.0150001049
1110.0	9.57e-05	87.0460000038
1110.0	9.57e-05	87.0929999352
1110.0	9.57e-05	87.125
1110.0	9.56e-05	87.1710000038
1110.0	9.56e-05	87.2030000687
1110.0	9.56e-05	87.2339999676
1110.0	9.56e-05	87.2810001373
1110.0	9.56e-05	87.3120000362
1110.0	9.57e-05	87.3429999352
1110.0	9.57e-05	87.3900001049
1110.0	9.58e-05	87.4210000038
1110.0	9.58e-05	87.4530000687
1110.0	9.57e-05	87.5
1110.0	9.57e-05	87.5310001373
1110.0	9.58e-05	87.5780000687
1110.0	9.57e-05	87.6089999676
1110.0	9.6e-05	87.6400001049
1110.0	9.62e-05	87.6870000362
1110.0	9.65e-05	87.7179999352
1110.0	9.65e-05	87.7650001049
1120.0	9.96e-05	88.0150001049
1120.0	0.0001008	88.0620000362
1120.0	0.0001021	88.0929999352
1120.0	0.0001032	88.1400001049
1120.0	0.0001041	88.1870000362
1120.0	0.0001051	88.2179999352
1120.0	0.0001058	88.2650001049
1120.0	0.0001063	88.3120000362
1120.0	0.0001066	88.3429999352
1120.0	0.000107	88.3900001049
1120.0	0.0001071	88.4210000038
1120.0	0.0001071	88.4679999352
1120.0	0.0001072	88.5150001049
1120.0	0.0001071	88.5460000038
1120.0	0.0001071	88.5929999352
1120.0	0.0001068	88.6400001049
1120.0	0.0001065	88.6710000038
1120.0	0.0001066	88.7179999352
1120.0	0.0001068	88.7650001049
1120.0	0.0001071	88.7960000038
1120.0	0.0001072	88.8429999352
1120.0	0.0001072	88.875
1120.0	0.0001071	88.9210000038
1120.0	0.0001072	88.9679999352
1120.0	0.0001072	89.0
1120.0	0.0001071	89.0460000038
1120.0	0.000107	89.0929999352
1120.0	0.0001071	89.125
1120.0	0.0001072	89.1710000038
1120.0	0.0001072	89.2030000687
1120.0	0.0001075	89.25
1120.0	0.0001076	89.2960000038
1120.0	0.0001077	89.3280000687
1120.0	0.0001077	89.375
1120.0	0.0001077	89.4210000038
1120.0	0.0001076	89.4530000687
1120.0	0.0001075	89.5
1120.0	0.0001072	89.5310001373
1120.0	0.0001072	89.5780000687
1120.0	0.0001071	89.625
1120.0	0.0001071	89.6560001373
1120.0	0.000107	89.7030000687
1120.0	0.0001071	89.75
1120.0	0.0001072	89.7810001373
1120.0	0.0001075	89.8280000687
1120.0	0.0001072	89.875
1120.0	0.0001071	89.9060001373
1120.0	0.0001071	89.9530000687
1120.0	0.0001071	89.9839999676
1130.0	0.0001127	90.25
1130.0	0.000115	90.2960000038
1130.0	0.0001165	90.3429999352
1130.0	0.0001181	90.375
1130.0	0.000119	90.4210000038
1130.0	0.0001201	90.4679999352
1130.0	0.0001207	90.5
1130.0	0.0001213	90.5460000038
1130.0	0.0001218	90.5780000687
1130.0	0.0001222	90.625
1130.0	0.0001227	90.6710000038
1130.0	0.0001228	90.7030000687
1130.0	0.0001232	90.75
1130.0	0.0001232	90.7960000038
1130.0	0.0001232	90.8280000687
1130.0	0.0001232	90.875
1130.0	0.0001231	90.9210000038
1130.0	0.0001228	90.9530000687
1130.0	0.0001228	91.0
1130.0	0.0001231	91.0310001373
1130.0	0.0001232	91.0780000687
1130.0	0.0001233	91.125
1130.0	0.0001235	91.1560001373
1130.0	0.0001235	91.2030000687
1130.0	0.0001233	91.25
1130.0	0.0001233	91.2810001373
1130.0	0.0001232	91.3280000687
1130.0	0.0001232	91.3589999676
1130.0	0.0001233	91.4060001373
1130.0	0.0001237	91.4530000687
1130.0	0.000124	91.4839999676
1130.0	0.000124	91.5310001373
1130.0	0.0001238	91.5780000687
1130.0	0.0001235	91.6089999676
1130.0	0.0001235	91.6560001373
1130.0	0.0001237	91.7030000687
1130.0	0.0001238	91.7339999676
1130.0	0.0001237	91.7810001373
1130.0	0.0001237	91.8120000362
1130.0	0.0001235	91.8589999676
1130.0	0.0001235	91.9060001373
1130.0	0.0001235	91.9370000362
1130.0	0.0001235	91.9839999676
1130.0	0.0001235	92.0310001373
1130.0	0.0001233	92.0620000362
1130.0	0.0001232	92.1089999676
1130.0	0.0001232	92.1400001049
1130.0	0.0001233	92.1870000362
1130.0	0.0001235	92.2339999676
1140.0	0.0001301	92.5
1140.0	0.0001327	92.5310001373
1140.0	0.0001353	92.5780000687
1140.0	0.0001372	92.6089999676
1140.0	0.0001388	92.6560001373
1140.0	0.00014	92.7030000687
1140.0	0.0001407	92.7339999676
1140.0	0.0001412	92.7810001373
1140.0	0.0001415	92.8280000687
1140.0	0.0001418	92.8589999676
1140.0	0.0001418	92.9060001373
1140.0	0.0001418	92.9370000362
1140.0	0.000142	92.9839999676
1140.0	0.0001422	93.0310001373
1140.0	0.0001427	93.0620000362
1140.0	0.0001431	93.1089999676
1140.0	0.0001433	93.1560001373
1140.0	0.0001435	93.1870000362
1140.0	0.0001438	93.2339999676
1140.0	0.000144	93.2650001049
1140.0	0.0001438	93.3120000362
1140.0	0.0001437	93.3589999676
1140.0	0.0001435	93.3900001049
1140.0	0.0001433	93.4370000362
1140.0	0.0001433	93.4839999676
1140.0	0.0001433	93.5150001049
1140.0	0.0001435	93.5620000362
1140.0	0.0001438	93.5929999352
1140.0	0.000144	93.6400001049
1140.0	0.0001438	93.6870000362
1140.0	0.000144	93.7179999352
1140.0	0.0001441	93.7650001049
1140.0	0.0001443	93.8120000362
1140.0	0.0001443	93.8429999352
1140.0	0.0001445	93.8900001049
1140.0	0.0001445	93.9210000038
1140.0	0.0001446	93.9679999352
1140.0	0.0001445	94.0150001049
1140.0	0.0001445	94.0460000038
1140.0	0.0001443	94.0929999352
1140.0	0.0001443	94.1400001049
1140.0	0.0001443	94.1710000038
1140.0	0.0001443	94.2179999352
1140.0	0.0001445	94.2650001049
1140.0	0.0001443	94.2960000038
1140.0	0.0001441	94.3429999352
1140.0	0.000144	94.375
1140.0	0.0001438	94.4210000038
1140.0	0.0001437	94.4679999352
1150.0	0.0001525	94.7179999352
1150.0	0.0001557	94.7650001049
1150.0	0.0001588	94.8120000362
1150.0	0.0001612	94.8429999352
1150.0	0.0001632	94.8900001049
1150.0	0.0001647	94.9370000362
1150.0	0.000166	94.9679999352
1150.0	0.0001668	95.0150001049
1150.0	0.0001671	95.0460000038
1150.0	0.0001672	95.0929999352
1150.0	0.0001676	95.1400001049
1150.0	0.0001678	95.1710000038
1150.0	0.0001681	95.2179999352
1150.0	0.0001682	95.2650001049
1150.0	0.0001683	95.2960000038
1150.0	0.0001685	95.3429999352
1150.0	0.0001685	95.3900001049
1150.0	0.0001685	95.4210000038
1150.0	0.0001688	95.4679999352
1150.0	0.000169	95.5
1150.0	0.000169	95.5460000038
1150.0	0.000169	95.5929999352
1150.0	0.000169	95.625
1150.0	0.000169	95.6710000038
1150.0	0.0001691	95.7179999352
1150.0	0.0001695	95.75
1150.0	0.0001696	95.7960000038
1150.0	0.0001697	95.8280000687
1150.0	0.0001697	95.875
1150.0	0.0001695	95.9210000038
1150.0	0.0001693	95.9530000687
1150.0	0.0001693	96.0
1150.0	0.0001691	96.0460000038
1150.0	0.0001693	96.0780000687
1150.0	0.0001693	96.125
1150.0	0.0001691	96.1710000038
1150.0	0.000169	96.2030000687
1150.0	0.0001688	96.25
1150.0	0.0001685	96.2810001373
1150.0	0.0001682	96.3280000687
1150.0	0.0001682	96.375
1150.0	0.0001685	96.4060001373
1150.0	0.0001685	96.4530000687
1150.0	0.0001688	96.5
1150.0	0.0001691	96.5310001373
1150.0	0.0001695	96.5780000687
1150.0	0.0001697	96.6089999676
1150.0	0.00017	96.6560001373
1150.0	0.0001697	96.7030000687
1160.0	0.0001801	96.9679999352
1160.0	0.0001843	97.0
1160.0	0.0001877	97.0460000038
1160.0	0.0001906	97.0929999352
1160.0	0.0001927	97.125
1160.0	0.0001946	97.1710000038
1160.0	0.0001962	97.2030000687
1160.0	0.0001971	97.25
1160.0	0.0001977	97.2960000038
1160.0	0.0001982	97.3280000687
1160.0	0.0001987	97.375
1160.0	0.0001991	97.4210000038
1160.0	0.0001993	97.4530000687
1160.0	0.0001996	97.5
1160.0	0.0002	97.5460000038
1160.0	0.0002001	97.5780000687
1160.0	0.0002002	97.625
1160.0	0.0002003	97.6560001373
1160.0	0.0002003	97.7030000687
1160.0	0.0002003	97.75
1160.0	0.0002006	97.7810001373
1160.0	0.0002006	97.8280000687
1160.0	0.0002003	97.875
1160.0	0.0002002	97.9060001373
1160.0	0.0002001	97.9530000687
1160.0	0.0002001	97.9839999676
1160.0	0.0002001	98.0310001373
1160.0	0.0002001	98.0780000687
1160.0	0.0002001	98.1089999676
1160.0	0.0001997	98.1560001373
1160.0	0.0001996	98.2030000687
1160.0	0.0001995	98.2339999676
1160.0	0.0001995	98.2810001373
1160.0	0.0001996	98.3120000362
1160.0	0.0001996	98.3589999676
1160.0	0.0002	98.4060001373
1160.0	0.0002002	98.4370000362
1160.0	0.0002002	98.4839999676
1160.0	0.0002003	98.5310001373
1160.0	0.0002003	98.5620000362
1160.0	0.0002003	98.6089999676
1160.0	0.0002002	98.6560001373
1160.0	0.0002006	98.6870000362
1160.0	0.0002007	98.7339999676
1160.0	0.0002006	98.7650001049
1160.0	0.0002003	98.8120000362
1160.0	0.0002002	98.8589999676
1160.0	0.0002001	98.8900001049
1160.0	0.0002002	98.9370000362
1170.0	0.0002132	99.2030000687
1170.0	0.0002172	99.25
1170.0	0.000221	99.2810001373
1170.0	0.000224	99.3280000687
1170.0	0.0002263	99.375
1170.0	0.0002285	99.4060001373
1170.0	0.00023	99.4530000687
1170.0	0.0002312	99.4839999676
1170.0	0.0002321	99.5310001373
1170.0	0.0002326	99.5780000687
1170.0	0.0002331	99.6089999676
1170.0	0.0002332	99.6560001373
1170.0	0.0002335	99.7030000687
1170.0	0.0002338	99.7339999676
1170.0	0.000234	99.7810001373
1170.0	0.0002341	99.8120000362
1170.0	0.0002345	99.8589999676
1170.0	0.0002346	99.9060001373
1170.0	0.0002346	99.9370000362
1170.0	0.0002345	99.9839999676
1170.0	0.0002345	100.031000137
1170.0	0.0002343	100.062000036
1170.0	0.0002341	100.108999968
1170.0	0.0002341	100.140000105
1170.0	0.0002341	100.187000036
1170.0	0.0002341	100.233999968
1170.0	0.0002338	100.265000105
1170.0	0.0002337	100.312000036
1170.0	0.0002337	100.358999968
1170.0	0.0002337	100.390000105
1170.0	0.0002337	100.437000036
1170.0	0.0002337	100.467999935
1170.0	0.0002338	100.515000105
1170.0	0.000234	100.562000036
1170.0	0.0002338	100.592999935
1170.0	0.0002338	100.640000105
1170.0	0.0002338	100.687000036
1170.0	0.000234	100.717999935
1170.0	0.0002341	100.765000105
1170.0	0.0002343	100.796000004
1170.0	0.0002343	100.842999935
1170.0	0.0002345	100.890000105
1170.0	0.0002345	100.921000004
1170.0	0.0002345	100.967999935
1170.0	0.0002345	101.015000105
1170.0	0.0002347	101.046000004
1170.0	0.000235	101.092999935
1170.0	0.000235	101.140000105
1170.0	0.0002351	101.171000004
1180.0	0.0002477	101.453000069
1180.0	0.0002525	101.483999968
1180.0	0.0002563	101.531000137
1180.0	0.0002595	101.562000036
1180.0	0.0002622	101.608999968
1180.0	0.0002643	101.656000137
1180.0	0.000266	101.687000036
1180.0	0.000267	101.733999968
1180.0	0.0002677	101.765000105
1180.0	0.0002683	101.812000036
1180.0	0.0002687	101.858999968
1180.0	0.0002691	101.890000105
1180.0	0.0002693	101.937000036
1180.0	0.0002693	101.983999968
1180.0	0.0002695	102.015000105
1180.0	0.0002696	102.062000036
1180.0	0.0002695	102.108999968
1180.0	0.0002695	102.140000105
1180.0	0.0002696	102.187000036
1180.0	0.00027	102.217999935
1180.0	0.00027	102.265000105
1180.0	0.0002701	102.312000036
1180.0	0.0002702	102.342999935
1180.0	0.0002706	102.390000105
1180.0	0.0002706	102.437000036
1180.0	0.0002707	102.467999935
1180.0	0.0002707	102.515000105
1180.0	0.0002706	102.546000004
1180.0	0.0002706	102.592999935
1180.0	0.0002703	102.640000105
1180.0	0.0002702	102.671000004
1180.0	0.0002701	102.717999935
1180.0	0.0002697	102.765000105
1180.0	0.0002696	102.796000004
1180.0	0.00027	102.842999935
1180.0	0.0002701	102.890000105
1180.0	0.00027	102.921000004
1180.0	0.00027	102.967999935
1180.0	0.00027	103.0
1180.0	0.00027	103.046000004
1180.0	0.00027	103.092999935
1180.0	0.0002697	103.125
1180.0	0.00027	103.171000004
1180.0	0.0002697	103.217999935
1180.0	0.00027	103.25
1180.0	0.0002701	103.296000004
1180.0	0.0002701	103.342999935
1180.0	0.00027	103.375
1180.0	0.0002697	103.421000004
1190.0	0.0002841	103.687000036
1190.0	0.0002888	103.733999968
1190.0	0.0002928	103.781000137
1190.0	0.0002963	103.812000036
1190.0	0.000299	103.858999968
1190.0	0.000301	103.890000105
1190.0	0.0003026	103.937000036
1190.0	0.0003037	103.983999968
1190.0	0.0003045	104.015000105
1190.0	0.0003052	104.062000036
1190.0	0.0003053	104.108999968
1190.0	0.0003057	104.140000105
1190.0	0.0003062	104.187000036
1190.0	0.0003063	104.233999968
1190.0	0.0003065	104.265000105
1190.0	0.0003063	104.312000036
1190.0	0.0003062	104.358999968
1190.0	0.0003062	104.390000105
1190.0	0.0003062	104.437000036
1190.0	0.0003065	104.467999935
1190.0	0.0003068	104.515000105
1190.0	0.000307	104.562000036
1190.0	0.000307	104.592999935
1190.0	0.000307	104.640000105
1190.0	0.000307	104.687000036
1190.0	0.000307	104.717999935
1190.0	0.0003066	104.765000105
1190.0	0.0003063	104.812000036
1190.0	0.0003062	104.842999935
1190.0	0.0003058	104.890000105
1190.0	0.0003058	104.921000004
1190.0	0.0003058	104.967999935
1190.0	0.000306	105.015000105
1190.0	0.000306	105.046000004
1190.0	0.0003062	105.092999935
1190.0	0.0003065	105.140000105
1190.0	0.0003066	105.171000004
1190.0	0.0003068	105.217999935
1190.0	0.0003068	105.265000105
1190.0	0.000307	105.296000004
1190.0	0.0003071	105.342999935
1190.0	0.0003071	105.375
1190.0	0.000307	105.421000004
1190.0	0.000307	105.467999935
1190.0	0.000307	105.5
1190.0	0.0003068	105.546000004
1190.0	0.0003068	105.592999935
1190.0	0.0003068	105.625
1190.0	0.0003068	105.671000004
1200.0	0.00032	105.937000036
1200.0	0.0003245	105.983999968
1200.0	0.0003283	106.031000137
1200.0	0.0003317	106.062000036
1200.0	0.0003343	106.108999968
1200.0	0.0003363	106.140000105
1200.0	0.000338	106.203000069
1200.0	0.000339	106.25
1200.0	0.0003396	106.281000137
1200.0	0.0003401	106.328000069
1200.0	0.0003407	106.358999968
1200.0	0.0003411	106.406000137
1200.0	0.0003413	106.453000069
1200.0	0.0003417	106.483999968
1200.0	0.000342	106.531000137
1200.0	0.0003423	106.578000069
1200.0	0.0003423	106.608999968
1200.0	0.0003425	106.656000137
1200.0	0.0003426	106.687000036
1200.0	0.0003426	106.733999968
1200.0	0.0003425	106.781000137
1200.0	0.0003421	106.812000036
1200.0	0.0003423	106.858999968
1200.0	0.0003423	106.906000137
1200.0	0.0003425	106.937000036
1200.0	0.0003426	106.983999968
1200.0	0.0003426	107.015000105
1200.0	0.0003425	107.062000036
1200.0	0.0003423	107.108999968
1200.0	0.0003423	107.140000105
1200.0	0.0003421	107.187000036
1200.0	0.0003423	107.233999968
1200.0	0.0003425	107.265000105
1200.0	0.0003421	107.312000036
1200.0	0.0003421	107.342999935
1200.0	0.000342	107.390000105
1200.0	0.0003421	107.437000036
1200.0	0.0003425	107.467999935
1200.0	0.0003426	107.515000105
1200.0	0.0003426	107.562000036
1200.0	0.0003425	107.592999935
1200.0	0.0003425	107.640000105
1200.0	0.0003426	107.687000036
1200.0	0.000343	107.717999935
1200.0	0.0003427	107.765000105
1200.0	0.0003426	107.796000004
1200.0	0.0003425	107.842999935
1200.0	0.0003423	107.890000105
1200.0	0.0003421	107.921000004
1210.0	0.0003546	108.187000036
1210.0	0.0003592	108.233999968
1210.0	0.000363	108.281000137
1210.0	0.0003661	108.312000036
1210.0	0.0003682	108.358999968
1210.0	0.00037	108.406000137
1210.0	0.0003713	108.437000036
1210.0	0.0003721	108.483999968
1210.0	0.000373	108.515000105
1210.0	0.0003733	108.562000036
1210.0	0.0003738	108.608999968
1210.0	0.0003742	108.640000105
1210.0	0.0003743	108.687000036
1210.0	0.0003746	108.733999968
1210.0	0.000375	108.765000105
1210.0	0.0003752	108.812000036
1210.0	0.0003755	108.842999935
1210.0	0.0003755	108.890000105
1210.0	0.0003755	108.937000036
1210.0	0.0003751	108.967999935
1210.0	0.000375	109.015000105
1210.0	0.0003748	109.062000036
1210.0	0.0003748	109.092999935
1210.0	0.0003748	109.140000105
1210.0	0.0003748	109.171000004
1210.0	0.000375	109.217999935
1210.0	0.000375	109.265000105
1210.0	0.0003751	109.296000004
1210.0	0.0003752	109.342999935
1210.0	0.0003755	109.390000105
1210.0	0.0003756	109.421000004
1210.0	0.0003755	109.467999935
1210.0	0.0003752	109.5
1210.0	0.0003752	109.546000004
1210.0	0.000375	109.592999935
1210.0	0.000375	109.625
1210.0	0.000375	109.671000004
1210.0	0.000375	109.717999935
1210.0	0.0003751	109.75
1210.0	0.0003755	109.796000004
1210.0	0.0003756	109.842999935
1210.0	0.0003757	109.875
1210.0	0.0003757	109.921000004
1210.0	0.0003757	109.953000069
1210.0	0.0003757	110.0
1210.0	0.0003758	110.046000004
1210.0	0.0003758	110.078000069
1210.0	0.0003757	110.125
1210.0	0.0003757	110.171000004
1220.0	0.0003868	110.437000036
1220.0	0.0003911	110.467999935
1220.0	0.0003943	110.515000105
1220.0	0.0003976	110.578000069
1220.0	0.0003992	110.608999968
1220.0	0.0004006	110.656000137
1220.0	0.0004017	110.703000069
1220.0	0.0004023	110.733999968
1220.0	0.000403	110.781000137
1220.0	0.0004033	110.812000036
1220.0	0.0004038	110.858999968
1220.0	0.0004042	110.906000137
1220.0	0.0004042	110.937000036
1220.0	0.0004045	110.983999968
1220.0	0.000405	111.031000137
1220.0	0.0004052	111.062000036
1220.0	0.0004055	111.108999968
1220.0	0.0004052	111.140000105
1220.0	0.0004052	111.187000036
1220.0	0.0004052	111.233999968
1220.0	0.0004051	111.265000105
1220.0	0.0004051	111.312000036
1220.0	0.0004051	111.358999968
1220.0	0.0004051	111.390000105
1220.0	0.0004051	111.437000036
1220.0	0.000405	111.467999935
1220.0	0.0004051	111.515000105
1220.0	0.000405	111.562000036
1220.0	0.0004048	111.592999935
1220.0	0.0004045	111.640000105
1220.0	0.0004043	111.687000036
1220.0	0.0004043	111.717999935
1220.0	0.0004045	111.765000105
1220.0	0.0004048	111.796000004
1220.0	0.000405	111.842999935
1220.0	0.000405	111.890000105
1220.0	0.0004052	111.921000004
1220.0	0.0004057	111.967999935
1220.0	0.0004056	112.015000105
1220.0	0.0004052	112.046000004
1220.0	0.0004051	112.092999935
1220.0	0.0004048	112.140000105
1220.0	0.0004045	112.171000004
1220.0	0.0004045	112.217999935
1220.0	0.0004045	112.25
1220.0	0.0004045	112.296000004
1220.0	0.0004045	112.342999935
1220.0	0.0004045	112.375
1220.0	0.0004046	112.421000004
1230.0	0.0004142	112.687000036
1230.0	0.0004176	112.733999968
1230.0	0.0004205	112.765000105
1230.0	0.000423	112.812000036
1230.0	0.0004245	112.842999935
1230.0	0.0004255	112.890000105
1230.0	0.0004262	112.937000036
1230.0	0.0004268	112.967999935
1230.0	0.0004276	113.015000105
1230.0	0.000428	113.062000036
1230.0	0.0004283	113.092999935
1230.0	0.0004287	113.140000105
1230.0	0.0004288	113.171000004
1230.0	0.0004288	113.217999935
1230.0	0.000429	113.265000105
1230.0	0.0004288	113.296000004
1230.0	0.0004288	113.342999935
1230.0	0.0004288	113.390000105
1230.0	0.0004287	113.421000004
1230.0	0.0004288	113.467999935
1230.0	0.0004292	113.515000105
1230.0	0.0004293	113.546000004
1230.0	0.0004296	113.592999935
1230.0	0.0004298	113.625
1230.0	0.0004298	113.671000004
1230.0	0.0004295	113.717999935
1230.0	0.0004292	113.75
1230.0	0.0004292	113.796000004
1230.0	0.0004293	113.842999935
1230.0	0.0004295	113.875
1230.0	0.0004295	113.921000004
1230.0	0.0004295	113.953000069
1230.0	0.0004295	114.0
1230.0	0.0004295	114.046000004
1230.0	0.0004293	114.078000069
1230.0	0.0004293	114.125
1230.0	0.0004293	114.171000004
1230.0	0.0004292	114.203000069
1230.0	0.000429	114.25
1230.0	0.000429	114.281000137
1230.0	0.0004292	114.328000069
1230.0	0.000429	114.375
1230.0	0.0004288	114.406000137
1230.0	0.0004287	114.453000069
1230.0	0.0004287	114.5
1230.0	0.0004286	114.531000137
1230.0	0.0004286	114.578000069
1230.0	0.0004288	114.625
1230.0	0.0004292	114.656000137
1240.0	0.0004368	114.921000004
1240.0	0.0004392	114.967999935
1240.0	0.0004413	115.0
1240.0	0.0004427	115.046000004
1240.0	0.0004438	115.092999935
1240.0	0.0004451	115.125
1240.0	0.0004461	115.171000004
1240.0	0.0004467	115.217999935
1240.0	0.0004471	115.25
1240.0	0.0004475	115.296000004
1240.0	0.0004476	115.342999935
1240.0	0.0004477	115.375
1240.0	0.000448	115.421000004
1240.0	0.0004481	115.453000069
1240.0	0.0004481	115.5
1240.0	0.0004481	115.546000004
1240.0	0.0004481	115.578000069
1240.0	0.000448	115.625
1240.0	0.000448	115.671000004
1240.0	0.000448	115.703000069
1240.0	0.0004481	115.75
1240.0	0.0004481	115.781000137
1240.0	0.0004482	115.828000069
1240.0	0.0004483	115.875
1240.0	0.0004483	115.906000137
1240.0	0.0004486	115.953000069
1240.0	0.0004486	116.0
1240.0	0.0004487	116.031000137
1240.0	0.000449	116.078000069
1240.0	0.0004492	116.108999968
1240.0	0.0004493	116.156000137
1240.0	0.0004493	116.203000069
1240.0	0.0004493	116.233999968
1240.0	0.0004493	116.281000137
1240.0	0.0004492	116.328000069
1240.0	0.0004492	116.358999968
1240.0	0.0004492	116.406000137
1240.0	0.0004492	116.453000069
1240.0	0.0004493	116.483999968
1240.0	0.0004492	116.531000137
1240.0	0.000449	116.562000036
1240.0	0.000449	116.608999968
1240.0	0.0004488	116.656000137
1240.0	0.0004486	116.687000036
1240.0	0.0004483	116.733999968
1240.0	0.0004483	116.765000105
1240.0	0.0004486	116.812000036
1240.0	0.0004486	116.858999968
1240.0	0.0004487	116.890000105
1250.0	0.0004543	117.156000137
1250.0	0.0004558	117.203000069
1250.0	0.0004573	117.25
1250.0	0.0004582	117.281000137
1250.0	0.0004592	117.328000069
1250.0	0.00046	117.358999968
1250.0	0.0004606	117.406000137
1250.0	0.0004611	117.453000069
1250.0	0.0004615	117.483999968
1250.0	0.0004618	117.531000137
1250.0	0.000462	117.578000069
1250.0	0.0004621	117.608999968
1250.0	0.0004623	117.656000137
1250.0	0.0004626	117.687000036
1250.0	0.0004631	117.733999968
1250.0	0.0004632	117.781000137
1250.0	0.0004631	117.812000036
1250.0	0.0004631	117.858999968
1250.0	0.0004631	117.890000105
1250.0	0.0004631	117.937000036
1250.0	0.000463	117.983999968
1250.0	0.0004626	118.015000105
1250.0	0.0004625	118.062000036
1250.0	0.0004623	118.108999968
1250.0	0.0004621	118.140000105
1250.0	0.000462	118.187000036
1250.0	0.000462	118.233999968
1250.0	0.0004621	118.265000105
1250.0	0.0004623	118.312000036
1250.0	0.0004621	118.342999935
1250.0	0.000462	118.390000105
1250.0	0.0004623	118.437000036
1250.0	0.0004625	118.467999935
1250.0	0.0004625	118.515000105
1250.0	0.0004625	118.562000036
1250.0	0.0004625	118.592999935
1250.0	0.0004625	118.640000105
1250.0	0.0004626	118.671000004
1250.0	0.000463	118.717999935
1250.0	0.0004626	118.765000105
1250.0	0.0004623	118.796000004
1250.0	0.0004621	118.842999935
1250.0	0.0004621	118.890000105
1250.0	0.000462	118.921000004
1250.0	0.000462	118.967999935
1250.0	0.000462	119.0
1250.0	0.000462	119.046000004
1250.0	0.0004618	119.092999935
1250.0	0.000462	119.125
1260.0	0.0004663	119.406000137
1260.0	0.0004677	119.437000036
1260.0	0.0004688	119.483999968
1260.0	0.0004695	119.515000105
1260.0	0.0004701	119.562000036
1260.0	0.0004707	119.608999968
1260.0	0.0004711	119.640000105
1260.0	0.0004713	119.687000036
1260.0	0.0004717	119.717999935
1260.0	0.000472	119.765000105
1260.0	0.0004721	119.812000036
1260.0	0.0004723	119.842999935
1260.0	0.0004725	119.890000105
1260.0	0.0004721	119.937000036
1260.0	0.0004723	119.967999935
1260.0	0.0004721	120.015000105
1260.0	0.0004721	120.062000036
1260.0	0.0004721	120.092999935
1260.0	0.000472	120.140000105
1260.0	0.0004721	120.171000004
1260.0	0.0004723	120.217999935
1260.0	0.0004726	120.265000105
1260.0	0.0004727	120.296000004
1260.0	0.0004727	120.342999935
1260.0	0.000473	120.390000105
1260.0	0.0004726	120.421000004
1260.0	0.0004725	120.467999935
1260.0	0.0004723	120.5
1260.0	0.000472	120.546000004
1260.0	0.0004717	120.592999935
1260.0	0.0004713	120.625
1260.0	0.0004717	120.671000004
1260.0	0.0004717	120.717999935
1260.0	0.000472	120.75
1260.0	0.000472	120.796000004
1260.0	0.0004721	120.842999935
1260.0	0.0004723	120.875
1260.0	0.0004721	120.921000004
1260.0	0.0004723	120.953000069
1260.0	0.0004725	121.0
1260.0	0.0004723	121.046000004
1260.0	0.0004725	121.078000069
1260.0	0.0004726	121.125
1260.0	0.0004726	121.171000004
1260.0	0.0004725	121.203000069
1260.0	0.0004723	121.25
1260.0	0.0004723	121.281000137
1260.0	0.0004723	121.328000069
1260.0	0.0004723	121.375
1270.0	0.0004752	121.640000105
1270.0	0.0004761	121.671000004
1270.0	0.0004767	121.717999935
1270.0	0.000477	121.765000105
1270.0	0.0004773	121.796000004
1270.0	0.0004776	121.842999935
1270.0	0.0004776	121.890000105
1270.0	0.000478	121.921000004
1270.0	0.0004782	121.967999935
1270.0	0.0004783	122.0
1270.0	0.0004783	122.046000004
1270.0	0.0004782	122.092999935
1270.0	0.0004783	122.125
1270.0	0.0004786	122.171000004
1270.0	0.0004786	122.217999935
1270.0	0.0004786	122.25
1270.0	0.0004786	122.296000004
1270.0	0.0004783	122.328000069
1270.0	0.0004782	122.375
1270.0	0.0004782	122.421000004
1270.0	0.0004783	122.453000069
1270.0	0.0004783	122.5
1270.0	0.0004786	122.546000004
1270.0	0.0004786	122.578000069
1270.0	0.0004786	122.625
1270.0	0.0004786	122.656000137
1270.0	0.0004786	122.703000069
1270.0	0.0004786	122.75
1270.0	0.0004787	122.781000137
1270.0	0.0004787	122.828000069
1270.0	0.0004787	122.875
1270.0	0.0004788	122.906000137
1270.0	0.0004792	122.953000069
1270.0	0.0004793	123.0
1270.0	0.0004795	123.031000137
1270.0	0.0004795	123.078000069
1270.0	0.0004795	123.108999968
1270.0	0.0004792	123.156000137
1270.0	0.000479	123.203000069
1270.0	0.0004788	123.233999968
1270.0	0.0004788	123.281000137
1270.0	0.000479	123.328000069
1270.0	0.0004792	123.358999968
1270.0	0.0004792	123.406000137
1270.0	0.000479	123.437000036
1270.0	0.0004788	123.483999968
1270.0	0.0004788	123.531000137
1270.0	0.000479	123.562000036
1270.0	0.0004792	123.608999968
1280.0	0.0004807	123.875
1280.0	0.0004811	123.921000004
1280.0	0.0004817	123.953000069
1280.0	0.0004821	124.0
1280.0	0.0004823	124.046000004
1280.0	0.0004826	124.078000069
1280.0	0.0004827	124.125
1280.0	0.000483	124.156000137
1280.0	0.0004827	124.203000069
1280.0	0.0004827	124.25
1280.0	0.0004826	124.281000137
1280.0	0.0004827	124.328000069
1280.0	0.000483	124.375
1280.0	0.0004831	124.406000137
1280.0	0.0004831	124.453000069
1280.0	0.0004832	124.483999968
1280.0	0.0004833	124.531000137
1280.0	0.0004837	124.578000069
1280.0	0.000484	124.608999968
1280.0	0.0004843	124.656000137
1280.0	0.0004842	124.703000069
1280.0	0.000484	124.733999968
1280.0	0.0004837	124.781000137
1280.0	0.0004833	124.828000069
1280.0	0.0004832	124.858999968
1280.0	0.0004832	124.906000137
1280.0	0.0004833	124.937000036
1280.0	0.0004832	124.983999968
1280.0	0.0004832	125.031000137
1280.0	0.0004832	125.062000036
1280.0	0.0004832	125.108999968
1280.0	0.000483	125.140000105
1280.0	0.0004826	125.187000036
1280.0	0.0004826	125.233999968
1280.0	0.0004826	125.265000105
1280.0	0.0004826	125.312000036
1280.0	0.0004826	125.358999968
1280.0	0.0004826	125.390000105
1280.0	0.000483	125.437000036
1280.0	0.000483	125.467999935
1280.0	0.000483	125.515000105
1280.0	0.0004827	125.562000036
1280.0	0.0004826	125.592999935
1280.0	0.0004825	125.640000105
1280.0	0.0004825	125.687000036
1280.0	0.0004825	125.717999935
1280.0	0.0004827	125.765000105
1280.0	0.000483	125.812000036
1280.0	0.0004831	125.842999935
1290.0	0.0004836	126.125
1290.0	0.0004836	126.156000137
1290.0	0.0004836	126.203000069
1290.0	0.0004837	126.233999968
1290.0	0.0004838	126.281000137
1290.0	0.0004838	126.328000069
1290.0	0.0004838	126.358999968
1290.0	0.000484	126.406000137
1290.0	0.0004838	126.453000069
1290.0	0.0004838	126.483999968
1290.0	0.0004838	126.531000137
1290.0	0.0004838	126.562000036
1290.0	0.000484	126.608999968
1290.0	0.000484	126.656000137
1290.0	0.0004842	126.687000036
1290.0	0.0004842	126.733999968
1290.0	0.0004842	126.781000137
1290.0	0.000484	126.812000036
1290.0	0.0004838	126.858999968
1290.0	0.0004838	126.890000105
1290.0	0.0004838	126.937000036
1290.0	0.0004838	126.983999968
1290.0	0.000484	127.015000105
1290.0	0.0004842	127.062000036
1290.0	0.0004845	127.108999968
1290.0	0.0004845	127.140000105
1290.0	0.0004845	127.187000036
1290.0	0.0004845	127.217999935
1290.0	0.0004845	127.265000105
1290.0	0.0004845	127.312000036
1290.0	0.0004845	127.342999935
1290.0	0.0004845	127.390000105
1290.0	0.0004845	127.437000036
1290.0	0.0004843	127.467999935
1290.0	0.0004843	127.515000105
1290.0	0.0004843	127.562000036
1290.0	0.0004843	127.592999935
1290.0	0.0004845	127.640000105
1290.0	0.0004843	127.671000004
1290.0	0.0004843	127.717999935
1290.0	0.0004845	127.765000105
1290.0	0.0004846	127.796000004
1290.0	0.0004845	127.842999935
1290.0	0.0004846	127.890000105
1290.0	0.0004848	127.921000004
1290.0	0.000485	127.967999935
1290.0	0.0004848	128.0
1290.0	0.0004851	128.046000004
1290.0	0.0004851	128.092999935
1300.0	0.000484	128.358999968
1300.0	0.0004838	128.406000137
1300.0	0.0004836	128.437000036
1300.0	0.0004832	128.483999968
1300.0	0.0004827	128.531000137
1300.0	0.0004826	128.562000036
1300.0	0.0004826	128.608999968
1300.0	0.0004826	128.640000105
1300.0	0.0004825	128.687000036
1300.0	0.0004823	128.733999968
1300.0	0.0004823	128.765000105
1300.0	0.0004826	128.812000036
1300.0	0.000483	128.858999968
1300.0	0.0004831	128.890000105
1300.0	0.0004831	128.937000036
1300.0	0.000483	128.967999935
1300.0	0.0004827	129.015000105
1300.0	0.0004827	129.062000036
1300.0	0.0004827	129.092999935
1300.0	0.0004827	129.140000105
1300.0	0.0004826	129.187000036
1300.0	0.0004827	129.217999935
1300.0	0.0004827	129.265000105
1300.0	0.000483	129.296000004
1300.0	0.000483	129.342999935
1300.0	0.0004827	129.390000105
1300.0	0.0004826	129.421000004
1300.0	0.0004825	129.467999935
1300.0	0.0004825	129.515000105
1300.0	0.0004825	129.546000004
1300.0	0.0004823	129.592999935
1300.0	0.0004826	129.640000105
1300.0	0.0004826	129.671000004
1300.0	0.0004826	129.717999935
1300.0	0.0004826	129.75
1300.0	0.0004826	129.796000004
1300.0	0.0004825	129.842999935
1300.0	0.0004825	129.875
1300.0	0.0004825	129.921000004
1300.0	0.0004825	129.967999935
1300.0	0.0004825	130.0
1300.0	0.0004825	130.046000004
1300.0	0.0004825	130.078000069
1300.0	0.0004827	130.125
1300.0	0.0004832	130.171000004
1300.0	0.0004833	130.203000069
1300.0	0.0004836	130.25
1300.0	0.0004836	130.296000004
1300.0	0.0004836	130.328000069
1310.0	0.0004806	130.608999968
1310.0	0.0004798	130.640000105
1310.0	0.0004792	130.687000036
1310.0	0.0004783	130.717999935
1310.0	0.000478	130.765000105
1310.0	0.000478	130.812000036
1310.0	0.0004777	130.842999935
1310.0	0.0004776	130.890000105
1310.0	0.0004776	130.937000036
1310.0	0.0004775	130.967999935
1310.0	0.0004775	131.015000105
1310.0	0.0004773	131.062000036
1310.0	0.0004771	131.092999935
1310.0	0.0004771	131.140000105
1310.0	0.0004773	131.171000004
1310.0	0.0004773	131.217999935
1310.0	0.0004775	131.265000105
1310.0	0.0004773	131.296000004
1310.0	0.0004771	131.342999935
1310.0	0.0004771	131.390000105
1310.0	0.0004773	131.421000004
1310.0	0.0004773	131.467999935
1310.0	0.0004775	131.5
1310.0	0.0004775	131.546000004
1310.0	0.0004775	131.592999935
1310.0	0.0004776	131.625
1310.0	0.0004775	131.671000004
1310.0	0.0004773	131.717999935
1310.0	0.0004771	131.75
1310.0	0.0004771	131.796000004
1310.0	0.000477	131.828000069
1310.0	0.000477	131.875
1310.0	0.0004767	131.921000004
1310.0	0.0004763	131.953000069
1310.0	0.0004762	132.0
1310.0	0.0004763	132.046000004
1310.0	0.0004763	132.078000069
1310.0	0.0004767	132.125
1310.0	0.000477	132.156000137
1310.0	0.0004771	132.203000069
1310.0	0.0004771	132.25
1310.0	0.0004771	132.281000137
1310.0	0.0004771	132.328000069
1310.0	0.000477	132.375
1310.0	0.0004768	132.406000137
1310.0	0.0004768	132.453000069
1310.0	0.0004768	132.5
1310.0	0.0004768	132.531000137
1310.0	0.000477	132.578000069
1320.0	0.0004732	132.842999935
1320.0	0.000472	132.890000105
1320.0	0.0004708	132.921000004
1320.0	0.00047	132.967999935
1320.0	0.000469	133.015000105
1320.0	0.0004686	133.046000004
1320.0	0.0004681	133.092999935
1320.0	0.0004677	133.140000105
1320.0	0.0004675	133.171000004
1320.0	0.0004671	133.217999935
1320.0	0.000467	133.25
1320.0	0.0004667	133.296000004
1320.0	0.0004665	133.342999935
1320.0	0.0004662	133.375
1320.0	0.0004662	133.421000004
1320.0	0.0004662	133.467999935
1320.0	0.0004663	133.5
1320.0	0.0004665	133.546000004
1320.0	0.0004667	133.578000069
1320.0	0.0004665	133.625
1320.0	0.0004667	133.671000004
1320.0	0.0004665	133.703000069
1320.0	0.0004663	133.75
1320.0	0.0004662	133.796000004
1320.0	0.0004663	133.828000069
1320.0	0.0004663	133.875
1320.0	0.0004662	133.906000137
1320.0	0.0004662	133.953000069
1320.0	0.0004663	134.0
1320.0	0.0004667	134.031000137
1320.0	0.0004668	134.078000069
1320.0	0.0004668	134.125
1320.0	0.0004671	134.156000137
1320.0	0.0004675	134.203000069
1320.0	0.0004675	134.233999968
1320.0	0.0004673	134.281000137
1320.0	0.000467	134.328000069
1320.0	0.000467	134.358999968
1320.0	0.0004667	134.406000137
1320.0	0.0004665	134.453000069
1320.0	0.0004665	134.483999968
1320.0	0.0004665	134.531000137
1320.0	0.0004665	134.578000069
1320.0	0.0004665	134.608999968
1320.0	0.0004663	134.656000137
1320.0	0.0004665	134.687000036
1320.0	0.0004665	134.733999968
1320.0	0.0004665	134.781000137
1320.0	0.0004665	134.812000036
1330.0	0.0004602	135.092999935
1330.0	0.0004581	135.125
1330.0	0.0004563	135.171000004
1330.0	0.0004552	135.217999935
1330.0	0.0004543	135.25
1330.0	0.0004536	135.296000004
1330.0	0.0004527	135.328000069
1330.0	0.0004521	135.375
1330.0	0.000452	135.421000004
1330.0	0.000452	135.453000069
1330.0	0.0004517	135.5
1330.0	0.0004513	135.546000004
1330.0	0.0004513	135.578000069
1330.0	0.0004512	135.625
1330.0	0.0004511	135.656000137
1330.0	0.0004508	135.703000069
1330.0	0.0004507	135.75
1330.0	0.0004508	135.781000137
1330.0	0.0004508	135.828000069
1330.0	0.0004508	135.875
1330.0	0.0004511	135.906000137
1330.0	0.0004508	135.953000069
1330.0	0.0004508	135.983999968
1330.0	0.0004507	136.031000137
1330.0	0.0004507	136.078000069
1330.0	0.0004508	136.108999968
1330.0	0.0004511	136.156000137
1330.0	0.0004508	136.203000069
1330.0	0.0004507	136.233999968
1330.0	0.0004507	136.281000137
1330.0	0.0004507	136.328000069
1330.0	0.0004507	136.358999968
1330.0	0.0004511	136.406000137
1330.0	0.0004508	136.437000036
1330.0	0.0004511	136.483999968
1330.0	0.0004511	136.531000137
1330.0	0.0004511	136.562000036
1330.0	0.0004512	136.608999968
1330.0	0.0004512	136.640000105
1330.0	0.0004512	136.687000036
1330.0	0.0004511	136.733999968
1330.0	0.0004508	136.765000105
1330.0	0.0004508	136.812000036
1330.0	0.0004507	136.858999968
1330.0	0.0004507	136.890000105
1330.0	0.0004506	136.937000036
1330.0	0.0004505	136.967999935
1330.0	0.0004505	137.015000105
1330.0	0.0004506	137.062000036
1340.0	0.000442	137.328000069
1340.0	0.0004392	137.375
1340.0	0.0004368	137.406000137
1340.0	0.0004351	137.453000069
1340.0	0.0004337	137.5
1340.0	0.0004326	137.531000137
1340.0	0.000432	137.578000069
1340.0	0.0004313	137.625
1340.0	0.0004307	137.656000137
1340.0	0.0004305	137.703000069
1340.0	0.0004301	137.733999968
1340.0	0.0004298	137.781000137
1340.0	0.0004298	137.828000069
1340.0	0.0004298	137.858999968
1340.0	0.0004298	137.906000137
1340.0	0.0004301	137.953000069
1340.0	0.0004301	137.983999968
1340.0	0.0004301	138.031000137
1340.0	0.0004301	138.062000036
1340.0	0.00043	138.108999968
1340.0	0.0004298	138.156000137
1340.0	0.0004296	138.187000036
1340.0	0.0004295	138.233999968
1340.0	0.0004295	138.281000137
1340.0	0.0004295	138.312000036
1340.0	0.0004298	138.358999968
1340.0	0.00043	138.390000105
1340.0	0.00043	138.437000036
1340.0	0.0004301	138.483999968
1340.0	0.0004301	138.515000105
1340.0	0.00043	138.562000036
1340.0	0.0004301	138.608999968
1340.0	0.0004302	138.640000105
1340.0	0.0004305	138.687000036
1340.0	0.0004305	138.717999935
1340.0	0.0004305	138.765000105
1340.0	0.0004301	138.812000036
1340.0	0.0004298	138.842999935
1340.0	0.0004296	138.890000105
1340.0	0.0004295	138.937000036
1340.0	0.0004292	138.967999935
1340.0	0.0004292	139.015000105
1340.0	0.0004295	139.062000036
1340.0	0.0004296	139.092999935
1340.0	0.0004298	139.140000105
1340.0	0.00043	139.171000004
1340.0	0.00043	139.217999935
1340.0	0.00043	139.265000105
1340.0	0.0004301	139.296000004
1350.0	0.0004212	139.562000036
1350.0	0.000418	139.608999968
1350.0	0.0004151	139.656000137
1350.0	0.0004127	139.687000036
1350.0	0.0004111	139.733999968
1350.0	0.0004093	139.781000137
1350.0	0.0004082	139.812000036
1350.0	0.0004073	139.858999968
1350.0	0.0004068	139.890000105
1350.0	0.0004065	139.937000036
1350.0	0.0004063	139.983999968
1350.0	0.0004061	140.015000105
1350.0	0.0004057	140.062000036
1350.0	0.0004057	140.108999968
1350.0	0.0004057	140.140000105
1350.0	0.0004058	140.187000036
1350.0	0.0004058	140.217999935
1350.0	0.0004058	140.265000105
1350.0	0.0004058	140.312000036
1350.0	0.0004061	140.342999935
1350.0	0.0004058	140.390000105
1350.0	0.0004056	140.437000036
1350.0	0.0004056	140.467999935
1350.0	0.0004055	140.515000105
1350.0	0.0004055	140.546000004
1350.0	0.0004051	140.592999935
1350.0	0.0004052	140.640000105
1350.0	0.0004055	140.671000004
1350.0	0.0004055	140.717999935
1350.0	0.0004055	140.765000105
1350.0	0.0004056	140.796000004
1350.0	0.0004057	140.842999935
1350.0	0.0004058	140.890000105
1350.0	0.0004058	140.921000004
1350.0	0.0004058	140.967999935
1350.0	0.0004058	141.0
1350.0	0.0004057	141.046000004
1350.0	0.0004056	141.092999935
1350.0	0.0004057	141.125
1350.0	0.0004058	141.171000004
1350.0	0.0004057	141.217999935
1350.0	0.0004056	141.25
1350.0	0.0004055	141.296000004
1350.0	0.0004052	141.328000069
1350.0	0.0004052	141.375
1350.0	0.0004052	141.421000004
1350.0	0.0004052	141.453000069
1350.0	0.0004051	141.5
1350.0	0.000405	141.546000004
1360.0	0.0003952	141.812000036
1360.0	0.000392	141.842999935
1360.0	0.0003892	141.890000105
1360.0	0.0003873	141.937000036
1360.0	0.0003856	141.967999935
1360.0	0.0003842	142.015000105
1360.0	0.0003831	142.046000004
1360.0	0.0003823	142.092999935
1360.0	0.0003817	142.140000105
1360.0	0.0003812	142.171000004
1360.0	0.0003812	142.217999935
1360.0	0.0003813	142.265000105
1360.0	0.0003811	142.296000004
1360.0	0.0003807	142.342999935
1360.0	0.0003805	142.375
1360.0	0.0003802	142.421000004
1360.0	0.0003801	142.467999935
1360.0	0.00038	142.5
1360.0	0.0003802	142.546000004
1360.0	0.0003805	142.592999935
1360.0	0.0003807	142.625
1360.0	0.0003807	142.671000004
1360.0	0.0003808	142.703000069
1360.0	0.0003808	142.75
1360.0	0.0003812	142.796000004
1360.0	0.0003811	142.828000069
1360.0	0.0003808	142.875
1360.0	0.0003805	142.921000004
1360.0	0.0003806	142.953000069
1360.0	0.0003806	143.0
1360.0	0.0003806	143.046000004
1360.0	0.0003807	143.078000069
1360.0	0.0003807	143.125
1360.0	0.0003807	143.156000137
1360.0	0.0003806	143.203000069
1360.0	0.0003802	143.25
1360.0	0.0003801	143.281000137
1360.0	0.00038	143.328000069
1360.0	0.0003801	143.375
1360.0	0.0003802	143.406000137
1360.0	0.0003805	143.453000069
1360.0	0.0003806	143.483999968
1360.0	0.0003806	143.531000137
1360.0	0.0003806	143.578000069
1360.0	0.0003805	143.608999968
1360.0	0.0003805	143.656000137
1360.0	0.0003805	143.703000069
1360.0	0.0003806	143.733999968
1360.0	0.0003806	143.781000137
1370.0	0.0003707	144.046000004
1370.0	0.0003676	144.092999935
1370.0	0.0003651	144.125
1370.0	0.0003631	144.171000004
1370.0	0.0003613	144.217999935
1370.0	0.0003601	144.25
1370.0	0.0003592	144.296000004
1370.0	0.0003586	144.342999935
1370.0	0.000358	144.375
1370.0	0.0003575	144.421000004
1370.0	0.0003571	144.453000069
1370.0	0.000357	144.5
1370.0	0.0003567	144.546000004
1370.0	0.0003567	144.578000069
1370.0	0.0003563	144.625
1370.0	0.0003565	144.671000004
1370.0	0.0003565	144.703000069
1370.0	0.0003562	144.75
1370.0	0.0003558	144.796000004
1370.0	0.0003557	144.828000069
1370.0	0.0003558	144.875
1370.0	0.0003558	144.906000137
1370.0	0.0003561	144.953000069
1370.0	0.0003561	145.0
1370.0	0.0003561	145.031000137
1370.0	0.0003558	145.078000069
1370.0	0.0003558	145.125
1370.0	0.0003558	145.156000137
1370.0	0.0003556	145.203000069
1370.0	0.0003555	145.233999968
1370.0	0.0003552	145.281000137
1370.0	0.0003552	145.328000069
1370.0	0.0003552	145.358999968
1370.0	0.0003551	145.406000137
1370.0	0.0003552	145.453000069
1370.0	0.0003552	145.483999968
1370.0	0.0003552	145.531000137
1370.0	0.0003555	145.562000036
1370.0	0.0003555	145.608999968
1370.0	0.0003555	145.656000137
1370.0	0.0003555	145.687000036
1370.0	0.0003551	145.733999968
1370.0	0.0003552	145.781000137
1370.0	0.0003551	145.812000036
1370.0	0.0003551	145.858999968
1370.0	0.0003552	145.890000105
1370.0	0.0003551	145.937000036
1370.0	0.0003555	145.983999968
1370.0	0.0003556	146.015000105
1380.0	0.0003486	146.281000137
1380.0	0.0003458	146.328000069
1380.0	0.0003438	146.375
1380.0	0.0003425	146.406000137
1380.0	0.0003415	146.453000069
1380.0	0.0003407	146.5
1380.0	0.0003402	146.531000137
1380.0	0.0003395	146.578000069
1380.0	0.0003388	146.608999968
1380.0	0.0003382	146.656000137
1380.0	0.0003381	146.703000069
1380.0	0.000338	146.733999968
1380.0	0.0003377	146.781000137
1380.0	0.0003377	146.828000069
1380.0	0.000338	146.858999968
1380.0	0.000338	146.906000137
1380.0	0.0003381	146.953000069
1380.0	0.0003381	146.983999968
1380.0	0.000338	147.031000137
1380.0	0.0003376	147.062000036
1380.0	0.0003375	147.108999968
1380.0	0.0003375	147.156000137
1380.0	0.0003376	147.187000036
1380.0	0.000338	147.233999968
1380.0	0.0003381	147.281000137
1380.0	0.0003382	147.312000036
1380.0	0.0003381	147.358999968
1380.0	0.000338	147.390000105
1380.0	0.000338	147.437000036
1380.0	0.0003377	147.483999968
1380.0	0.0003377	147.515000105
1380.0	0.000338	147.562000036
1380.0	0.0003381	147.608999968
1380.0	0.0003382	147.640000105
1380.0	0.0003382	147.687000036
1380.0	0.0003383	147.717999935
1380.0	0.0003383	147.765000105
1380.0	0.0003383	147.812000036
1380.0	0.0003381	147.842999935
1380.0	0.000338	147.890000105
1380.0	0.0003377	147.937000036
1380.0	0.000338	147.967999935
1380.0	0.0003377	148.015000105
1380.0	0.000338	148.046000004
1380.0	0.000338	148.092999935
1380.0	0.0003381	148.140000105
1380.0	0.0003382	148.171000004
1380.0	0.0003382	148.217999935
1380.0	0.0003386	148.265000105
1390.0	0.0003331	148.515000105
1390.0	0.0003313	148.562000036
1390.0	0.0003296	148.608999968
1390.0	0.0003286	148.640000105
1390.0	0.0003276	148.687000036
1390.0	0.000327	148.733999968
1390.0	0.0003265	148.765000105
1390.0	0.0003263	148.812000036
1390.0	0.0003258	148.842999935
1390.0	0.0003255	148.890000105
1390.0	0.0003256	148.937000036
1390.0	0.0003257	148.967999935
1390.0	0.0003258	149.015000105
1390.0	0.0003257	149.062000036
1390.0	0.0003256	149.092999935
1390.0	0.0003252	149.140000105
1390.0	0.0003252	149.171000004
1390.0	0.0003251	149.217999935
1390.0	0.0003251	149.265000105
1390.0	0.0003248	149.296000004
1390.0	0.0003246	149.342999935
1390.0	0.0003248	149.390000105
1390.0	0.0003251	149.421000004
1390.0	0.0003252	149.467999935
1390.0	0.0003252	149.515000105
1390.0	0.0003251	149.546000004
1390.0	0.000325	149.592999935
1390.0	0.0003246	149.625
1390.0	0.0003245	149.671000004
1390.0	0.0003243	149.717999935
1390.0	0.0003245	149.75
1390.0	0.0003246	149.796000004
1390.0	0.0003248	149.842999935
1390.0	0.0003248	149.875
1390.0	0.0003251	149.921000004
1390.0	0.0003251	149.953000069
1390.0	0.0003251	150.0
1390.0	0.0003251	150.046000004
1390.0	0.0003251	150.078000069
1390.0	0.0003252	150.125
1390.0	0.0003251	150.171000004
1390.0	0.0003251	150.203000069
1390.0	0.0003251	150.25
1390.0	0.0003252	150.281000137
1390.0	0.0003252	150.328000069
1390.0	0.0003251	150.375
1390.0	0.000325	150.406000137
1390.0	0.0003248	150.453000069
1390.0	0.0003248	150.5
1400.0	0.0003217	150.75
1400.0	0.0003207	150.796000004
1400.0	0.0003198	150.842999935
1400.0	0.0003193	150.875
1400.0	0.0003187	150.921000004
1400.0	0.0003183	150.967999935
1400.0	0.0003181	151.0
1400.0	0.0003181	151.046000004
1400.0	0.0003181	151.078000069
1400.0	0.0003178	151.125
1400.0	0.0003177	151.171000004
1400.0	0.0003175	151.203000069
1400.0	0.0003171	151.25
1400.0	0.0003171	151.296000004
1400.0	0.0003171	151.328000069
1400.0	0.0003171	151.375
1400.0	0.0003168	151.421000004
1400.0	0.0003166	151.453000069
1400.0	0.0003165	151.5
1400.0	0.0003165	151.531000137
1400.0	0.0003168	151.578000069
1400.0	0.000317	151.625
1400.0	0.000317	151.656000137
1400.0	0.0003171	151.703000069
1400.0	0.0003171	151.75
1400.0	0.0003171	151.781000137
1400.0	0.000317	151.828000069
1400.0	0.000317	151.858999968
1400.0	0.0003168	151.906000137
1400.0	0.0003166	151.953000069
1400.0	0.000317	151.983999968
1400.0	0.000317	152.031000137
1400.0	0.0003168	152.078000069
1400.0	0.0003168	152.108999968
1400.0	0.0003166	152.156000137
1400.0	0.0003168	152.187000036
1400.0	0.0003168	152.233999968
1400.0	0.000317	152.281000137
1400.0	0.000317	152.312000036
1400.0	0.0003171	152.358999968
1400.0	0.0003171	152.406000137
1400.0	0.0003171	152.437000036
1400.0	0.0003171	152.483999968
1400.0	0.0003171	152.515000105
1400.0	0.0003171	152.562000036
1400.0	0.000317	152.608999968
1400.0	0.0003168	152.640000105
1400.0	0.0003168	152.687000036
1400.0	0.0003168	152.733999968
1410.0	0.0003165	153.0
1410.0	0.0003158	153.031000137
1410.0	0.0003156	153.078000069
1410.0	0.0003152	153.125
1410.0	0.0003151	153.156000137
1410.0	0.000315	153.203000069
1410.0	0.0003146	153.25
1410.0	0.0003146	153.281000137
1410.0	0.0003143	153.328000069
1410.0	0.0003143	153.358999968
1410.0	0.0003145	153.406000137
1410.0	0.0003145	153.453000069
1410.0	0.0003146	153.483999968
1410.0	0.0003145	153.531000137
1410.0	0.0003145	153.578000069
1410.0	0.0003145	153.608999968
1410.0	0.0003143	153.656000137
1410.0	0.0003146	153.687000036
1410.0	0.0003146	153.733999968
1410.0	0.0003146	153.781000137
1410.0	0.0003146	153.812000036
1410.0	0.0003146	153.858999968
1410.0	0.0003145	153.890000105
1410.0	0.0003146	153.937000036
1410.0	0.0003146	153.983999968
1410.0	0.0003146	154.015000105
1410.0	0.0003146	154.062000036
1410.0	0.0003146	154.108999968
1410.0	0.0003147	154.140000105
1410.0	0.0003146	154.187000036
1410.0	0.0003145	154.233999968
1410.0	0.0003145	154.265000105
1410.0	0.0003143	154.312000036
1410.0	0.0003143	154.342999935
1410.0	0.0003145	154.390000105
1410.0	0.0003143	154.437000036
1410.0	0.0003141	154.467999935
1410.0	0.0003141	154.515000105
1410.0	0.0003145	154.562000036
1410.0	0.0003145	154.592999935
1410.0	0.0003145	154.640000105
1410.0	0.0003145	154.671000004
1410.0	0.0003145	154.717999935
1410.0	0.0003146	154.765000105
1410.0	0.0003147	154.796000004
1410.0	0.0003146	154.842999935
1410.0	0.0003145	154.890000105
1410.0	0.0003141	154.921000004
1410.0	0.000314	154.967999935
1420.0	0.0003147	155.233999968
1420.0	0.0003151	155.281000137
1420.0	0.0003153	155.312000036
1420.0	0.0003156	155.358999968
1420.0	0.0003157	155.390000105
1420.0	0.0003158	155.437000036
1420.0	0.0003158	155.483999968
1420.0	0.000316	155.515000105
1420.0	0.000316	155.562000036
1420.0	0.0003163	155.608999968
1420.0	0.0003163	155.640000105
1420.0	0.0003165	155.687000036
1420.0	0.0003166	155.733999968
1420.0	0.0003165	155.765000105
1420.0	0.0003168	155.812000036
1420.0	0.0003168	155.842999935
1420.0	0.0003168	155.890000105
1420.0	0.0003166	155.937000036
1420.0	0.0003165	155.967999935
1420.0	0.0003163	156.015000105
1420.0	0.0003162	156.062000036
1420.0	0.0003158	156.092999935
1420.0	0.000316	156.140000105
1420.0	0.0003162	156.171000004
1420.0	0.0003165	156.217999935
1420.0	0.0003166	156.265000105
1420.0	0.000317	156.296000004
1420.0	0.0003171	156.342999935
1420.0	0.0003171	156.390000105
1420.0	0.0003171	156.421000004
1420.0	0.0003171	156.467999935
1420.0	0.0003171	156.5
1420.0	0.0003172	156.546000004
1420.0	0.0003172	156.592999935
1420.0	0.0003172	156.625
1420.0	0.0003172	156.671000004
1420.0	0.0003171	156.717999935
1420.0	0.000317	156.75
1420.0	0.000317	156.796000004
1420.0	0.000317	156.828000069
1420.0	0.0003168	156.875
1420.0	0.0003166	156.921000004
1420.0	0.0003166	156.953000069
1420.0	0.0003166	157.0
1420.0	0.0003168	157.046000004
1420.0	0.0003168	157.092999935
1420.0	0.0003168	157.125
1420.0	0.0003168	157.171000004
1420.0	0.0003168	157.203000069
1430.0	0.000319	157.467999935
1430.0	0.0003198	157.515000105
1430.0	0.0003205	157.546000004
1430.0	0.0003208	157.592999935
1430.0	0.0003212	157.640000105
1430.0	0.0003218	157.671000004
1430.0	0.0003223	157.717999935
1430.0	0.0003223	157.765000105
1430.0	0.0003225	157.796000004
1430.0	0.0003226	157.842999935
1430.0	0.0003226	157.890000105
1430.0	0.0003226	157.921000004
1430.0	0.0003227	157.967999935
1430.0	0.000323	158.0
1430.0	0.0003231	158.046000004
1430.0	0.0003231	158.092999935
1430.0	0.0003232	158.125
1430.0	0.0003232	158.171000004
1430.0	0.0003233	158.217999935
1430.0	0.0003236	158.25
1430.0	0.0003236	158.296000004
1430.0	0.0003236	158.328000069
1430.0	0.0003236	158.375
1430.0	0.0003236	158.421000004
1430.0	0.0003236	158.453000069
1430.0	0.0003236	158.5
1430.0	0.0003236	158.546000004
1430.0	0.0003236	158.578000069
1430.0	0.0003236	158.625
1430.0	0.0003233	158.656000137
1430.0	0.0003233	158.703000069
1430.0	0.0003233	158.75
1430.0	0.0003233	158.781000137
1430.0	0.0003233	158.828000069
1430.0	0.0003232	158.875
1430.0	0.0003232	158.906000137
1430.0	0.0003232	158.953000069
1430.0	0.0003233	159.0
1430.0	0.0003236	159.031000137
1430.0	0.0003233	159.078000069
1430.0	0.0003236	159.108999968
1430.0	0.0003233	159.156000137
1430.0	0.0003232	159.203000069
1430.0	0.0003233	159.233999968
1430.0	0.0003237	159.281000137
1430.0	0.0003238	159.328000069
1430.0	0.0003236	159.358999968
1430.0	0.0003233	159.406000137
1430.0	0.0003232	159.437000036
1440.0	0.0003265	159.703000069
1440.0	0.0003277	159.75
1440.0	0.000329	159.796000004
1440.0	0.0003301	159.828000069
1440.0	0.0003308	159.875
1440.0	0.0003315	159.921000004
1440.0	0.000332	159.953000069
1440.0	0.0003325	160.0
1440.0	0.0003327	160.046000004
1440.0	0.0003331	160.078000069
1440.0	0.0003331	160.125
1440.0	0.0003331	160.156000137
1440.0	0.0003331	160.203000069
1440.0	0.000333	160.25
1440.0	0.0003331	160.281000137
1440.0	0.000333	160.328000069
1440.0	0.0003331	160.375
1440.0	0.000333	160.406000137
1440.0	0.000333	160.453000069
1440.0	0.0003327	160.483999968
1440.0	0.0003327	160.531000137
1440.0	0.0003326	160.578000069
1440.0	0.000333	160.608999968
1440.0	0.000333	160.656000137
1440.0	0.000333	160.703000069
1440.0	0.0003327	160.733999968
1440.0	0.0003327	160.781000137
1440.0	0.000333	160.812000036
1440.0	0.0003331	160.858999968
1440.0	0.0003331	160.906000137
1440.0	0.0003332	160.937000036
1440.0	0.0003332	160.983999968
1440.0	0.0003333	161.031000137
1440.0	0.0003333	161.062000036
1440.0	0.0003333	161.108999968
1440.0	0.0003332	161.140000105
1440.0	0.0003331	161.187000036
1440.0	0.000333	161.233999968
1440.0	0.000333	161.265000105
1440.0	0.0003327	161.312000036
1440.0	0.0003326	161.358999968
1440.0	0.0003325	161.390000105
1440.0	0.0003321	161.437000036
1440.0	0.000332	161.483999968
1440.0	0.0003323	161.515000105
1440.0	0.0003326	161.562000036
1440.0	0.000333	161.592999935
1440.0	0.0003331	161.640000105
1440.0	0.0003331	161.687000036
1450.0	0.0003371	161.953000069
1450.0	0.0003386	161.983999968
1450.0	0.0003396	162.031000137
1450.0	0.0003406	162.078000069
1450.0	0.0003415	162.108999968
1450.0	0.0003421	162.156000137
1450.0	0.0003426	162.203000069
1450.0	0.000343	162.233999968
1450.0	0.0003432	162.281000137
1450.0	0.0003432	162.312000036
1450.0	0.0003432	162.358999968
1450.0	0.0003436	162.406000137
1450.0	0.0003436	162.437000036
1450.0	0.0003437	162.483999968
1450.0	0.0003438	162.531000137
1450.0	0.0003437	162.562000036
1450.0	0.0003436	162.608999968
1450.0	0.0003433	162.640000105
1450.0	0.0003432	162.687000036
1450.0	0.0003431	162.733999968
1450.0	0.0003432	162.765000105
1450.0	0.0003436	162.812000036
1450.0	0.0003437	162.858999968
1450.0	0.0003438	162.890000105
1450.0	0.0003438	162.937000036
1450.0	0.000344	162.967999935
1450.0	0.000344	163.015000105
1450.0	0.0003442	163.062000036
1450.0	0.000344	163.092999935
1450.0	0.0003438	163.140000105
1450.0	0.0003437	163.187000036
1450.0	0.0003436	163.217999935
1450.0	0.0003436	163.265000105
1450.0	0.0003433	163.296000004
1450.0	0.0003433	163.342999935
1450.0	0.0003433	163.390000105
1450.0	0.0003437	163.421000004
1450.0	0.0003438	163.467999935
1450.0	0.000344	163.515000105
1450.0	0.0003438	163.546000004
1450.0	0.0003438	163.592999935
1450.0	0.0003438	163.640000105
1450.0	0.0003442	163.671000004
1450.0	0.0003442	163.717999935
1450.0	0.0003442	163.75
1450.0	0.000344	163.796000004
1450.0	0.0003438	163.842999935
1450.0	0.0003436	163.875
1450.0	0.0003436	163.921000004
1460.0	0.0003473	164.187000036
1460.0	0.0003486	164.233999968
1460.0	0.0003495	164.265000105
1460.0	0.0003506	164.312000036
1460.0	0.0003517	164.342999935
1460.0	0.0003523	164.390000105
1460.0	0.000353	164.437000036
1460.0	0.0003533	164.467999935
1460.0	0.0003536	164.515000105
1460.0	0.0003537	164.562000036
1460.0	0.0003538	164.592999935
1460.0	0.0003537	164.640000105
1460.0	0.0003536	164.687000036
1460.0	0.0003533	164.717999935
1460.0	0.0003536	164.765000105
1460.0	0.0003538	164.796000004
1460.0	0.0003538	164.842999935
1460.0	0.0003538	164.890000105
1460.0	0.0003538	164.921000004
1460.0	0.0003538	164.967999935
1460.0	0.0003538	165.015000105
1460.0	0.000354	165.046000004
1460.0	0.0003542	165.092999935
1460.0	0.000354	165.125
1460.0	0.0003538	165.171000004
1460.0	0.0003538	165.217999935
1460.0	0.000354	165.25
1460.0	0.000354	165.296000004
1460.0	0.0003542	165.342999935
1460.0	0.000354	165.375
1460.0	0.0003537	165.421000004
1460.0	0.0003533	165.453000069
1460.0	0.0003533	165.5
1460.0	0.0003537	165.546000004
1460.0	0.0003542	165.578000069
1460.0	0.0003543	165.625
1460.0	0.0003545	165.671000004
1460.0	0.0003545	165.703000069
1460.0	0.0003545	165.75
1460.0	0.0003548	165.796000004
1460.0	0.0003548	165.828000069
1460.0	0.0003548	165.875
1460.0	0.0003545	165.906000137
1460.0	0.0003545	165.953000069
1460.0	0.0003545	166.0
1460.0	0.0003545	166.031000137
1460.0	0.0003545	166.078000069
1460.0	0.0003545	166.125
1460.0	0.0003546	166.156000137
1470.0	0.0003573	166.421000004
1470.0	0.0003583	166.467999935
1470.0	0.0003593	166.515000105
1470.0	0.00036	166.546000004
1470.0	0.0003602	166.592999935
1470.0	0.0003607	166.625
1470.0	0.0003611	166.671000004
1470.0	0.0003613	166.717999935
1470.0	0.0003618	166.75
1470.0	0.0003623	166.796000004
1470.0	0.0003625	166.842999935
1470.0	0.0003626	166.875
1470.0	0.0003626	166.921000004
1470.0	0.0003623	166.953000069
1470.0	0.0003621	167.0
1470.0	0.0003621	167.046000004
1470.0	0.0003618	167.078000069
1470.0	0.0003617	167.125
1470.0	0.0003615	167.171000004
1470.0	0.0003613	167.203000069
1470.0	0.0003613	167.25
1470.0	0.0003615	167.281000137
1470.0	0.0003617	167.328000069
1470.0	0.0003617	167.375
1470.0	0.0003617	167.406000137
1470.0	0.0003617	167.453000069
1470.0	0.0003617	167.5
1470.0	0.0003615	167.531000137
1470.0	0.0003615	167.578000069
1470.0	0.0003613	167.608999968
1470.0	0.0003613	167.656000137
1470.0	0.0003612	167.703000069
1470.0	0.0003612	167.733999968
1470.0	0.0003613	167.781000137
1470.0	0.0003613	167.828000069
1470.0	0.0003615	167.858999968
1470.0	0.0003618	167.906000137
1470.0	0.000362	167.953000069
1470.0	0.0003621	167.983999968
1470.0	0.0003621	168.031000137
1470.0	0.0003621	168.062000036
1470.0	0.0003618	168.108999968
1470.0	0.0003618	168.156000137
1470.0	0.0003618	168.187000036
1470.0	0.0003618	168.233999968
1470.0	0.0003618	168.281000137
1470.0	0.0003621	168.312000036
1470.0	0.0003623	168.358999968
1470.0	0.0003623	168.390000105
1480.0	0.0003638	168.671000004
1480.0	0.0003648	168.703000069
1480.0	0.0003655	168.75
1480.0	0.0003661	168.796000004
1480.0	0.0003667	168.828000069
1480.0	0.000367	168.875
1480.0	0.000367	168.921000004
1480.0	0.0003671	168.953000069
1480.0	0.0003673	169.0
1480.0	0.0003673	169.031000137
1480.0	0.0003675	169.078000069
1480.0	0.0003673	169.125
1480.0	0.0003675	169.156000137
1480.0	0.0003676	169.203000069
1480.0	0.0003676	169.25
1480.0	0.0003676	169.281000137
1480.0	0.0003676	169.328000069
1480.0	0.0003675	169.375
1480.0	0.0003675	169.406000137
1480.0	0.0003676	169.453000069
1480.0	0.0003677	169.483999968
1480.0	0.000368	169.531000137
1480.0	0.0003681	169.578000069
1480.0	0.0003682	169.608999968
1480.0	0.0003681	169.656000137
1480.0	0.000368	169.703000069
1480.0	0.0003677	169.733999968
1480.0	0.0003676	169.781000137
1480.0	0.0003676	169.812000036
1480.0	0.0003675	169.858999968
1480.0	0.0003673	169.906000137
1480.0	0.0003675	169.937000036
1480.0	0.0003676	169.983999968
1480.0	0.0003677	170.015000105
1480.0	0.0003676	170.062000036
1480.0	0.0003675	170.108999968
1480.0	0.0003675	170.140000105
1480.0	0.0003675	170.187000036
1480.0	0.0003676	170.233999968
1480.0	0.0003677	170.265000105
1480.0	0.0003681	170.312000036
1480.0	0.0003682	170.358999968
1480.0	0.0003682	170.390000105
1480.0	0.000368	170.437000036
1480.0	0.0003681	170.467999935
1480.0	0.0003682	170.515000105
1480.0	0.0003681	170.562000036
1480.0	0.0003681	170.592999935
1480.0	0.000368	170.640000105
1490.0	0.0003692	170.906000137
1490.0	0.00037	170.953000069
1490.0	0.0003706	171.0
1490.0	0.0003707	171.031000137
1490.0	0.0003712	171.078000069
1490.0	0.0003715	171.108999968
1490.0	0.0003717	171.156000137
1490.0	0.0003715	171.203000069
1490.0	0.0003713	171.233999968
1490.0	0.0003713	171.281000137
1490.0	0.0003712	171.328000069
1490.0	0.0003711	171.358999968
1490.0	0.0003708	171.406000137
1490.0	0.0003711	171.453000069
1490.0	0.0003712	171.483999968
1490.0	0.0003712	171.531000137
1490.0	0.0003708	171.562000036
1490.0	0.0003708	171.608999968
1490.0	0.0003711	171.656000137
1490.0	0.0003711	171.687000036
1490.0	0.0003711	171.733999968
1490.0	0.0003713	171.765000105
1490.0	0.0003715	171.812000036
1490.0	0.0003713	171.858999968
1490.0	0.0003713	171.890000105
1490.0	0.0003712	171.937000036
1490.0	0.0003713	171.983999968
1490.0	0.0003715	172.015000105
1490.0	0.0003717	172.062000036
1490.0	0.0003718	172.108999968
1490.0	0.0003718	172.140000105
1490.0	0.0003715	172.187000036
1490.0	0.0003715	172.217999935
1490.0	0.0003717	172.265000105
1490.0	0.0003718	172.312000036
1490.0	0.000372	172.342999935
1490.0	0.000372	172.390000105
1490.0	0.0003717	172.437000036
1490.0	0.0003715	172.467999935
1490.0	0.0003715	172.515000105
1490.0	0.0003715	172.546000004
1490.0	0.0003713	172.592999935
1490.0	0.0003715	172.640000105
1490.0	0.0003715	172.671000004
1490.0	0.0003713	172.717999935
1490.0	0.0003713	172.765000105
1490.0	0.0003712	172.796000004
1490.0	0.0003712	172.842999935
1490.0	0.0003713	172.875
1500.0	0.0003721	173.156000137
1500.0	0.0003723	173.187000036
1500.0	0.0003726	173.233999968
1500.0	0.0003727	173.281000137
1500.0	0.0003731	173.312000036
1500.0	0.0003731	173.358999968
1500.0	0.0003731	173.406000137
1500.0	0.0003731	173.437000036
1500.0	0.0003732	173.483999968
1500.0	0.0003736	173.515000105
1500.0	0.0003738	173.562000036
1500.0	0.0003738	173.608999968
1500.0	0.000374	173.640000105
1500.0	0.0003742	173.687000036
1500.0	0.0003743	173.733999968
1500.0	0.0003745	173.765000105
1500.0	0.0003743	173.812000036
1500.0	0.0003743	173.858999968
1500.0	0.0003743	173.890000105
1500.0	0.0003742	173.937000036
1500.0	0.000374	173.967999935
1500.0	0.0003738	174.015000105
1500.0	0.0003738	174.062000036
1500.0	0.0003737	174.092999935
1500.0	0.0003736	174.140000105
1500.0	0.0003736	174.187000036
1500.0	0.0003737	174.217999935
1500.0	0.0003737	174.265000105
1500.0	0.0003738	174.296000004
1500.0	0.0003738	174.342999935
1500.0	0.0003738	174.390000105
1500.0	0.0003738	174.421000004
1500.0	0.0003742	174.467999935
1500.0	0.0003743	174.515000105
1500.0	0.000374	174.546000004
1500.0	0.0003738	174.592999935
1500.0	0.0003738	174.625
1500.0	0.0003738	174.671000004
1500.0	0.0003738	174.717999935
1500.0	0.0003737	174.75
1500.0	0.0003736	174.796000004
1500.0	0.0003736	174.842999935
1500.0	0.0003736	174.875
1500.0	0.0003737	174.921000004
1500.0	0.0003736	174.953000069
1500.0	0.0003737	175.0
1500.0	0.0003737	175.046000004
1500.0	0.0003736	175.078000069
1500.0	0.0003736	175.125
1510.0	0.0003745	175.406000137
1510.0	0.0003746	175.437000036
1510.0	0.0003746	175.483999968
1510.0	0.0003746	175.515000105
1510.0	0.0003745	175.562000036
1510.0	0.0003745	175.608999968
1510.0	0.0003746	175.640000105
1510.0	0.0003745	175.687000036
1510.0	0.0003745	175.733999968
1510.0	0.0003748	175.765000105
1510.0	0.0003748	175.812000036
1510.0	0.0003751	175.858999968
1510.0	0.0003752	175.890000105
1510.0	0.0003755	175.937000036
1510.0	0.0003755	175.967999935
1510.0	0.0003756	176.015000105
1510.0	0.0003757	176.062000036
1510.0	0.0003756	176.092999935
1510.0	0.0003752	176.140000105
1510.0	0.000375	176.187000036
1510.0	0.0003748	176.217999935
1510.0	0.0003748	176.265000105
1510.0	0.000375	176.296000004
1510.0	0.000375	176.342999935
1510.0	0.000375	176.390000105
1510.0	0.0003751	176.421000004
1510.0	0.0003752	176.467999935
1510.0	0.0003751	176.515000105
1510.0	0.0003755	176.546000004
1510.0	0.0003752	176.592999935
1510.0	0.0003751	176.625
1510.0	0.0003748	176.671000004
1510.0	0.0003746	176.717999935
1510.0	0.0003746	176.75
1510.0	0.0003746	176.796000004
1510.0	0.0003745	176.842999935
1510.0	0.0003745	176.875
1510.0	0.0003746	176.921000004
1510.0	0.0003746	176.967999935
1510.0	0.0003748	177.0
1510.0	0.0003748	177.046000004
1510.0	0.0003748	177.078000069
1510.0	0.0003751	177.125
1510.0	0.0003752	177.171000004
1510.0	0.0003755	177.203000069
1510.0	0.0003755	177.25
1510.0	0.0003755	177.296000004
1510.0	0.0003755	177.328000069
1510.0	0.0003755	177.375
1520.0	0.0003755	177.640000105
1520.0	0.0003755	177.687000036
1520.0	0.0003755	177.733999968
1520.0	0.0003752	177.765000105
1520.0	0.0003751	177.812000036
1520.0	0.0003751	177.858999968
1520.0	0.000375	177.890000105
1520.0	0.0003746	177.937000036
1520.0	0.0003746	177.967999935
1520.0	0.0003748	178.015000105
1520.0	0.0003746	178.062000036
1520.0	0.0003746	178.092999935
1520.0	0.0003746	178.140000105
1520.0	0.0003745	178.187000036
1520.0	0.0003745	178.217999935
1520.0	0.0003743	178.265000105
1520.0	0.0003743	178.296000004
1520.0	0.0003743	178.342999935
1520.0	0.0003745	178.390000105
1520.0	0.0003746	178.421000004
1520.0	0.0003746	178.467999935
1520.0	0.000375	178.515000105
1520.0	0.000375	178.546000004
1520.0	0.000375	178.592999935
1520.0	0.0003751	178.640000105
1520.0	0.000375	178.671000004
1520.0	0.000375	178.717999935
1520.0	0.0003748	178.75
1520.0	0.0003746	178.796000004
1520.0	0.0003745	178.842999935
1520.0	0.0003745	178.875
1520.0	0.0003751	178.921000004
1520.0	0.0003752	178.967999935
1520.0	0.0003755	179.0
1520.0	0.0003755	179.046000004
1520.0	0.0003755	179.078000069
1520.0	0.0003751	179.125
1520.0	0.0003746	179.171000004
1520.0	0.0003748	179.203000069
1520.0	0.0003748	179.25
1520.0	0.000375	179.296000004
1520.0	0.0003751	179.328000069
1520.0	0.0003755	179.375
1520.0	0.0003752	179.406000137
1520.0	0.0003751	179.453000069
1520.0	0.000375	179.5
1520.0	0.0003748	179.531000137
1520.0	0.0003746	179.578000069
1520.0	0.0003745	179.625
1530.0	0.0003738	179.890000105
1530.0	0.0003737	179.937000036
1530.0	0.0003733	179.967999935
1530.0	0.0003731	180.015000105
1530.0	0.000373	180.046000004
1530.0	0.0003727	180.092999935
1530.0	0.0003726	180.140000105
1530.0	0.0003721	180.171000004
1530.0	0.0003721	180.217999935
1530.0	0.0003718	180.265000105
1530.0	0.0003713	180.296000004
1530.0	0.0003711	180.342999935
1530.0	0.0003713	180.375
1530.0	0.0003713	180.421000004
1530.0	0.0003715	180.467999935
1530.0	0.0003713	180.5
1530.0	0.0003713	180.546000004
1530.0	0.0003715	180.592999935
1530.0	0.000372	180.625
1530.0	0.0003721	180.671000004
1530.0	0.0003723	180.717999935
1530.0	0.0003725	180.75
1530.0	0.0003726	180.796000004
1530.0	0.0003726	180.828000069
1530.0	0.0003725	180.875
1530.0	0.0003725	180.921000004
1530.0	0.0003725	180.953000069
1530.0	0.0003726	181.0
1530.0	0.0003726	181.046000004
1530.0	0.0003726	181.078000069
1530.0	0.0003726	181.125
1530.0	0.0003727	181.156000137
1530.0	0.0003726	181.203000069
1530.0	0.0003726	181.25
1530.0	0.0003726	181.281000137
1530.0	0.0003727	181.328000069
1530.0	0.0003727	181.375
1530.0	0.000373	181.406000137
1530.0	0.000373	181.453000069
1530.0	0.0003726	181.483999968
1530.0	0.0003725	181.531000137
1530.0	0.0003725	181.578000069
1530.0	0.0003723	181.608999968
1530.0	0.0003725	181.656000137
1530.0	0.0003725	181.703000069
1530.0	0.0003725	181.733999968
1530.0	0.0003725	181.781000137
1530.0	0.0003726	181.812000036
1530.0	0.0003726	181.858999968
1540.0	0.0003708	182.140000105
1540.0	0.0003702	182.171000004
1540.0	0.0003698	182.217999935
1540.0	0.0003693	182.265000105
1540.0	0.0003688	182.296000004
1540.0	0.0003686	182.342999935
1540.0	0.0003683	182.375
1540.0	0.0003682	182.421000004
1540.0	0.0003682	182.467999935
1540.0	0.000368	182.5
1540.0	0.0003676	182.546000004
1540.0	0.0003676	182.592999935
1540.0	0.0003676	182.625
1540.0	0.0003676	182.671000004
1540.0	0.0003676	182.703000069
1540.0	0.0003676	182.75
1540.0	0.0003675	182.796000004
1540.0	0.0003673	182.828000069
1540.0	0.0003673	182.875
1540.0	0.0003673	182.921000004
1540.0	0.000367	182.953000069
1540.0	0.000367	183.0
1540.0	0.0003671	183.046000004
1540.0	0.0003671	183.078000069
1540.0	0.0003673	183.125
1540.0	0.0003673	183.156000137
1540.0	0.0003673	183.203000069
1540.0	0.0003671	183.25
1540.0	0.0003673	183.281000137
1540.0	0.0003675	183.328000069
1540.0	0.0003675	183.375
1540.0	0.0003676	183.406000137
1540.0	0.0003676	183.453000069
1540.0	0.0003675	183.5
1540.0	0.0003676	183.531000137
1540.0	0.0003677	183.578000069
1540.0	0.000368	183.608999968
1540.0	0.000368	183.656000137
1540.0	0.0003677	183.703000069
1540.0	0.0003676	183.733999968
1540.0	0.0003675	183.781000137
1540.0	0.0003675	183.828000069
1540.0	0.0003675	183.858999968
1540.0	0.0003673	183.906000137
1540.0	0.0003671	183.937000036
1540.0	0.0003671	183.983999968
1540.0	0.0003675	184.031000137
1540.0	0.0003676	184.062000036
1540.0	0.0003676	184.108999968
1550.0	0.0003646	184.375
1550.0	0.0003638	184.421000004
1550.0	0.0003633	184.467999935
1550.0	0.0003627	184.5
1550.0	0.0003625	184.546000004
1550.0	0.0003618	184.592999935
1550.0	0.0003613	184.625
1550.0	0.0003608	184.671000004
1550.0	0.0003607	184.717999935
1550.0	0.0003605	184.75
1550.0	0.0003601	184.796000004
1550.0	0.00036	184.828000069
1550.0	0.00036	184.875
1550.0	0.00036	184.921000004
1550.0	0.0003601	184.953000069
1550.0	0.0003601	185.0
1550.0	0.0003602	185.046000004
1550.0	0.0003605	185.078000069
1550.0	0.0003605	185.125
1550.0	0.0003602	185.156000137
1550.0	0.0003602	185.203000069
1550.0	0.0003605	185.25
1550.0	0.0003601	185.281000137
1550.0	0.00036	185.328000069
1550.0	0.00036	185.375
1550.0	0.00036	185.406000137
1550.0	0.0003598	185.453000069
1550.0	0.0003596	185.5
1550.0	0.0003595	185.531000137
1550.0	0.0003593	185.578000069
1550.0	0.0003593	185.608999968
1550.0	0.0003593	185.656000137
1550.0	0.0003593	185.703000069
1550.0	0.0003593	185.733999968
1550.0	0.0003593	185.781000137
1550.0	0.0003596	185.828000069
1550.0	0.00036	185.858999968
1550.0	0.0003601	185.906000137
1550.0	0.0003601	185.937000036
1550.0	0.0003601	185.983999968
1550.0	0.0003602	186.031000137
1550.0	0.0003601	186.062000036
1550.0	0.0003601	186.108999968
1550.0	0.00036	186.140000105
1550.0	0.0003601	186.187000036
1550.0	0.0003601	186.233999968
1550.0	0.0003601	186.265000105
1550.0	0.0003601	186.312000036
1550.0	0.00036	186.358999968
1560.0	0.0003557	186.625
1560.0	0.0003542	186.671000004
1560.0	0.0003527	186.717999935
1560.0	0.000352	186.75
1560.0	0.0003513	186.796000004
1560.0	0.0003511	186.828000069
1560.0	0.0003506	186.875
1560.0	0.0003501	186.921000004
1560.0	0.0003496	186.953000069
1560.0	0.0003493	187.0
1560.0	0.0003493	187.046000004
1560.0	0.0003492	187.078000069
1560.0	0.0003493	187.125
1560.0	0.0003493	187.156000137
1560.0	0.0003492	187.203000069
1560.0	0.0003488	187.25
1560.0	0.0003486	187.281000137
1560.0	0.0003483	187.328000069
1560.0	0.0003482	187.375
1560.0	0.0003482	187.406000137
1560.0	0.0003482	187.453000069
1560.0	0.0003482	187.5
1560.0	0.0003482	187.531000137
1560.0	0.0003482	187.578000069
1560.0	0.0003483	187.608999968
1560.0	0.0003482	187.656000137
1560.0	0.0003486	187.703000069
1560.0	0.0003486	187.733999968
1560.0	0.0003483	187.781000137
1560.0	0.0003482	187.828000069
1560.0	0.0003482	187.858999968
1560.0	0.0003483	187.906000137
1560.0	0.0003486	187.937000036
1560.0	0.0003486	187.983999968
1560.0	0.0003483	188.031000137
1560.0	0.0003483	188.062000036
1560.0	0.0003482	188.108999968
1560.0	0.0003483	188.156000137
1560.0	0.0003483	188.187000036
1560.0	0.0003482	188.233999968
1560.0	0.0003482	188.265000105
1560.0	0.0003482	188.312000036
1560.0	0.0003486	188.358999968
1560.0	0.0003488	188.390000105
1560.0	0.0003492	188.437000036
1560.0	0.0003488	188.483999968
1560.0	0.0003487	188.515000105
1560.0	0.0003486	188.562000036
1560.0	0.0003483	188.592999935
1570.0	0.0003432	188.875
1570.0	0.0003411	188.921000004
1570.0	0.0003392	188.953000069
1570.0	0.0003377	189.0
1570.0	0.0003368	189.046000004
1570.0	0.0003361	189.078000069
1570.0	0.0003357	189.125
1570.0	0.0003355	189.156000137
1570.0	0.0003351	189.203000069
1570.0	0.000335	189.25
1570.0	0.0003348	189.281000137
1570.0	0.0003345	189.328000069
1570.0	0.0003343	189.375
1570.0	0.000334	189.406000137
1570.0	0.0003338	189.453000069
1570.0	0.0003338	189.5
1570.0	0.000334	189.531000137
1570.0	0.0003342	189.578000069
1570.0	0.0003343	189.608999968
1570.0	0.0003342	189.656000137
1570.0	0.0003342	189.703000069
1570.0	0.0003342	189.733999968
1570.0	0.0003342	189.781000137
1570.0	0.0003342	189.828000069
1570.0	0.0003343	189.858999968
1570.0	0.0003343	189.906000137
1570.0	0.0003343	189.937000036
1570.0	0.0003343	189.983999968
1570.0	0.0003343	190.031000137
1570.0	0.0003345	190.062000036
1570.0	0.0003345	190.108999968
1570.0	0.0003343	190.156000137
1570.0	0.0003342	190.187000036
1570.0	0.0003342	190.233999968
1570.0	0.000334	190.265000105
1570.0	0.000334	190.312000036
1570.0	0.0003338	190.358999968
1570.0	0.0003338	190.390000105
1570.0	0.000334	190.437000036
1570.0	0.0003343	190.483999968
1570.0	0.0003343	190.515000105
1570.0	0.0003345	190.562000036
1570.0	0.0003345	190.592999935
1570.0	0.0003345	190.640000105
1570.0	0.0003345	190.687000036
1570.0	0.0003345	190.717999935
1570.0	0.0003343	190.765000105
1570.0	0.0003345	190.812000036
1570.0	0.0003342	190.842999935
1580.0	0.0003282	191.125
1580.0	0.0003262	191.156000137
1580.0	0.0003243	191.203000069
1580.0	0.0003226	191.25
1580.0	0.0003215	191.281000137
1580.0	0.0003206	191.328000069
1580.0	0.0003198	191.375
1580.0	0.0003191	191.406000137
1580.0	0.0003187	191.453000069
1580.0	0.0003183	191.5
1580.0	0.0003182	191.531000137
1580.0	0.0003178	191.578000069
1580.0	0.0003176	191.608999968
1580.0	0.0003175	191.656000137
1580.0	0.0003175	191.703000069
1580.0	0.0003177	191.733999968
1580.0	0.0003177	191.781000137
1580.0	0.0003181	191.828000069
1580.0	0.0003181	191.858999968
1580.0	0.0003182	191.906000137
1580.0	0.0003181	191.937000036
1580.0	0.0003182	191.983999968
1580.0	0.0003183	192.031000137
1580.0	0.0003183	192.062000036
1580.0	0.0003182	192.108999968
1580.0	0.0003177	192.156000137
1580.0	0.0003172	192.187000036
1580.0	0.0003171	192.233999968
1580.0	0.0003168	192.265000105
1580.0	0.0003168	192.312000036
1580.0	0.0003168	192.358999968
1580.0	0.0003168	192.390000105
1580.0	0.0003168	192.437000036
1580.0	0.0003168	192.483999968
1580.0	0.0003168	192.515000105
1580.0	0.0003168	192.562000036
1580.0	0.0003168	192.592999935
1580.0	0.000317	192.640000105
1580.0	0.000317	192.687000036
1580.0	0.000317	192.717999935
1580.0	0.0003171	192.765000105
1580.0	0.000317	192.812000036
1580.0	0.0003172	192.842999935
1580.0	0.0003172	192.890000105
1580.0	0.0003175	192.937000036
1580.0	0.0003172	192.967999935
1580.0	0.0003172	193.015000105
1580.0	0.0003171	193.046000004
1580.0	0.0003171	193.092999935
1590.0	0.0003106	193.375
1590.0	0.0003081	193.406000137
1590.0	0.0003058	193.453000069
1590.0	0.000304	193.5
1590.0	0.0003025	193.531000137
1590.0	0.0003012	193.578000069
1590.0	0.0003002	193.608999968
1590.0	0.0002996	193.656000137
1590.0	0.0002991	193.703000069
1590.0	0.0002988	193.733999968
1590.0	0.0002985	193.781000137
1590.0	0.0002982	193.828000069
1590.0	0.0002983	193.858999968
1590.0	0.0002983	193.906000137
1590.0	0.0002982	193.937000036
1590.0	0.0002982	193.983999968
1590.0	0.0002978	194.031000137
1590.0	0.0002977	194.062000036
1590.0	0.0002975	194.108999968
1590.0	0.0002972	194.156000137
1590.0	0.0002975	194.187000036
1590.0	0.0002975	194.233999968
1590.0	0.0002975	194.265000105
1590.0	0.0002971	194.312000036
1590.0	0.0002968	194.358999968
1590.0	0.000297	194.390000105
1590.0	0.000297	194.437000036
1590.0	0.0002971	194.483999968
1590.0	0.0002971	194.515000105
1590.0	0.0002975	194.562000036
1590.0	0.0002976	194.592999935
1590.0	0.0002977	194.640000105
1590.0	0.0002978	194.687000036
1590.0	0.0002977	194.717999935
1590.0	0.0002977	194.765000105
1590.0	0.0002975	194.812000036
1590.0	0.0002971	194.842999935
1590.0	0.0002971	194.890000105
1590.0	0.0002968	194.937000036
1590.0	0.0002968	194.967999935
1590.0	0.000297	195.015000105
1590.0	0.000297	195.046000004
1590.0	0.0002971	195.092999935
1590.0	0.0002972	195.140000105
1590.0	0.0002975	195.171000004
1590.0	0.0002976	195.217999935
1590.0	0.0002972	195.265000105
1590.0	0.0002972	195.296000004
1590.0	0.000297	195.342999935
1600.0	0.0002897	195.608999968
1600.0	0.0002868	195.656000137
1600.0	0.0002843	195.703000069
1600.0	0.0002822	195.733999968
1600.0	0.0002807	195.781000137
1600.0	0.0002793	195.828000069
1600.0	0.0002785	195.858999968
1600.0	0.0002776	195.906000137
1600.0	0.000277	195.953000069
1600.0	0.0002765	195.983999968
1600.0	0.000276	196.031000137
1600.0	0.0002758	196.078000069
1600.0	0.0002758	196.108999968
1600.0	0.0002758	196.156000137
1600.0	0.0002762	196.203000069
1600.0	0.0002762	196.233999968
1600.0	0.0002762	196.281000137
1600.0	0.0002758	196.312000036
1600.0	0.0002757	196.358999968
1600.0	0.0002757	196.406000137
1600.0	0.0002756	196.437000036
1600.0	0.0002756	196.483999968
1600.0	0.0002756	196.515000105
1600.0	0.0002757	196.562000036
1600.0	0.0002756	196.608999968
1600.0	0.0002756	196.640000105
1600.0	0.0002756	196.687000036
1600.0	0.0002752	196.733999968
1600.0	0.0002753	196.765000105
1600.0	0.0002756	196.812000036
1600.0	0.0002756	196.858999968
1600.0	0.0002756	196.890000105
1600.0	0.0002757	196.937000036
1600.0	0.0002757	196.967999935
1600.0	0.0002757	197.015000105
1600.0	0.0002756	197.062000036
1600.0	0.0002756	197.092999935
1600.0	0.0002753	197.140000105
1600.0	0.0002753	197.187000036
1600.0	0.0002752	197.217999935
1600.0	0.0002753	197.265000105
1600.0	0.0002753	197.296000004
1600.0	0.0002751	197.342999935
1600.0	0.0002752	197.390000105
1600.0	0.0002753	197.421000004
1600.0	0.0002756	197.467999935
1600.0	0.0002756	197.515000105
1600.0	0.0002756	197.546000004
1600.0	0.0002756	197.592999935
1610.0	0.0002672	197.875
1610.0	0.0002643	197.906000137
1610.0	0.0002616	197.953000069
1610.0	0.0002596	198.0
1610.0	0.0002578	198.031000137
1610.0	0.0002562	198.078000069
1610.0	0.0002551	198.125
1610.0	0.0002541	198.156000137
1610.0	0.0002537	198.203000069
1610.0	0.0002532	198.233999968
1610.0	0.0002527	198.281000137
1610.0	0.0002522	198.328000069
1610.0	0.000252	198.358999968
1610.0	0.0002516	198.406000137
1610.0	0.0002518	198.453000069
1610.0	0.0002518	198.483999968
1610.0	0.0002518	198.531000137
1610.0	0.0002516	198.562000036
1610.0	0.0002518	198.608999968
1610.0	0.0002521	198.656000137
1610.0	0.0002522	198.687000036
1610.0	0.0002522	198.733999968
1610.0	0.0002521	198.781000137
1610.0	0.0002522	198.812000036
1610.0	0.0002521	198.858999968
1610.0	0.0002522	198.890000105
1610.0	0.0002526	198.937000036
1610.0	0.0002526	198.983999968
1610.0	0.0002526	199.015000105
1610.0	0.0002527	199.062000036
1610.0	0.0002525	199.108999968
1610.0	0.0002521	199.140000105
1610.0	0.0002521	199.187000036
1610.0	0.0002522	199.217999935
1610.0	0.0002526	199.265000105
1610.0	0.0002527	199.312000036
1610.0	0.0002528	199.342999935
1610.0	0.0002528	199.390000105
1610.0	0.0002528	199.437000036
1610.0	0.0002527	199.467999935
1610.0	0.0002527	199.515000105
1610.0	0.0002527	199.562000036
1610.0	0.0002526	199.592999935
1610.0	0.0002525	199.640000105
1610.0	0.0002525	199.671000004
1610.0	0.0002525	199.717999935
1610.0	0.0002525	199.765000105
1610.0	0.0002522	199.796000004
1610.0	0.0002522	199.842999935
1620.0	0.0002438	200.125
1620.0	0.000241	200.156000137
1620.0	0.0002383	200.203000069
1620.0	0.0002363	200.233999968
1620.0	0.0002345	200.281000137
1620.0	0.0002331	200.328000069
1620.0	0.000232	200.358999968
1620.0	0.0002313	200.406000137
1620.0	0.0002308	200.453000069
1620.0	0.0002302	200.483999968
1620.0	0.0002297	200.531000137
1620.0	0.0002295	200.562000036
1620.0	0.0002291	200.608999968
1620.0	0.0002291	200.656000137
1620.0	0.0002291	200.687000036
1620.0	0.0002291	200.733999968
1620.0	0.000229	200.781000137
1620.0	0.0002288	200.812000036
1620.0	0.0002288	200.858999968
1620.0	0.0002288	200.890000105
1620.0	0.0002287	200.937000036
1620.0	0.0002287	200.983999968
1620.0	0.0002287	201.015000105
1620.0	0.0002288	201.062000036
1620.0	0.0002287	201.108999968
1620.0	0.0002287	201.140000105
1620.0	0.0002287	201.187000036
1620.0	0.0002288	201.217999935
1620.0	0.0002288	201.265000105
1620.0	0.0002288	201.312000036
1620.0	0.0002287	201.342999935
1620.0	0.0002285	201.390000105
1620.0	0.0002285	201.437000036
1620.0	0.0002283	201.467999935
1620.0	0.0002283	201.515000105
1620.0	0.0002283	201.562000036
1620.0	0.0002285	201.592999935
1620.0	0.0002282	201.640000105
1620.0	0.0002281	201.671000004
1620.0	0.0002278	201.717999935
1620.0	0.0002281	201.765000105
1620.0	0.0002281	201.796000004
1620.0	0.0002282	201.842999935
1620.0	0.0002282	201.890000105
1620.0	0.0002283	201.921000004
1620.0	0.0002283	201.967999935
1620.0	0.0002283	202.0
1620.0	0.0002285	202.046000004
1620.0	0.0002285	202.092999935
1630.0	0.0002202	202.375
1630.0	0.0002171	202.406000137
1630.0	0.0002143	202.453000069
1630.0	0.000212	202.5
1630.0	0.0002101	202.531000137
1630.0	0.0002088	202.578000069
1630.0	0.0002077	202.625
1630.0	0.0002071	202.656000137
1630.0	0.0002065	202.703000069
1630.0	0.000206	202.75
1630.0	0.0002057	202.781000137
1630.0	0.0002053	202.828000069
1630.0	0.0002052	202.858999968
1630.0	0.0002053	202.906000137
1630.0	0.0002053	202.953000069
1630.0	0.0002052	202.983999968
1630.0	0.0002052	203.031000137
1630.0	0.0002052	203.078000069
1630.0	0.0002052	203.108999968
1630.0	0.0002051	203.156000137
1630.0	0.000205	203.187000036
1630.0	0.0002047	203.233999968
1630.0	0.0002047	203.281000137
1630.0	0.0002046	203.312000036
1630.0	0.0002046	203.358999968
1630.0	0.0002046	203.406000137
1630.0	0.0002045	203.437000036
1630.0	0.0002046	203.483999968
1630.0	0.0002046	203.515000105
1630.0	0.0002047	203.562000036
1630.0	0.000205	203.608999968
1630.0	0.0002052	203.640000105
1630.0	0.0002052	203.687000036
1630.0	0.0002052	203.733999968
1630.0	0.0002052	203.765000105
1630.0	0.0002051	203.812000036
1630.0	0.0002052	203.842999935
1630.0	0.0002052	203.890000105
1630.0	0.0002051	203.937000036
1630.0	0.000205	203.967999935
1630.0	0.0002047	204.015000105
1630.0	0.000205	204.062000036
1630.0	0.0002047	204.092999935
1630.0	0.0002047	204.140000105
1630.0	0.000205	204.171000004
1630.0	0.0002052	204.217999935
1630.0	0.0002052	204.265000105
1630.0	0.0002052	204.296000004
1630.0	0.0002051	204.342999935
1640.0	0.0001962	204.625
1640.0	0.0001932	204.671000004
1640.0	0.0001907	204.703000069
1640.0	0.0001888	204.75
1640.0	0.0001875	204.796000004
1640.0	0.000186	204.828000069
1640.0	0.0001851	204.875
1640.0	0.0001843	204.921000004
1640.0	0.0001838	204.953000069
1640.0	0.0001835	205.0
1640.0	0.0001832	205.031000137
1640.0	0.0001828	205.078000069
1640.0	0.0001828	205.125
1640.0	0.0001827	205.156000137
1640.0	0.0001826	205.203000069
1640.0	0.0001826	205.25
1640.0	0.0001827	205.281000137
1640.0	0.0001828	205.328000069
1640.0	0.0001831	205.358999968
1640.0	0.0001831	205.406000137
1640.0	0.0001828	205.453000069
1640.0	0.0001827	205.483999968
1640.0	0.0001826	205.531000137
1640.0	0.0001825	205.578000069
1640.0	0.0001822	205.608999968
1640.0	0.0001822	205.656000137
1640.0	0.0001825	205.687000036
1640.0	0.0001826	205.733999968
1640.0	0.0001828	205.781000137
1640.0	0.0001831	205.812000036
1640.0	0.0001832	205.858999968
1640.0	0.0001833	205.906000137
1640.0	0.0001835	205.937000036
1640.0	0.0001837	205.983999968
1640.0	0.0001835	206.031000137
1640.0	0.0001837	206.062000036
1640.0	0.0001837	206.108999968
1640.0	0.0001838	206.140000105
1640.0	0.0001838	206.187000036
1640.0	0.0001838	206.233999968
1640.0	0.0001837	206.265000105
1640.0	0.0001833	206.312000036
1640.0	0.0001832	206.358999968
1640.0	0.0001831	206.390000105
1640.0	0.0001827	206.437000036
1640.0	0.0001827	206.467999935
1640.0	0.0001827	206.515000105
1640.0	0.0001826	206.562000036
1640.0	0.0001826	206.592999935
1650.0	0.000175	206.875
1650.0	0.0001722	206.921000004
1650.0	0.0001701	206.967999935
1650.0	0.0001682	207.0
1650.0	0.0001666	207.046000004
1650.0	0.0001653	207.092999935
1650.0	0.0001645	207.125
1650.0	0.0001637	207.171000004
1650.0	0.0001633	207.203000069
1650.0	0.0001631	207.25
1650.0	0.0001627	207.296000004
1650.0	0.0001622	207.328000069
1650.0	0.000162	207.375
1650.0	0.000162	207.421000004
1650.0	0.000162	207.453000069
1650.0	0.000162	207.5
1650.0	0.000162	207.546000004
1650.0	0.000162	207.578000069
1650.0	0.0001621	207.625
1650.0	0.0001622	207.656000137
1650.0	0.0001625	207.703000069
1650.0	0.0001625	207.75
1650.0	0.0001625	207.781000137
1650.0	0.0001625	207.828000069
1650.0	0.0001622	207.875
1650.0	0.0001622	207.906000137
1650.0	0.0001621	207.953000069
1650.0	0.000162	207.983999968
1650.0	0.0001621	208.031000137
1650.0	0.0001622	208.078000069
1650.0	0.0001622	208.108999968
1650.0	0.0001621	208.156000137
1650.0	0.000162	208.203000069
1650.0	0.0001616	208.233999968
1650.0	0.0001616	208.281000137
1650.0	0.0001616	208.312000036
1650.0	0.0001618	208.358999968
1650.0	0.0001622	208.406000137
1650.0	0.0001626	208.437000036
1650.0	0.0001628	208.483999968
1650.0	0.0001632	208.531000137
1650.0	0.0001632	208.562000036
1650.0	0.0001631	208.608999968
1650.0	0.0001628	208.640000105
1650.0	0.0001628	208.687000036
1650.0	0.0001628	208.733999968
1650.0	0.0001627	208.765000105
1650.0	0.0001626	208.812000036
1650.0	0.0001625	208.858999968
1660.0	0.0001557	209.140000105
1660.0	0.0001533	209.171000004
1660.0	0.0001513	209.217999935
1660.0	0.0001495	209.25
1660.0	0.0001481	209.296000004
1660.0	0.000147	209.342999935
1660.0	0.0001462	209.375
1660.0	0.0001456	209.421000004
1660.0	0.0001451	209.467999935
1660.0	0.0001447	209.5
1660.0	0.0001445	209.546000004
1660.0	0.0001445	209.578000069
1660.0	0.0001443	209.625
1660.0	0.000144	209.671000004
1660.0	0.0001441	209.703000069
1660.0	0.000144	209.75
1660.0	0.000144	209.796000004
1660.0	0.000144	209.828000069
1660.0	0.0001437	209.875
1660.0	0.0001435	209.906000137
1660.0	0.0001433	209.953000069
1660.0	0.0001433	210.0
1660.0	0.0001435	210.031000137
1660.0	0.0001437	210.078000069
1660.0	0.0001438	210.125
1660.0	0.000144	210.156000137
1660.0	0.0001443	210.203000069
1660.0	0.0001446	210.233999968
1660.0	0.0001446	210.281000137
1660.0	0.0001446	210.328000069
1660.0	0.0001447	210.358999968
1660.0	0.000145	210.406000137
1660.0	0.0001447	210.453000069
1660.0	0.0001447	210.483999968
1660.0	0.0001446	210.531000137
1660.0	0.0001446	210.562000036
1660.0	0.0001443	210.608999968
1660.0	0.0001443	210.656000137
1660.0	0.0001441	210.687000036
1660.0	0.0001441	210.733999968
1660.0	0.0001441	210.781000137
1660.0	0.0001443	210.812000036
1660.0	0.0001443	210.858999968
1660.0	0.0001443	210.906000137
1660.0	0.0001443	210.937000036
1660.0	0.0001441	210.983999968
1660.0	0.0001438	211.015000105
1660.0	0.0001437	211.062000036
1660.0	0.0001437	211.108999968
1670.0	0.0001377	211.390000105
1670.0	0.0001358	211.421000004
1670.0	0.0001343	211.467999935
1670.0	0.0001328	211.515000105
1670.0	0.0001318	211.546000004
1670.0	0.000131	211.592999935
1670.0	0.0001303	211.640000105
1670.0	0.00013	211.671000004
1670.0	0.0001293	211.717999935
1670.0	0.0001288	211.75
1670.0	0.0001285	211.796000004
1670.0	0.0001283	211.842999935
1670.0	0.0001281	211.875
1670.0	0.0001277	211.921000004
1670.0	0.0001276	211.967999935
1670.0	0.0001276	212.0
1670.0	0.0001278	212.046000004
1670.0	0.0001281	212.092999935
1670.0	0.0001282	212.125
1670.0	0.0001282	212.171000004
1670.0	0.0001282	212.203000069
1670.0	0.0001281	212.25
1670.0	0.0001282	212.296000004
1670.0	0.0001283	212.328000069
1670.0	0.0001283	212.375
1670.0	0.0001283	212.421000004
1670.0	0.0001287	212.453000069
1670.0	0.0001288	212.5
1670.0	0.0001288	212.531000137
1670.0	0.0001288	212.578000069
1670.0	0.0001287	212.625
1670.0	0.0001285	212.656000137
1670.0	0.0001283	212.703000069
1670.0	0.0001281	212.75
1670.0	0.0001278	212.781000137
1670.0	0.0001277	212.828000069
1670.0	0.0001276	212.858999968
1670.0	0.0001277	212.906000137
1670.0	0.0001277	212.953000069
1670.0	0.0001277	212.983999968
1670.0	0.0001281	213.031000137
1670.0	0.0001282	213.078000069
1670.0	0.0001282	213.125
1670.0	0.0001282	213.156000137
1670.0	0.0001282	213.203000069
1670.0	0.0001282	213.233999968
1670.0	0.0001282	213.281000137
1670.0	0.0001283	213.328000069
1670.0	0.0001281	213.358999968
1680.0	0.0001231	213.656000137
1680.0	0.0001212	213.687000036
1680.0	0.0001195	213.733999968
1680.0	0.0001183	213.781000137
1680.0	0.0001175	213.812000036
1680.0	0.0001166	213.858999968
1680.0	0.0001162	213.890000105
1680.0	0.0001156	213.937000036
1680.0	0.0001152	213.983999968
1680.0	0.000115	214.015000105
1680.0	0.0001146	214.062000036
1680.0	0.0001146	214.108999968
1680.0	0.0001145	214.140000105
1680.0	0.0001143	214.187000036
1680.0	0.000114	214.217999935
1680.0	0.000114	214.265000105
1680.0	0.000114	214.312000036
1680.0	0.0001141	214.342999935
1680.0	0.0001141	214.390000105
1680.0	0.000114	214.437000036
1680.0	0.000114	214.467999935
1680.0	0.0001143	214.515000105
1680.0	0.0001141	214.546000004
1680.0	0.000114	214.592999935
1680.0	0.0001137	214.640000105
1680.0	0.0001135	214.671000004
1680.0	0.0001133	214.717999935
1680.0	0.0001132	214.765000105
1680.0	0.0001133	214.796000004
1680.0	0.0001133	214.842999935
1680.0	0.0001133	214.875
1680.0	0.0001135	214.921000004
1680.0	0.0001133	214.967999935
1680.0	0.0001133	215.0
1680.0	0.0001133	215.046000004
1680.0	0.0001137	215.092999935
1680.0	0.0001138	215.125
1680.0	0.0001138	215.171000004
1680.0	0.000114	215.217999935
1680.0	0.0001137	215.25
1680.0	0.0001137	215.296000004
1680.0	0.0001135	215.328000069
1680.0	0.0001135	215.375
1680.0	0.0001133	215.421000004
1680.0	0.0001133	215.453000069
1680.0	0.0001133	215.5
1680.0	0.0001135	215.546000004
1680.0	0.0001137	215.578000069
1680.0	0.0001138	215.625
1690.0	0.0001091	215.906000137
1690.0	0.0001076	215.953000069
1690.0	0.0001065	215.983999968
1690.0	0.0001053	216.031000137
1690.0	0.0001043	216.062000036
1690.0	0.0001037	216.108999968
1690.0	0.0001032	216.156000137
1690.0	0.0001028	216.187000036
1690.0	0.0001025	216.233999968
1690.0	0.0001021	216.281000137
1690.0	0.000102	216.312000036
1690.0	0.0001016	216.358999968
1690.0	0.0001012	216.390000105
1690.0	0.000101	216.437000036
1690.0	0.0001008	216.483999968
1690.0	0.0001008	216.515000105
1690.0	0.000101	216.562000036
1690.0	0.0001012	216.608999968
1690.0	0.0001012	216.640000105
1690.0	0.0001013	216.687000036
1690.0	0.0001015	216.733999968
1690.0	0.0001016	216.765000105
1690.0	0.0001018	216.812000036
1690.0	0.0001016	216.842999935
1690.0	0.0001018	216.890000105
1690.0	0.000102	216.937000036
1690.0	0.0001021	216.967999935
1690.0	0.0001021	217.015000105
1690.0	0.0001021	217.062000036
1690.0	0.0001022	217.092999935
1690.0	0.0001022	217.140000105
1690.0	0.0001021	217.171000004
1690.0	0.000102	217.217999935
1690.0	0.0001018	217.265000105
1690.0	0.0001016	217.296000004
1690.0	0.0001016	217.342999935
1690.0	0.0001016	217.390000105
1690.0	0.0001015	217.421000004
1690.0	0.0001013	217.467999935
1690.0	0.0001013	217.5
1690.0	0.0001013	217.546000004
1690.0	0.0001013	217.592999935
1690.0	0.0001015	217.625
1690.0	0.0001015	217.671000004
1690.0	0.0001016	217.717999935
1690.0	0.000102	217.75
1690.0	0.0001021	217.796000004
1690.0	0.000102	217.842999935
1690.0	0.0001018	217.875
1700.0	9.72e-05	218.156000137
1700.0	9.58e-05	218.187000036
1700.0	9.47e-05	218.233999968
1700.0	9.38e-05	218.265000105
1700.0	9.28e-05	218.296000004
1700.0	9.25e-05	218.342999935
1700.0	9.2e-05	218.375
1700.0	9.16e-05	218.421000004
1700.0	9.16e-05	218.453000069
1700.0	9.15e-05	218.483999968
1700.0	9.13e-05	218.531000137
1700.0	9.12e-05	218.562000036
1700.0	9.13e-05	218.592999935
1700.0	9.15e-05	218.640000105
1700.0	9.15e-05	218.671000004
1700.0	9.15e-05	218.717999935
1700.0	9.15e-05	218.75
1700.0	9.15e-05	218.781000137
1700.0	9.16e-05	218.828000069
1700.0	9.16e-05	218.858999968
1700.0	9.15e-05	218.890000105
1700.0	9.12e-05	218.937000036
1700.0	9.1e-05	218.967999935
1700.0	9.08e-05	219.0
1700.0	9.07e-05	219.046000004
1700.0	9.07e-05	219.078000069
1700.0	9.06e-05	219.125
1700.0	9.06e-05	219.156000137
1700.0	9.07e-05	219.187000036
1700.0	9.08e-05	219.233999968
1700.0	9.1e-05	219.265000105
1700.0	9.08e-05	219.296000004
1700.0	9.08e-05	219.342999935
1700.0	9.08e-05	219.375
1700.0	9.08e-05	219.406000137
1700.0	9.12e-05	219.453000069
1700.0	9.12e-05	219.483999968
1700.0	9.12e-05	219.531000137
1700.0	9.13e-05	219.562000036
1700.0	9.12e-05	219.592999935
1700.0	9.1e-05	219.640000105
1700.0	9.1e-05	219.671000004
1700.0	9.08e-05	219.703000069
1700.0	9.07e-05	219.75
1700.0	9.06e-05	219.781000137
1700.0	9.06e-05	219.812000036
1700.0	9.06e-05	219.858999968
1700.0	9.06e-05	219.890000105
1700.0	9.07e-05	219.937000036
1700.0	9.08e-05	219.967999935
1700.0	9.1e-05	220.0
1700.0	9.1e-05	220.046000004
1700.0	9.1e-05	220.078000069
1700.0	9.08e-05	220.108999968
1700.0	9.07e-05	220.156000137
1710.0	8.7e-05	220.421000004
1710.0	8.63e-05	220.467999935
1710.0	8.56e-05	220.5
1710.0	8.5e-05	220.546000004
1710.0	8.43e-05	220.578000069
1710.0	8.38e-05	220.608999968
1710.0	8.33e-05	220.656000137
1710.0	8.28e-05	220.687000036
1710.0	8.26e-05	220.717999935
1710.0	8.25e-05	220.765000105
1710.0	8.25e-05	220.796000004
1710.0	8.25e-05	220.828000069
1710.0	8.25e-05	220.875
1710.0	8.25e-05	220.906000137
1710.0	8.21e-05	220.937000036
1710.0	8.2e-05	220.983999968
1710.0	8.18e-05	221.015000105
1710.0	8.18e-05	221.062000036
1710.0	8.16e-05	221.092999935
1710.0	8.16e-05	221.125
1710.0	8.15e-05	221.171000004
1710.0	8.15e-05	221.203000069
1710.0	8.16e-05	221.233999968
1710.0	8.15e-05	221.281000137
1710.0	8.15e-05	221.312000036
1710.0	8.13e-05	221.358999968
1710.0	8.13e-05	221.390000105
1710.0	8.15e-05	221.421000004
1710.0	8.15e-05	221.467999935
1710.0	8.15e-05	221.5
1710.0	8.15e-05	221.531000137
1710.0	8.15e-05	221.578000069
1710.0	8.15e-05	221.608999968
1710.0	8.15e-05	221.640000105
1710.0	8.15e-05	221.687000036
1710.0	8.13e-05	221.717999935
1710.0	8.13e-05	221.765000105
1710.0	8.12e-05	221.796000004
1710.0	8.13e-05	221.828000069
1710.0	8.13e-05	221.875
1710.0	8.12e-05	221.906000137
1710.0	8.12e-05	221.937000036
1710.0	8.13e-05	221.983999968
1710.0	8.16e-05	222.015000105
1710.0	8.16e-05	222.046000004
1710.0	8.15e-05	222.092999935
1710.0	8.15e-05	222.125
1710.0	8.12e-05	222.171000004
1710.0	8.1e-05	222.203000069
1710.0	8.12e-05	222.233999968
1710.0	8.12e-05	222.281000137
1710.0	8.13e-05	222.312000036
1710.0	8.15e-05	222.342999935
1710.0	8.16e-05	222.390000105
1720.0	7.81e-05	222.671000004
1720.0	7.71e-05	222.703000069
1720.0	7.63e-05	222.733999968
1720.0	7.58e-05	222.781000137
1720.0	7.52e-05	222.812000036
1720.0	7.47e-05	222.842999935
1720.0	7.43e-05	222.890000105
1720.0	7.41e-05	222.921000004
1720.0	7.38e-05	222.967999935
1720.0	7.35e-05	223.0
1720.0	7.33e-05	223.031000137
1720.0	7.32e-05	223.078000069
1720.0	7.31e-05	223.108999968
1720.0	7.28e-05	223.140000105
1720.0	7.31e-05	223.187000036
1720.0	7.28e-05	223.217999935
1720.0	7.31e-05	223.265000105
1720.0	7.31e-05	223.296000004
1720.0	7.33e-05	223.328000069
1720.0	7.37e-05	223.375
1720.0	7.38e-05	223.406000137
1720.0	7.4e-05	223.437000036
1720.0	7.38e-05	223.483999968
1720.0	7.38e-05	223.515000105
1720.0	7.38e-05	223.546000004
1720.0	7.37e-05	223.592999935
1720.0	7.35e-05	223.625
1720.0	7.33e-05	223.671000004
1720.0	7.31e-05	223.703000069
1720.0	7.28e-05	223.733999968
1720.0	7.28e-05	223.781000137
1720.0	7.28e-05	223.812000036
1720.0	7.31e-05	223.842999935
1720.0	7.31e-05	223.890000105
1720.0	7.31e-05	223.921000004
1720.0	7.31e-05	223.953000069
1720.0	7.33e-05	224.0
1720.0	7.35e-05	224.031000137
1720.0	7.33e-05	224.078000069
1720.0	7.33e-05	224.108999968
1720.0	7.32e-05	224.140000105
1720.0	7.33e-05	224.187000036
1720.0	7.33e-05	224.217999935
1720.0	7.35e-05	224.25
1720.0	7.33e-05	224.296000004
1720.0	7.33e-05	224.328000069
1720.0	7.32e-05	224.358999968
1720.0	7.32e-05	224.406000137
1720.0	7.33e-05	224.437000036
1720.0	7.33e-05	224.483999968
1720.0	7.35e-05	224.515000105
1720.0	7.33e-05	224.546000004
1720.0	7.33e-05	224.592999935
1720.0	7.32e-05	224.625
1730.0	7.08e-05	224.906000137
1730.0	7e-05	224.937000036
1730.0	6.91e-05	224.983999968
1730.0	6.83e-05	225.015000105
1730.0	6.81e-05	225.046000004
1730.0	6.76e-05	225.092999935
1730.0	6.75e-05	225.125
1730.0	6.75e-05	225.156000137
1730.0	6.75e-05	225.203000069
1730.0	6.75e-05	225.233999968
1730.0	6.75e-05	225.281000137
1730.0	6.72e-05	225.312000036
1730.0	6.72e-05	225.342999935
1730.0	6.71e-05	225.390000105
1730.0	6.71e-05	225.421000004
1730.0	6.68e-05	225.453000069
1730.0	6.66e-05	225.5
1730.0	6.65e-05	225.531000137
1730.0	6.65e-05	225.562000036
1730.0	6.63e-05	225.608999968
1730.0	6.63e-05	225.640000105
1730.0	6.62e-05	225.687000036
1730.0	6.63e-05	225.717999935
1730.0	6.65e-05	225.75
1730.0	6.65e-05	225.796000004
1730.0	6.65e-05	225.828000069
1730.0	6.65e-05	225.858999968
1730.0	6.65e-05	225.906000137
1730.0	6.63e-05	225.937000036
1730.0	6.65e-05	225.983999968
1730.0	6.65e-05	226.015000105
1730.0	6.65e-05	226.046000004
1730.0	6.68e-05	226.092999935
1730.0	6.68e-05	226.125
1730.0	6.68e-05	226.156000137
1730.0	6.68e-05	226.203000069
1730.0	6.7e-05	226.233999968
1730.0	6.7e-05	226.265000105
1730.0	6.7e-05	226.312000036
1730.0	6.71e-05	226.342999935
1730.0	6.7e-05	226.390000105
1730.0	6.7e-05	226.421000004
1730.0	6.68e-05	226.453000069
1730.0	6.66e-05	226.5
1730.0	6.66e-05	226.531000137
1730.0	6.66e-05	226.562000036
1730.0	6.66e-05	226.608999968
1730.0	6.66e-05	226.640000105
1730.0	6.66e-05	226.671000004
1730.0	6.66e-05	226.717999935
1730.0	6.66e-05	226.75
1730.0	6.66e-05	226.796000004
1730.0	6.65e-05	226.828000069
1730.0	6.63e-05	226.858999968
1740.0	6.35e-05	227.140000105
1740.0	6.31e-05	227.187000036
1740.0	6.27e-05	227.217999935
1740.0	6.26e-05	227.25
1740.0	6.22e-05	227.296000004
1740.0	6.2e-05	227.328000069
1740.0	6.16e-05	227.375
1740.0	6.15e-05	227.406000137
1740.0	6.12e-05	227.437000036
1740.0	6.12e-05	227.483999968
1740.0	6.08e-05	227.515000105
1740.0	6.08e-05	227.546000004
1740.0	6.08e-05	227.592999935
1740.0	6.07e-05	227.625
1740.0	6.06e-05	227.671000004
1740.0	6.03e-05	227.703000069
1740.0	6.02e-05	227.733999968
1740.0	6.03e-05	227.781000137
1740.0	6.02e-05	227.812000036
1740.0	6.02e-05	227.842999935
1740.0	6.02e-05	227.890000105
1740.0	6.03e-05	227.921000004
1740.0	6.03e-05	227.953000069
1740.0	6.06e-05	228.0
1740.0	6.06e-05	228.031000137
1740.0	6.06e-05	228.078000069
1740.0	6.03e-05	228.108999968
1740.0	6.03e-05	228.140000105
1740.0	6.02e-05	228.187000036
1740.0	6.01e-05	228.217999935
1740.0	6.01e-05	228.25
1740.0	6e-05	228.296000004
1740.0	5.97e-05	228.328000069
1740.0	5.97e-05	228.375
1740.0	6e-05	228.406000137
1740.0	6.01e-05	228.437000036
1740.0	6.02e-05	228.483999968
1740.0	6.02e-05	228.515000105
1740.0	6.01e-05	228.546000004
1740.0	6.01e-05	228.592999935
1740.0	6.02e-05	228.625
1740.0	6.02e-05	228.656000137
1740.0	6.02e-05	228.703000069
1740.0	6.02e-05	228.733999968
1740.0	6e-05	228.765000105
1740.0	6.01e-05	228.812000036
1740.0	6.02e-05	228.842999935
1740.0	6.02e-05	228.890000105
1740.0	6.01e-05	228.921000004
1740.0	6e-05	228.953000069
1740.0	5.97e-05	229.0
1740.0	5.97e-05	229.031000137
1740.0	5.97e-05	229.062000036
1740.0	6e-05	229.108999968
1750.0	5.78e-05	229.375
1750.0	5.71e-05	229.421000004
1750.0	5.63e-05	229.453000069
1750.0	5.57e-05	229.5
1750.0	5.52e-05	229.531000137
1750.0	5.51e-05	229.562000036
1750.0	5.51e-05	229.608999968
1750.0	5.51e-05	229.640000105
1750.0	5.5e-05	229.671000004
1750.0	5.46e-05	229.717999935
1750.0	5.45e-05	229.75
1750.0	5.43e-05	229.781000137
1750.0	5.43e-05	229.828000069
1750.0	5.45e-05	229.858999968
1750.0	5.43e-05	229.906000137
1750.0	5.43e-05	229.937000036
1750.0	5.43e-05	229.967999935
1750.0	5.43e-05	230.015000105
1750.0	5.43e-05	230.046000004
1750.0	5.43e-05	230.078000069
1750.0	5.43e-05	230.125
1750.0	5.45e-05	230.156000137
1750.0	5.45e-05	230.187000036
1750.0	5.45e-05	230.233999968
1750.0	5.47e-05	230.265000105
1750.0	5.5e-05	230.312000036
1750.0	5.51e-05	230.342999935
1750.0	5.47e-05	230.375
1750.0	5.46e-05	230.421000004
1750.0	5.46e-05	230.453000069
1750.0	5.46e-05	230.483999968
1750.0	5.46e-05	230.531000137
1750.0	5.46e-05	230.562000036
1750.0	5.46e-05	230.592999935
1750.0	5.46e-05	230.640000105
1750.0	5.46e-05	230.671000004
1750.0	5.46e-05	230.717999935
1750.0	5.47e-05	230.75
1750.0	5.47e-05	230.781000137
1750.0	5.5e-05	230.828000069
1750.0	5.5e-05	230.858999968
1750.0	5.51e-05	230.890000105
1750.0	5.51e-05	230.937000036
1750.0	5.51e-05	230.967999935
1750.0	5.5e-05	231.015000105
1750.0	5.5e-05	231.046000004
1750.0	5.47e-05	231.078000069
1750.0	5.46e-05	231.125
1750.0	5.43e-05	231.156000137
1750.0	5.4e-05	231.187000036
1750.0	5.38e-05	231.233999968
1750.0	5.38e-05	231.265000105
1750.0	5.4e-05	231.296000004
1750.0	5.41e-05	231.342999935
1760.0	5.28e-05	231.625
1760.0	5.22e-05	231.656000137
1760.0	5.16e-05	231.687000036
1760.0	5.08e-05	231.733999968
1760.0	5.03e-05	231.765000105
1760.0	5e-05	231.812000036
1760.0	4.97e-05	231.842999935
1760.0	5e-05	231.875
1760.0	4.97e-05	231.921000004
1760.0	4.97e-05	231.953000069
1760.0	5e-05	231.983999968
1760.0	5e-05	232.031000137
1760.0	5e-05	232.062000036
1760.0	4.96e-05	232.092999935
1760.0	4.93e-05	232.140000105
1760.0	4.91e-05	232.171000004
1760.0	4.88e-05	232.217999935
1760.0	4.87e-05	232.25
1760.0	4.85e-05	232.281000137
1760.0	4.87e-05	232.328000069
1760.0	4.87e-05	232.358999968
1760.0	4.9e-05	232.390000105
1760.0	4.91e-05	232.437000036
1760.0	4.91e-05	232.467999935
1760.0	4.91e-05	232.5
1760.0	4.91e-05	232.546000004
1760.0	4.91e-05	232.578000069
1760.0	4.91e-05	232.625
1760.0	4.91e-05	232.656000137
1760.0	4.9e-05	232.687000036
1760.0	4.9e-05	232.733999968
1760.0	4.9e-05	232.765000105
1760.0	4.91e-05	232.796000004
1760.0	4.93e-05	232.842999935
1760.0	4.93e-05	232.875
1760.0	4.9e-05	232.921000004
1760.0	4.9e-05	232.953000069
1760.0	4.91e-05	232.983999968
1760.0	4.91e-05	233.031000137
1760.0	4.93e-05	233.062000036
1760.0	4.95e-05	233.092999935
1760.0	4.95e-05	233.140000105
1760.0	4.95e-05	233.171000004
1760.0	4.95e-05	233.203000069
1760.0	4.95e-05	233.25
1760.0	4.95e-05	233.281000137
1760.0	4.93e-05	233.312000036
1760.0	4.93e-05	233.358999968
1760.0	4.93e-05	233.390000105
1760.0	4.91e-05	233.437000036
1760.0	4.91e-05	233.467999935
1760.0	4.91e-05	233.5
1760.0	4.91e-05	233.546000004
1760.0	4.9e-05	233.578000069
1770.0	4.72e-05	233.858999968
1770.0	4.65e-05	233.890000105
1770.0	4.6e-05	233.921000004
1770.0	4.56e-05	233.967999935
1770.0	4.52e-05	234.0
1770.0	4.47e-05	234.046000004
1770.0	4.46e-05	234.078000069
1770.0	4.45e-05	234.108999968
1770.0	4.41e-05	234.156000137
1770.0	4.38e-05	234.187000036
1770.0	4.38e-05	234.217999935
1770.0	4.35e-05	234.265000105
1770.0	4.35e-05	234.296000004
1770.0	4.35e-05	234.328000069
1770.0	4.35e-05	234.375
1770.0	4.37e-05	234.406000137
1770.0	4.4e-05	234.437000036
1770.0	4.4e-05	234.483999968
1770.0	4.41e-05	234.515000105
1770.0	4.43e-05	234.562000036
1770.0	4.41e-05	234.592999935
1770.0	4.4e-05	234.625
1770.0	4.4e-05	234.671000004
1770.0	4.4e-05	234.703000069
1770.0	4.4e-05	234.733999968
1770.0	4.4e-05	234.781000137
1770.0	4.4e-05	234.812000036
1770.0	4.41e-05	234.858999968
1770.0	4.43e-05	234.890000105
1770.0	4.43e-05	234.921000004
1770.0	4.41e-05	234.967999935
1770.0	4.43e-05	235.0
1770.0	4.43e-05	235.031000137
1770.0	4.43e-05	235.078000069
1770.0	4.43e-05	235.108999968
1770.0	4.41e-05	235.140000105
1770.0	4.41e-05	235.187000036
1770.0	4.41e-05	235.217999935
1770.0	4.43e-05	235.265000105
1770.0	4.41e-05	235.296000004
1770.0	4.41e-05	235.328000069
1770.0	4.41e-05	235.375
1770.0	4.41e-05	235.406000137
1770.0	4.41e-05	235.437000036
1770.0	4.41e-05	235.483999968
1770.0	4.41e-05	235.515000105
1770.0	4.4e-05	235.562000036
1770.0	4.41e-05	235.592999935
1770.0	4.43e-05	235.625
1770.0	4.45e-05	235.671000004
1770.0	4.45e-05	235.703000069
1770.0	4.45e-05	235.733999968
1770.0	4.43e-05	235.781000137
1770.0	4.41e-05	235.812000036
1780.0	4.18e-05	236.092999935
1780.0	4.13e-05	236.125
1780.0	4.08e-05	236.171000004
1780.0	4.03e-05	236.203000069
1780.0	4.01e-05	236.233999968
1780.0	3.97e-05	236.281000137
1780.0	3.96e-05	236.312000036
1780.0	3.96e-05	236.342999935
1780.0	3.95e-05	236.390000105
1780.0	3.95e-05	236.421000004
1780.0	3.95e-05	236.467999935
1780.0	3.95e-05	236.5
1780.0	3.93e-05	236.531000137
1780.0	3.91e-05	236.578000069
1780.0	3.9e-05	236.608999968
1780.0	3.88e-05	236.640000105
1780.0	3.88e-05	236.687000036
1780.0	3.88e-05	236.717999935
1780.0	3.88e-05	236.765000105
1780.0	3.88e-05	236.796000004
1780.0	3.91e-05	236.828000069
1780.0	3.91e-05	236.875
1780.0	3.91e-05	236.906000137
1780.0	3.9e-05	236.937000036
1780.0	3.9e-05	236.983999968
1780.0	3.88e-05	237.015000105
1780.0	3.88e-05	237.046000004
1780.0	3.88e-05	237.092999935
1780.0	3.9e-05	237.125
1780.0	3.9e-05	237.171000004
1780.0	3.9e-05	237.203000069
1780.0	3.9e-05	237.233999968
1780.0	3.91e-05	237.281000137
1780.0	3.91e-05	237.312000036
1780.0	3.9e-05	237.342999935
1780.0	3.9e-05	237.390000105
1780.0	3.88e-05	237.421000004
1780.0	3.88e-05	237.453000069
1780.0	3.88e-05	237.5
1780.0	3.9e-05	237.531000137
1780.0	3.91e-05	237.578000069
1780.0	3.93e-05	237.608999968
1780.0	3.93e-05	237.640000105
1780.0	3.93e-05	237.687000036
1780.0	3.95e-05	237.717999935
1780.0	3.93e-05	237.75
1780.0	3.91e-05	237.796000004
1780.0	3.9e-05	237.828000069
1780.0	3.91e-05	237.875
1780.0	3.93e-05	237.906000137
1780.0	3.93e-05	237.937000036
1780.0	3.93e-05	237.983999968
1780.0	3.93e-05	238.015000105
1780.0	3.93e-05	238.046000004
1790.0	3.72e-05	238.328000069
1790.0	3.66e-05	238.358999968
1790.0	3.6e-05	238.406000137
1790.0	3.56e-05	238.437000036
1790.0	3.52e-05	238.467999935
1790.0	3.5e-05	238.515000105
1790.0	3.5e-05	238.546000004
1790.0	3.5e-05	238.578000069
1790.0	3.47e-05	238.625
1790.0	3.47e-05	238.656000137
1790.0	3.46e-05	238.703000069
1790.0	3.43e-05	238.733999968
1790.0	3.41e-05	238.765000105
1790.0	3.4e-05	238.812000036
1790.0	3.41e-05	238.842999935
1790.0	3.43e-05	238.875
1790.0	3.43e-05	238.921000004
1790.0	3.45e-05	238.953000069
1790.0	3.45e-05	239.0
1790.0	3.46e-05	239.031000137
1790.0	3.47e-05	239.062000036
1790.0	3.46e-05	239.108999968
1790.0	3.46e-05	239.140000105
1790.0	3.45e-05	239.171000004
1790.0	3.41e-05	239.217999935
1790.0	3.4e-05	239.25
1790.0	3.4e-05	239.281000137
1790.0	3.4e-05	239.328000069
1790.0	3.4e-05	239.358999968
1790.0	3.38e-05	239.406000137
1790.0	3.38e-05	239.437000036
1790.0	3.38e-05	239.467999935
1790.0	3.4e-05	239.515000105
1790.0	3.38e-05	239.546000004
1790.0	3.4e-05	239.578000069
1790.0	3.38e-05	239.625
1790.0	3.38e-05	239.656000137
1790.0	3.37e-05	239.687000036
1790.0	3.38e-05	239.733999968
1790.0	3.38e-05	239.765000105
1790.0	3.37e-05	239.812000036
1790.0	3.38e-05	239.842999935
1790.0	3.4e-05	239.875
1790.0	3.43e-05	239.921000004
1790.0	3.43e-05	239.953000069
1790.0	3.45e-05	239.983999968
1790.0	3.43e-05	240.031000137
1790.0	3.43e-05	240.062000036
1790.0	3.45e-05	240.092999935
1790.0	3.46e-05	240.140000105
1790.0	3.45e-05	240.171000004
1790.0	3.45e-05	240.217999935
1790.0	3.46e-05	240.25
1790.0	3.46e-05	240.281000137
1790.0	3.46e-05	240.328000069
1800.0	3.2e-05	240.608999968
1800.0	3.13e-05	240.640000105
1800.0	3.1e-05	240.671000004
1800.0	3.06e-05	240.717999935
1800.0	3.03e-05	240.75
1800.0	3.03e-05	240.781000137
1800.0	3.01e-05	240.828000069
1800.0	3e-05	240.858999968
1800.0	3e-05	240.890000105
1800.0	3e-05	240.937000036
1800.0	2.97e-05	240.967999935
1800.0	2.96e-05	241.015000105
1800.0	2.96e-05	241.046000004
1800.0	2.95e-05	241.078000069
1800.0	2.93e-05	241.125
1800.0	2.95e-05	241.156000137
1800.0	2.96e-05	241.187000036
1800.0	2.93e-05	241.233999968
1800.0	2.91e-05	241.265000105
1800.0	2.9e-05	241.312000036
1800.0	2.91e-05	241.342999935
1800.0	2.91e-05	241.375
1800.0	2.93e-05	241.421000004
1800.0	2.93e-05	241.453000069
1800.0	2.93e-05	241.483999968
1800.0	2.93e-05	241.531000137
1800.0	2.95e-05	241.562000036
1800.0	2.95e-05	241.592999935
1800.0	2.96e-05	241.640000105
1800.0	2.96e-05	241.671000004
1800.0	2.97e-05	241.717999935
1800.0	2.97e-05	241.75
1800.0	2.96e-05	241.781000137
1800.0	2.96e-05	241.828000069
1800.0	2.96e-05	241.858999968
1800.0	2.96e-05	241.890000105
1800.0	2.97e-05	241.937000036
1800.0	2.96e-05	241.967999935
1800.0	2.96e-05	242.0
1800.0	2.96e-05	242.046000004
1800.0	2.95e-05	242.078000069
1800.0	2.96e-05	242.125
1800.0	2.96e-05	242.156000137
1800.0	2.95e-05	242.187000036
1800.0	2.93e-05	242.233999968
1800.0	2.93e-05	242.265000105
1800.0	2.93e-05	242.296000004
1800.0	2.93e-05	242.342999935
1800.0	2.93e-05	242.375
1800.0	2.93e-05	242.406000137
1800.0	2.95e-05	242.453000069
1800.0	2.96e-05	242.483999968
1800.0	2.97e-05	242.531000137
1800.0	2.96e-05	242.562000036
