Your edit line - do NOT delete this line
Wavelength [nm], Voltage [V], Elapsed time [s]
900.0	1.32e-05	14.0160000324
900.0	1.28e-05	14.0470001698
900.0	1.28e-05	14.0940001011
900.0	1.28e-05	14.125
900.0	1.27e-05	14.1560001373
900.0	1.28e-05	14.2030000687
900.0	1.27e-05	14.2350001335
900.0	1.27e-05	14.2660000324
900.0	1.26e-05	14.3129999638
900.0	1.27e-05	14.3440001011
900.0	1.28e-05	14.375
900.0	1.31e-05	14.4220001698
900.0	1.31e-05	14.4530000687
900.0	1.27e-05	14.5
900.0	1.26e-05	14.5310001373
900.0	1.27e-05	14.5629999638
900.0	1.22e-05	14.6100001335
900.0	1.22e-05	14.6410000324
900.0	1.22e-05	14.6720001698
900.0	1.22e-05	14.7190001011
900.0	1.22e-05	14.75
900.0	1.25e-05	14.7970001698
900.0	1.26e-05	14.8280000687
900.0	1.26e-05	14.8600001335
900.0	1.27e-05	14.9060001373
900.0	1.27e-05	14.9379999638
900.0	1.27e-05	14.9690001011
900.0	1.28e-05	15.0160000324
900.0	1.27e-05	15.0470001698
900.0	1.27e-05	15.0780000687
900.0	1.27e-05	15.125
900.0	1.27e-05	15.1560001373
900.0	1.26e-05	15.1879999638
900.0	1.27e-05	15.2350001335
900.0	1.28e-05	15.2660000324
900.0	1.31e-05	15.3129999638
900.0	1.32e-05	15.3440001011
900.0	1.31e-05	15.375
900.0	1.28e-05	15.4220001698
900.0	1.27e-05	15.4530000687
900.0	1.28e-05	15.4850001335
910.0	1.31e-05	15.7970001698
910.0	1.32e-05	15.8280000687
910.0	1.33e-05	15.8600001335
910.0	1.37e-05	15.9060001373
910.0	1.4e-05	15.9379999638
910.0	1.45e-05	15.9690001011
910.0	1.46e-05	16.0160000324
910.0	1.43e-05	16.0470001698
910.0	1.41e-05	16.0940001011
910.0	1.4e-05	16.125
910.0	1.38e-05	16.1560001373
910.0	1.38e-05	16.2030000687
910.0	1.41e-05	16.2350001335
910.0	1.4e-05	16.2660000324
910.0	1.38e-05	16.3129999638
910.0	1.38e-05	16.3440001011
910.0	1.38e-05	16.375
910.0	1.38e-05	16.4220001698
910.0	1.38e-05	16.4530000687
910.0	1.38e-05	16.5
910.0	1.37e-05	16.5310001373
910.0	1.4e-05	16.5780000687
910.0	1.4e-05	16.6100001335
910.0	1.4e-05	16.6410000324
910.0	1.41e-05	16.6879999638
910.0	1.41e-05	16.7190001011
910.0	1.41e-05	16.75
910.0	1.41e-05	16.7970001698
910.0	1.41e-05	16.8280000687
910.0	1.4e-05	16.875
910.0	1.38e-05	16.9060001373
910.0	1.38e-05	16.9379999638
910.0	1.38e-05	16.9850001335
910.0	1.38e-05	17.0160000324
910.0	1.38e-05	17.0470001698
910.0	1.37e-05	17.0940001011
910.0	1.38e-05	17.125
910.0	1.37e-05	17.1560001373
910.0	1.33e-05	17.2030000687
910.0	1.35e-05	17.2350001335
910.0	1.37e-05	17.2660000324
920.0	1.45e-05	17.5629999638
920.0	1.46e-05	17.6100001335
920.0	1.46e-05	17.6410000324
920.0	1.5e-05	17.6879999638
920.0	1.5e-05	17.7190001011
920.0	1.46e-05	17.75
920.0	1.45e-05	17.7970001698
920.0	1.45e-05	17.8280000687
920.0	1.46e-05	17.8600001335
920.0	1.47e-05	17.9060001373
920.0	1.5e-05	17.9379999638
920.0	1.5e-05	17.9690001011
920.0	1.51e-05	18.0160000324
920.0	1.5e-05	18.0470001698
920.0	1.5e-05	18.0940001011
920.0	1.5e-05	18.125
920.0	1.5e-05	18.1560001373
920.0	1.47e-05	18.2030000687
920.0	1.45e-05	18.2350001335
920.0	1.43e-05	18.2660000324
920.0	1.43e-05	18.3129999638
920.0	1.43e-05	18.3440001011
920.0	1.45e-05	18.375
920.0	1.47e-05	18.4220001698
920.0	1.51e-05	18.4530000687
920.0	1.51e-05	18.5
920.0	1.5e-05	18.5310001373
920.0	1.51e-05	18.5629999638
920.0	1.52e-05	18.6100001335
920.0	1.53e-05	18.6410000324
920.0	1.53e-05	18.6720001698
920.0	1.52e-05	18.7190001011
920.0	1.5e-05	18.75
920.0	1.46e-05	18.7970001698
920.0	1.47e-05	18.8280000687
920.0	1.5e-05	18.8600001335
920.0	1.5e-05	18.9060001373
920.0	1.52e-05	18.9379999638
920.0	1.51e-05	18.9690001011
920.0	1.51e-05	19.0160000324
920.0	1.51e-05	19.0470001698
930.0	1.63e-05	19.3440001011
930.0	1.63e-05	19.375
930.0	1.65e-05	19.4220001698
930.0	1.63e-05	19.4530000687
930.0	1.63e-05	19.4850001335
930.0	1.63e-05	19.5310001373
930.0	1.6e-05	19.5629999638
930.0	1.6e-05	19.6100001335
930.0	1.58e-05	19.6410000324
930.0	1.57e-05	19.6720001698
930.0	1.58e-05	19.7190001011
930.0	1.62e-05	19.75
930.0	1.62e-05	19.7810001373
930.0	1.62e-05	19.8280000687
930.0	1.6e-05	19.8600001335
930.0	1.56e-05	19.8910000324
930.0	1.53e-05	19.9379999638
930.0	1.53e-05	19.9690001011
930.0	1.53e-05	20.0160000324
930.0	1.53e-05	20.0470001698
930.0	1.57e-05	20.0780000687
930.0	1.58e-05	20.125
930.0	1.62e-05	20.1560001373
930.0	1.62e-05	20.1879999638
930.0	1.62e-05	20.2350001335
930.0	1.62e-05	20.2660000324
930.0	1.63e-05	20.3129999638
930.0	1.63e-05	20.3440001011
930.0	1.65e-05	20.375
930.0	1.65e-05	20.4220001698
930.0	1.65e-05	20.4530000687
930.0	1.65e-05	20.4850001335
930.0	1.65e-05	20.5310001373
930.0	1.62e-05	20.5629999638
930.0	1.58e-05	20.5940001011
930.0	1.58e-05	20.6410000324
930.0	1.57e-05	20.6720001698
930.0	1.58e-05	20.7190001011
930.0	1.58e-05	20.75
930.0	1.58e-05	20.7810001373
930.0	1.62e-05	20.8280000687
940.0	1.68e-05	21.1100001335
940.0	1.68e-05	21.1560001373
940.0	1.68e-05	21.1879999638
940.0	1.65e-05	21.2190001011
940.0	1.65e-05	21.2660000324
940.0	1.65e-05	21.2970001698
940.0	1.65e-05	21.3440001011
940.0	1.66e-05	21.375
940.0	1.66e-05	21.4060001373
940.0	1.68e-05	21.4530000687
940.0	1.7e-05	21.4850001335
940.0	1.71e-05	21.5310001373
940.0	1.72e-05	21.5629999638
940.0	1.72e-05	21.6100001335
940.0	1.72e-05	21.6410000324
940.0	1.72e-05	21.6720001698
940.0	1.68e-05	21.7190001011
940.0	1.63e-05	21.75
940.0	1.63e-05	21.7810001373
940.0	1.62e-05	21.8280000687
940.0	1.6e-05	21.8600001335
940.0	1.58e-05	21.8910000324
940.0	1.58e-05	21.9379999638
940.0	1.62e-05	21.9690001011
940.0	1.65e-05	22.0160000324
940.0	1.65e-05	22.0470001698
940.0	1.62e-05	22.0780000687
940.0	1.62e-05	22.125
940.0	1.65e-05	22.1560001373
940.0	1.68e-05	22.1879999638
940.0	1.71e-05	22.2350001335
940.0	1.71e-05	22.2660000324
940.0	1.71e-05	22.3129999638
940.0	1.71e-05	22.3440001011
940.0	1.7e-05	22.375
940.0	1.72e-05	22.4220001698
940.0	1.72e-05	22.4530000687
940.0	1.75e-05	22.4850001335
940.0	1.76e-05	22.5310001373
940.0	1.72e-05	22.5629999638
940.0	1.72e-05	22.5940001011
950.0	1.81e-05	22.8910000324
950.0	1.81e-05	22.9220001698
950.0	1.82e-05	22.9530000687
950.0	1.82e-05	23.0
950.0	1.83e-05	23.0310001373
950.0	1.85e-05	23.0629999638
950.0	1.87e-05	23.1100001335
950.0	1.87e-05	23.1410000324
950.0	1.85e-05	23.1879999638
950.0	1.83e-05	23.2190001011
950.0	1.81e-05	23.25
950.0	1.78e-05	23.2970001698
950.0	1.78e-05	23.3280000687
950.0	1.81e-05	23.3600001335
950.0	1.81e-05	23.4060001373
950.0	1.82e-05	23.4379999638
950.0	1.81e-05	23.4690001011
950.0	1.78e-05	23.5160000324
950.0	1.77e-05	23.5470001698
950.0	1.76e-05	23.5940001011
950.0	1.75e-05	23.625
950.0	1.75e-05	23.6560001373
950.0	1.77e-05	23.7030000687
950.0	1.77e-05	23.7350001335
950.0	1.81e-05	23.7810001373
950.0	1.81e-05	23.8129999638
950.0	1.83e-05	23.8440001011
950.0	1.87e-05	23.8910000324
950.0	1.87e-05	23.9220001698
950.0	1.85e-05	23.9690001011
950.0	1.83e-05	24.0
950.0	1.83e-05	24.0310001373
950.0	1.85e-05	24.0780000687
950.0	1.87e-05	24.1100001335
950.0	1.83e-05	24.1560001373
950.0	1.82e-05	24.1879999638
950.0	1.81e-05	24.2350001335
950.0	1.78e-05	24.2660000324
950.0	1.77e-05	24.2970001698
950.0	1.76e-05	24.3440001011
960.0	1.9e-05	24.625
960.0	1.93e-05	24.6560001373
960.0	1.95e-05	24.6879999638
960.0	1.96e-05	24.7350001335
960.0	1.97e-05	24.7660000324
960.0	1.96e-05	24.7970001698
960.0	1.93e-05	24.8440001011
960.0	1.91e-05	24.875
960.0	1.91e-05	24.9060001373
960.0	1.91e-05	24.9530000687
960.0	1.9e-05	24.9850001335
960.0	1.87e-05	25.0310001373
960.0	1.87e-05	25.0629999638
960.0	1.83e-05	25.0940001011
960.0	1.83e-05	25.1410000324
960.0	1.82e-05	25.1720001698
960.0	1.81e-05	25.2030000687
960.0	1.81e-05	25.25
960.0	1.82e-05	25.2810001373
960.0	1.81e-05	25.3129999638
960.0	1.82e-05	25.3600001335
960.0	1.83e-05	25.3910000324
960.0	1.87e-05	25.4379999638
960.0	1.88e-05	25.4690001011
960.0	1.9e-05	25.5
960.0	1.88e-05	25.5470001698
960.0	1.88e-05	25.5780000687
960.0	1.87e-05	25.6100001335
960.0	1.87e-05	25.6560001373
960.0	1.87e-05	25.6879999638
960.0	1.85e-05	25.7190001011
960.0	1.83e-05	25.7660000324
960.0	1.83e-05	25.7970001698
960.0	1.82e-05	25.8440001011
960.0	1.81e-05	25.875
960.0	1.81e-05	25.9060001373
960.0	1.83e-05	25.9530000687
960.0	1.88e-05	25.9850001335
960.0	1.9e-05	26.0160000324
960.0	1.88e-05	26.0629999638
960.0	1.85e-05	26.0940001011
970.0	1.87e-05	26.375
970.0	1.9e-05	26.4060001373
970.0	1.91e-05	26.4379999638
970.0	1.95e-05	26.4850001335
970.0	1.95e-05	26.5160000324
970.0	1.96e-05	26.5629999638
970.0	1.97e-05	26.5940001011
970.0	1.97e-05	26.625
970.0	2e-05	26.6720001698
970.0	2e-05	26.7030000687
970.0	2e-05	26.7350001335
970.0	2.02e-05	26.7810001373
970.0	2.03e-05	26.8129999638
970.0	2.03e-05	26.8600001335
970.0	2.02e-05	26.8910000324
970.0	2.01e-05	26.9220001698
970.0	2e-05	26.9690001011
970.0	1.96e-05	27.0
970.0	1.95e-05	27.0310001373
970.0	1.95e-05	27.0780000687
970.0	1.95e-05	27.1100001335
970.0	2e-05	27.1410000324
970.0	2.01e-05	27.1879999638
970.0	2.03e-05	27.2190001011
970.0	2.07e-05	27.2660000324
970.0	2.07e-05	27.2970001698
970.0	2.07e-05	27.3280000687
970.0	2.07e-05	27.375
970.0	2.06e-05	27.4060001373
970.0	2.03e-05	27.4379999638
970.0	2.03e-05	27.4850001335
970.0	2.03e-05	27.5160000324
970.0	2.02e-05	27.5470001698
970.0	2.03e-05	27.5940001011
970.0	2.03e-05	27.625
970.0	2.02e-05	27.6720001698
970.0	2.02e-05	27.7030000687
970.0	2e-05	27.7350001335
970.0	1.96e-05	27.7810001373
970.0	1.95e-05	27.8129999638
970.0	1.93e-05	27.8440001011
980.0	2.06e-05	28.125
980.0	2.08e-05	28.1560001373
980.0	2.12e-05	28.2030000687
980.0	2.13e-05	28.2350001335
980.0	2.16e-05	28.2660000324
980.0	2.18e-05	28.3129999638
980.0	2.2e-05	28.3440001011
980.0	2.21e-05	28.3910000324
980.0	2.16e-05	28.4220001698
980.0	2.13e-05	28.4530000687
980.0	2.13e-05	28.5
980.0	2.12e-05	28.5310001373
980.0	2.08e-05	28.5629999638
980.0	2.07e-05	28.6100001335
980.0	2.06e-05	28.6410000324
980.0	2.06e-05	28.6720001698
980.0	2.06e-05	28.7190001011
980.0	2.06e-05	28.75
980.0	2.07e-05	28.7970001698
980.0	2.08e-05	28.8280000687
980.0	2.1e-05	28.8600001335
980.0	2.12e-05	28.9060001373
980.0	2.15e-05	28.9379999638
980.0	2.16e-05	28.9690001011
980.0	2.16e-05	29.0160000324
980.0	2.16e-05	29.0470001698
980.0	2.16e-05	29.0940001011
980.0	2.15e-05	29.125
980.0	2.16e-05	29.1560001373
980.0	2.16e-05	29.2030000687
980.0	2.15e-05	29.2350001335
980.0	2.12e-05	29.2660000324
980.0	2.1e-05	29.3129999638
980.0	2.08e-05	29.3440001011
980.0	2.06e-05	29.3910000324
980.0	2.03e-05	29.4220001698
980.0	2.07e-05	29.4530000687
980.0	2.13e-05	29.5
980.0	2.13e-05	29.5310001373
980.0	2.1e-05	29.5780000687
980.0	2.08e-05	29.6100001335
990.0	2.16e-05	29.875
990.0	2.21e-05	29.9220001698
990.0	2.26e-05	29.9530000687
990.0	2.26e-05	29.9850001335
990.0	2.26e-05	30.0310001373
990.0	2.26e-05	30.0629999638
990.0	2.26e-05	30.0940001011
990.0	2.25e-05	30.1410000324
990.0	2.26e-05	30.1720001698
990.0	2.26e-05	30.2190001011
990.0	2.22e-05	30.25
990.0	2.21e-05	30.2810001373
990.0	2.18e-05	30.3280000687
990.0	2.2e-05	30.3600001335
990.0	2.21e-05	30.3910000324
990.0	2.2e-05	30.4379999638
990.0	2.21e-05	30.4690001011
990.0	2.21e-05	30.5
990.0	2.21e-05	30.5470001698
990.0	2.21e-05	30.5780000687
990.0	2.22e-05	30.625
990.0	2.25e-05	30.6560001373
990.0	2.25e-05	30.6879999638
990.0	2.26e-05	30.7350001335
990.0	2.27e-05	30.7660000324
990.0	2.26e-05	30.7970001698
990.0	2.25e-05	30.8440001011
990.0	2.25e-05	30.875
990.0	2.25e-05	30.9220001698
990.0	2.22e-05	30.9530000687
990.0	2.21e-05	30.9850001335
990.0	2.18e-05	31.0310001373
990.0	2.2e-05	31.0629999638
990.0	2.21e-05	31.0940001011
990.0	2.21e-05	31.1410000324
990.0	2.21e-05	31.1720001698
990.0	2.22e-05	31.2030000687
990.0	2.2e-05	31.25
990.0	2.18e-05	31.2810001373
990.0	2.18e-05	31.3129999638
990.0	2.15e-05	31.3600001335
1000.0	2.26e-05	31.625
1000.0	2.26e-05	31.6720001698
1000.0	2.27e-05	31.7030000687
1000.0	2.28e-05	31.7350001335
1000.0	2.31e-05	31.7810001373
1000.0	2.31e-05	31.8129999638
1000.0	2.35e-05	31.8600001335
1000.0	2.38e-05	31.8910000324
1000.0	2.37e-05	31.9220001698
1000.0	2.37e-05	31.9690001011
1000.0	2.37e-05	32.0
1000.0	2.37e-05	32.0470001698
1000.0	2.35e-05	32.0780000687
1000.0	2.35e-05	32.1100001335
1000.0	2.33e-05	32.1560001373
1000.0	2.32e-05	32.1879999638
1000.0	2.32e-05	32.2190001011
1000.0	2.31e-05	32.2660000324
1000.0	2.32e-05	32.2970001698
1000.0	2.33e-05	32.3280000687
1000.0	2.32e-05	32.375
1000.0	2.33e-05	32.4060001373
1000.0	2.33e-05	32.4530000687
1000.0	2.33e-05	32.4850001335
1000.0	2.33e-05	32.5160000324
1000.0	2.35e-05	32.5629999638
1000.0	2.32e-05	32.5940001011
1000.0	2.32e-05	32.625
1000.0	2.31e-05	32.6720001698
1000.0	2.28e-05	32.7030000687
1000.0	2.31e-05	32.7350001335
1000.0	2.31e-05	32.7810001373
1000.0	2.28e-05	32.8129999638
1000.0	2.28e-05	32.8600001335
1000.0	2.31e-05	32.8910000324
1000.0	2.31e-05	32.9220001698
1000.0	2.32e-05	32.9690001011
1000.0	2.31e-05	33.0
1000.0	2.27e-05	33.0310001373
1000.0	2.27e-05	33.0780000687
1000.0	2.27e-05	33.1100001335
1010.0	2.37e-05	33.375
1010.0	2.4e-05	33.4220001698
1010.0	2.41e-05	33.4530000687
1010.0	2.4e-05	33.5
1010.0	2.38e-05	33.5310001373
1010.0	2.38e-05	33.5629999638
1010.0	2.35e-05	33.6100001335
1010.0	2.33e-05	33.6410000324
1010.0	2.33e-05	33.6720001698
1010.0	2.32e-05	33.7190001011
1010.0	2.31e-05	33.75
1010.0	2.28e-05	33.7970001698
1010.0	2.27e-05	33.8280000687
1010.0	2.26e-05	33.8600001335
1010.0	2.25e-05	33.9060001373
1010.0	2.22e-05	33.9379999638
1010.0	2.22e-05	33.9690001011
1010.0	2.22e-05	34.0160000324
1010.0	2.21e-05	34.0470001698
1010.0	2.22e-05	34.0780000687
1010.0	2.26e-05	34.125
1010.0	2.27e-05	34.1560001373
1010.0	2.28e-05	34.1879999638
1010.0	2.33e-05	34.2350001335
1010.0	2.35e-05	34.2660000324
1010.0	2.37e-05	34.3129999638
1010.0	2.38e-05	34.3440001011
1010.0	2.38e-05	34.375
1010.0	2.38e-05	34.4220001698
1010.0	2.37e-05	34.4530000687
1010.0	2.38e-05	34.4850001335
1010.0	2.41e-05	34.5310001373
1010.0	2.41e-05	34.5629999638
1010.0	2.38e-05	34.6100001335
1010.0	2.35e-05	34.6410000324
1010.0	2.32e-05	34.6720001698
1010.0	2.32e-05	34.7190001011
1010.0	2.32e-05	34.75
1010.0	2.32e-05	34.7810001373
1010.0	2.32e-05	34.8280000687
1010.0	2.33e-05	34.8600001335
1020.0	2.38e-05	35.125
1020.0	2.4e-05	35.1720001698
1020.0	2.38e-05	35.2030000687
1020.0	2.38e-05	35.25
1020.0	2.41e-05	35.2810001373
1020.0	2.43e-05	35.3129999638
1020.0	2.43e-05	35.3600001335
1020.0	2.41e-05	35.3910000324
1020.0	2.4e-05	35.4220001698
1020.0	2.38e-05	35.4690001011
1020.0	2.35e-05	35.5
1020.0	2.35e-05	35.5310001373
1020.0	2.37e-05	35.5780000687
1020.0	2.37e-05	35.6100001335
1020.0	2.38e-05	35.6560001373
1020.0	2.38e-05	35.6879999638
1020.0	2.38e-05	35.7190001011
1020.0	2.37e-05	35.7660000324
1020.0	2.38e-05	35.7970001698
1020.0	2.37e-05	35.8280000687
1020.0	2.38e-05	35.875
1020.0	2.38e-05	35.9060001373
1020.0	2.4e-05	35.9530000687
1020.0	2.41e-05	35.9850001335
1020.0	2.43e-05	36.0160000324
1020.0	2.46e-05	36.0629999638
1020.0	2.45e-05	36.0940001011
1020.0	2.45e-05	36.1410000324
1020.0	2.4e-05	36.1720001698
1020.0	2.37e-05	36.2030000687
1020.0	2.35e-05	36.25
1020.0	2.37e-05	36.2810001373
1020.0	2.37e-05	36.3280000687
1020.0	2.4e-05	36.3600001335
1020.0	2.4e-05	36.3910000324
1020.0	2.4e-05	36.4379999638
1020.0	2.4e-05	36.4690001011
1020.0	2.37e-05	36.5160000324
1020.0	2.37e-05	36.5470001698
1020.0	2.37e-05	36.5780000687
1020.0	2.37e-05	36.625
1030.0	2.35e-05	36.8910000324
1030.0	2.38e-05	36.9379999638
1030.0	2.4e-05	36.9690001011
1030.0	2.45e-05	37.0
1030.0	2.5e-05	37.0470001698
1030.0	2.52e-05	37.0780000687
1030.0	2.52e-05	37.1100001335
1030.0	2.53e-05	37.1560001373
1030.0	2.53e-05	37.1879999638
1030.0	2.51e-05	37.2190001011
1030.0	2.51e-05	37.2660000324
1030.0	2.53e-05	37.2970001698
1030.0	2.56e-05	37.3440001011
1030.0	2.57e-05	37.375
1030.0	2.57e-05	37.4060001373
1030.0	2.57e-05	37.4530000687
1030.0	2.57e-05	37.4850001335
1030.0	2.57e-05	37.5160000324
1030.0	2.56e-05	37.5629999638
1030.0	2.58e-05	37.5940001011
1030.0	2.58e-05	37.6410000324
1030.0	2.58e-05	37.6720001698
1030.0	2.6e-05	37.7190001011
1030.0	2.6e-05	37.75
1030.0	2.58e-05	37.7810001373
1030.0	2.58e-05	37.8280000687
1030.0	2.58e-05	37.8600001335
1030.0	2.58e-05	37.9060001373
1030.0	2.6e-05	37.9379999638
1030.0	2.58e-05	37.9690001011
1030.0	2.57e-05	38.0160000324
1030.0	2.56e-05	38.0470001698
1030.0	2.53e-05	38.0780000687
1030.0	2.52e-05	38.125
1030.0	2.53e-05	38.1560001373
1030.0	2.53e-05	38.2030000687
1030.0	2.56e-05	38.2350001335
1030.0	2.57e-05	38.2810001373
1030.0	2.56e-05	38.3129999638
1030.0	2.56e-05	38.3440001011
1030.0	2.56e-05	38.3910000324
1040.0	2.65e-05	38.6560001373
1040.0	2.65e-05	38.7030000687
1040.0	2.65e-05	38.7350001335
1040.0	2.63e-05	38.7660000324
1040.0	2.63e-05	38.8129999638
1040.0	2.63e-05	38.8440001011
1040.0	2.65e-05	38.875
1040.0	2.65e-05	38.9220001698
1040.0	2.7e-05	38.9530000687
1040.0	2.71e-05	39.0
1040.0	2.75e-05	39.0310001373
1040.0	2.76e-05	39.0780000687
1040.0	2.77e-05	39.1100001335
1040.0	2.77e-05	39.1410000324
1040.0	2.78e-05	39.1879999638
1040.0	2.78e-05	39.2190001011
1040.0	2.81e-05	39.25
1040.0	2.82e-05	39.2970001698
1040.0	2.83e-05	39.3280000687
1040.0	2.83e-05	39.375
1040.0	2.85e-05	39.4060001373
1040.0	2.87e-05	39.4379999638
1040.0	2.85e-05	39.4850001335
1040.0	2.83e-05	39.5160000324
1040.0	2.81e-05	39.5629999638
1040.0	2.77e-05	39.5940001011
1040.0	2.76e-05	39.625
1040.0	2.75e-05	39.6720001698
1040.0	2.71e-05	39.7030000687
1040.0	2.72e-05	39.7350001335
1040.0	2.72e-05	39.7810001373
1040.0	2.72e-05	39.8129999638
1040.0	2.72e-05	39.8440001011
1040.0	2.75e-05	39.8910000324
1040.0	2.77e-05	39.9220001698
1040.0	2.82e-05	39.9690001011
1040.0	2.85e-05	40.0
1040.0	2.85e-05	40.0470001698
1040.0	2.87e-05	40.0780000687
1040.0	2.87e-05	40.1100001335
1040.0	2.88e-05	40.1560001373
1050.0	2.96e-05	40.4220001698
1050.0	2.96e-05	40.4690001011
1050.0	2.97e-05	40.5
1050.0	2.96e-05	40.5310001373
1050.0	2.96e-05	40.5780000687
1050.0	2.97e-05	40.6100001335
1050.0	3.01e-05	40.6410000324
1050.0	3e-05	40.6879999638
1050.0	2.97e-05	40.7190001011
1050.0	2.96e-05	40.7660000324
1050.0	2.96e-05	40.7970001698
1050.0	2.95e-05	40.8280000687
1050.0	2.95e-05	40.875
1050.0	2.97e-05	40.9060001373
1050.0	3e-05	40.9379999638
1050.0	3e-05	40.9850001335
1050.0	2.97e-05	41.0160000324
1050.0	2.96e-05	41.0470001698
1050.0	2.95e-05	41.0940001011
1050.0	2.93e-05	41.125
1050.0	2.93e-05	41.1720001698
1050.0	2.95e-05	41.2030000687
1050.0	2.95e-05	41.2350001335
1050.0	2.97e-05	41.2810001373
1050.0	3.01e-05	41.3129999638
1050.0	3.02e-05	41.3440001011
1050.0	3.03e-05	41.3910000324
1050.0	3.06e-05	41.4220001698
1050.0	3.06e-05	41.4690001011
1050.0	3.03e-05	41.5
1050.0	3.02e-05	41.5310001373
1050.0	3e-05	41.5780000687
1050.0	2.96e-05	41.6100001335
1050.0	2.95e-05	41.6560001373
1050.0	2.95e-05	41.6879999638
1050.0	2.93e-05	41.7190001011
1050.0	2.95e-05	41.7660000324
1050.0	2.95e-05	41.7970001698
1050.0	2.93e-05	41.8280000687
1050.0	2.93e-05	41.875
1050.0	2.95e-05	41.9060001373
1060.0	3.03e-05	42.1879999638
1060.0	3.07e-05	42.2190001011
1060.0	3.1e-05	42.25
1060.0	3.15e-05	42.2970001698
1060.0	3.18e-05	42.3280000687
1060.0	3.2e-05	42.3600001335
1060.0	3.21e-05	42.4060001373
1060.0	3.2e-05	42.4379999638
1060.0	3.22e-05	42.4690001011
1060.0	3.22e-05	42.5160000324
1060.0	3.22e-05	42.5470001698
1060.0	3.25e-05	42.5940001011
1060.0	3.22e-05	42.625
1060.0	3.21e-05	42.6720001698
1060.0	3.22e-05	42.7030000687
1060.0	3.25e-05	42.7350001335
1060.0	3.26e-05	42.7810001373
1060.0	3.27e-05	42.8129999638
1060.0	3.31e-05	42.8440001011
1060.0	3.31e-05	42.8910000324
1060.0	3.31e-05	42.9220001698
1060.0	3.27e-05	42.9530000687
1060.0	3.31e-05	43.0
1060.0	3.31e-05	43.0310001373
1060.0	3.28e-05	43.0780000687
1060.0	3.28e-05	43.1100001335
1060.0	3.28e-05	43.1410000324
1060.0	3.28e-05	43.1879999638
1060.0	3.28e-05	43.2190001011
1060.0	3.32e-05	43.25
1060.0	3.33e-05	43.2970001698
1060.0	3.33e-05	43.3280000687
1060.0	3.32e-05	43.3600001335
1060.0	3.32e-05	43.4060001373
1060.0	3.35e-05	43.4379999638
1060.0	3.33e-05	43.4850001335
1060.0	3.32e-05	43.5160000324
1060.0	3.31e-05	43.5470001698
1060.0	3.31e-05	43.5940001011
1060.0	3.28e-05	43.625
1060.0	3.26e-05	43.6560001373
1070.0	3.32e-05	43.9379999638
1070.0	3.38e-05	43.9690001011
1070.0	3.45e-05	44.0
1070.0	3.5e-05	44.0470001698
1070.0	3.52e-05	44.0780000687
1070.0	3.53e-05	44.125
1070.0	3.53e-05	44.1560001373
1070.0	3.56e-05	44.1879999638
1070.0	3.57e-05	44.2350001335
1070.0	3.57e-05	44.2660000324
1070.0	3.57e-05	44.2970001698
1070.0	3.58e-05	44.3440001011
1070.0	3.6e-05	44.375
1070.0	3.62e-05	44.4220001698
1070.0	3.62e-05	44.4530000687
1070.0	3.63e-05	44.4850001335
1070.0	3.66e-05	44.5310001373
1070.0	3.68e-05	44.5629999638
1070.0	3.66e-05	44.5940001011
1070.0	3.65e-05	44.6410000324
1070.0	3.62e-05	44.6720001698
1070.0	3.62e-05	44.7030000687
1070.0	3.62e-05	44.75
1070.0	3.65e-05	44.7810001373
1070.0	3.65e-05	44.8129999638
1070.0	3.66e-05	44.8600001335
1070.0	3.68e-05	44.8910000324
1070.0	3.7e-05	44.9379999638
1070.0	3.71e-05	44.9690001011
1070.0	3.75e-05	45.0
1070.0	3.72e-05	45.0470001698
1070.0	3.7e-05	45.0780000687
1070.0	3.68e-05	45.1100001335
1070.0	3.65e-05	45.1560001373
1070.0	3.63e-05	45.1879999638
1070.0	3.63e-05	45.2350001335
1070.0	3.62e-05	45.2660000324
1070.0	3.58e-05	45.2970001698
1070.0	3.58e-05	45.3440001011
1070.0	3.6e-05	45.375
1070.0	3.6e-05	45.4060001373
1080.0	3.78e-05	45.6879999638
1080.0	3.87e-05	45.7190001011
1080.0	3.9e-05	45.75
1080.0	3.93e-05	45.7970001698
1080.0	4.08e-05	46.0470001698
1080.0	4.07e-05	46.0780000687
1080.0	4.03e-05	46.1100001335
1080.0	4.03e-05	46.1560001373
1080.0	4.06e-05	46.1879999638
1080.0	4.07e-05	46.2350001335
1080.0	4.08e-05	46.2660000324
1080.0	4.1e-05	46.3129999638
1080.0	4.08e-05	46.3440001011
1080.0	4.07e-05	46.375
1080.0	4.06e-05	46.4220001698
1080.0	4.06e-05	46.4530000687
1080.0	4.03e-05	46.5
1080.0	4.01e-05	46.5310001373
1080.0	4e-05	46.5629999638
1080.0	4.01e-05	46.6100001335
1080.0	4.02e-05	46.6410000324
1080.0	4.03e-05	46.6720001698
1080.0	4.08e-05	46.7190001011
1080.0	4.12e-05	46.75
1080.0	4.12e-05	46.7810001373
1080.0	4.15e-05	46.8280000687
1080.0	4.15e-05	46.8600001335
1080.0	4.15e-05	46.9060001373
1080.0	4.12e-05	46.9379999638
1080.0	4.12e-05	46.9690001011
1080.0	4.13e-05	47.0160000324
1080.0	4.15e-05	47.0470001698
1080.0	4.15e-05	47.0780000687
1080.0	4.13e-05	47.125
1080.0	4.1e-05	47.1560001373
1090.0	4.18e-05	47.4220001698
1090.0	4.26e-05	47.4690001011
1090.0	4.31e-05	47.5
1090.0	4.37e-05	47.5310001373
1090.0	4.43e-05	47.5780000687
1090.0	4.5e-05	47.6100001335
1090.0	4.53e-05	47.6560001373
1090.0	4.6e-05	47.6879999638
1090.0	4.65e-05	47.7190001011
1090.0	4.68e-05	47.7660000324
1090.0	4.7e-05	47.7970001698
1090.0	4.71e-05	47.8280000687
1090.0	4.7e-05	47.875
1090.0	4.68e-05	47.9060001373
1090.0	4.66e-05	47.9530000687
1090.0	4.65e-05	47.9850001335
1090.0	4.63e-05	48.0310001373
1090.0	4.63e-05	48.0629999638
1090.0	4.63e-05	48.0940001011
1090.0	4.65e-05	48.1410000324
1090.0	4.65e-05	48.1720001698
1090.0	4.65e-05	48.2030000687
1090.0	4.65e-05	48.25
1090.0	4.63e-05	48.2810001373
1090.0	4.6e-05	48.3129999638
1090.0	4.6e-05	48.3600001335
1090.0	4.6e-05	48.3910000324
1090.0	4.62e-05	48.4379999638
1090.0	4.62e-05	48.4690001011
1090.0	4.62e-05	48.5
1090.0	4.6e-05	48.5470001698
1090.0	4.6e-05	48.5780000687
1090.0	4.62e-05	48.6100001335
1090.0	4.62e-05	48.6560001373
1090.0	4.62e-05	48.6879999638
1090.0	4.63e-05	48.7190001011
1090.0	4.62e-05	48.7660000324
1090.0	4.62e-05	48.7970001698
1090.0	4.62e-05	48.8440001011
1090.0	4.58e-05	48.875
1090.0	4.58e-05	48.9060001373
1100.0	4.82e-05	49.1720001698
1100.0	4.88e-05	49.2190001011
1100.0	4.95e-05	49.25
1100.0	5e-05	49.2810001373
1100.0	5.06e-05	49.3280000687
1100.0	5.08e-05	49.3600001335
1100.0	5.13e-05	49.3910000324
1100.0	5.15e-05	49.4379999638
1100.0	5.18e-05	49.4690001011
1100.0	5.18e-05	49.5
1100.0	5.16e-05	49.5470001698
1100.0	5.18e-05	49.5780000687
1100.0	5.18e-05	49.625
1100.0	5.16e-05	49.6560001373
1100.0	5.18e-05	49.6879999638
1100.0	5.18e-05	49.7350001335
1100.0	5.18e-05	49.7660000324
1100.0	5.16e-05	49.7970001698
1100.0	5.15e-05	49.8440001011
1100.0	5.15e-05	49.875
1100.0	5.15e-05	49.9220001698
1100.0	5.16e-05	49.9530000687
1100.0	5.16e-05	49.9850001335
1100.0	5.15e-05	50.0310001373
1100.0	5.15e-05	50.0629999638
1100.0	5.13e-05	50.0940001011
1100.0	5.13e-05	50.1410000324
1100.0	5.15e-05	50.1720001698
1100.0	5.16e-05	50.2030000687
1100.0	5.16e-05	50.25
1100.0	5.13e-05	50.2810001373
1100.0	5.12e-05	50.3129999638
1100.0	5.1e-05	50.3600001335
1100.0	5.1e-05	50.3910000324
1100.0	5.12e-05	50.4379999638
1100.0	5.13e-05	50.4690001011
1100.0	5.15e-05	50.5
1100.0	5.16e-05	50.5470001698
1100.0	5.18e-05	50.5780000687
1100.0	5.21e-05	50.6100001335
1100.0	5.22e-05	50.6560001373
1110.0	5.32e-05	50.9220001698
1110.0	5.4e-05	50.9530000687
1110.0	5.5e-05	50.9850001335
1110.0	5.56e-05	51.0310001373
1110.0	5.6e-05	51.0629999638
1110.0	5.65e-05	51.0940001011
1110.0	5.66e-05	51.1410000324
1110.0	5.66e-05	51.1720001698
1110.0	5.66e-05	51.2190001011
1110.0	5.65e-05	51.25
1110.0	5.65e-05	51.2810001373
1110.0	5.68e-05	51.3280000687
1110.0	5.71e-05	51.3600001335
1110.0	5.72e-05	51.3910000324
1110.0	5.71e-05	51.4379999638
1110.0	5.72e-05	51.4690001011
1110.0	5.71e-05	51.5160000324
1110.0	5.71e-05	51.5470001698
1110.0	5.71e-05	51.5780000687
1110.0	5.7e-05	51.625
1110.0	5.7e-05	51.6560001373
1110.0	5.66e-05	51.6879999638
1110.0	5.65e-05	51.7350001335
1110.0	5.65e-05	51.7660000324
1110.0	5.63e-05	51.7970001698
1110.0	5.63e-05	51.8440001011
1110.0	5.65e-05	51.875
1110.0	5.65e-05	51.9220001698
1110.0	5.63e-05	51.9530000687
1110.0	5.66e-05	51.9850001335
1110.0	5.65e-05	52.0310001373
1110.0	5.65e-05	52.0629999638
1110.0	5.65e-05	52.0940001011
1110.0	5.65e-05	52.1410000324
1110.0	5.66e-05	52.1720001698
1110.0	5.66e-05	52.2030000687
1110.0	5.68e-05	52.25
1110.0	5.66e-05	52.2810001373
1110.0	5.65e-05	52.3280000687
1110.0	5.65e-05	52.3600001335
1110.0	5.68e-05	52.3910000324
1120.0	5.88e-05	52.6560001373
1120.0	6.01e-05	52.6879999638
1120.0	6.08e-05	52.7350001335
1120.0	6.15e-05	52.7660000324
1120.0	6.18e-05	52.7970001698
1120.0	6.2e-05	52.8440001011
1120.0	6.22e-05	52.875
1120.0	6.27e-05	52.9220001698
1120.0	6.31e-05	52.9530000687
1120.0	6.33e-05	52.9850001335
1120.0	6.33e-05	53.0310001373
1120.0	6.32e-05	53.0629999638
1120.0	6.32e-05	53.0940001011
1120.0	6.32e-05	53.1410000324
1120.0	6.32e-05	53.1720001698
1120.0	6.35e-05	53.2190001011
1120.0	6.37e-05	53.25
1120.0	6.35e-05	53.2970001698
1120.0	6.33e-05	53.3280000687
1120.0	6.32e-05	53.3600001335
1120.0	6.32e-05	53.4060001373
1120.0	6.31e-05	53.4379999638
1120.0	6.32e-05	53.4850001335
1120.0	6.31e-05	53.5160000324
1120.0	6.31e-05	53.5470001698
1120.0	6.27e-05	53.5940001011
1120.0	6.26e-05	53.625
1120.0	6.27e-05	53.6720001698
1120.0	6.31e-05	53.7030000687
1120.0	6.32e-05	53.7350001335
1120.0	6.33e-05	53.7810001373
1120.0	6.33e-05	53.8129999638
1120.0	6.33e-05	53.8440001011
1120.0	6.33e-05	53.8910000324
1120.0	6.35e-05	53.9220001698
1120.0	6.35e-05	53.9530000687
1120.0	6.37e-05	54.0
1120.0	6.35e-05	54.0310001373
1120.0	6.32e-05	54.0629999638
1120.0	6.31e-05	54.1100001335
1130.0	6.58e-05	54.3600001335
1130.0	6.68e-05	54.4060001373
1130.0	6.76e-05	54.4379999638
1130.0	6.87e-05	54.4850001335
1130.0	6.9e-05	54.5160000324
1130.0	6.96e-05	54.5470001698
1130.0	7e-05	54.5940001011
1130.0	7.03e-05	54.625
1130.0	7.08e-05	54.6560001373
1130.0	7.08e-05	54.7030000687
1130.0	7.1e-05	54.7350001335
1130.0	7.12e-05	54.7660000324
1130.0	7.13e-05	54.8129999638
1130.0	7.13e-05	54.8440001011
1130.0	7.15e-05	54.8910000324
1130.0	7.13e-05	54.9220001698
1130.0	7.13e-05	54.9530000687
1130.0	7.15e-05	55.0
1130.0	7.2e-05	55.0310001373
1130.0	7.21e-05	55.0629999638
1130.0	7.21e-05	55.1100001335
1130.0	7.21e-05	55.1410000324
1130.0	7.2e-05	55.1720001698
1130.0	7.2e-05	55.2190001011
1130.0	7.2e-05	55.25
1130.0	7.16e-05	55.2970001698
1130.0	7.16e-05	55.3280000687
1130.0	7.18e-05	55.3600001335
1130.0	7.18e-05	55.4060001373
1130.0	7.16e-05	55.4379999638
1130.0	7.16e-05	55.4690001011
1130.0	7.18e-05	55.5160000324
1130.0	7.22e-05	55.5470001698
1130.0	7.27e-05	55.5780000687
1130.0	7.28e-05	55.625
1130.0	7.27e-05	55.6560001373
1130.0	7.26e-05	55.7030000687
1130.0	7.25e-05	55.7350001335
1130.0	7.26e-05	55.7810001373
1130.0	7.27e-05	55.8129999638
1130.0	7.25e-05	55.8440001011
1140.0	7.68e-05	56.1100001335
1140.0	7.83e-05	56.1410000324
1140.0	7.96e-05	56.1879999638
1140.0	8.06e-05	56.2190001011
1140.0	8.1e-05	56.25
1140.0	8.16e-05	56.2970001698
1140.0	8.22e-05	56.3280000687
1140.0	8.27e-05	56.3600001335
1140.0	8.33e-05	56.4060001373
1140.0	8.35e-05	56.4379999638
1140.0	8.37e-05	56.4850001335
1140.0	8.37e-05	56.5160000324
1140.0	8.38e-05	56.5470001698
1140.0	8.4e-05	56.5940001011
1140.0	8.41e-05	56.625
1140.0	8.43e-05	56.6560001373
1140.0	8.41e-05	56.7030000687
1140.0	8.4e-05	56.7350001335
1140.0	8.37e-05	56.7660000324
1140.0	8.37e-05	56.8129999638
1140.0	8.37e-05	56.8440001011
1140.0	8.33e-05	56.8910000324
1140.0	8.37e-05	56.9220001698
1140.0	8.4e-05	56.9530000687
1140.0	8.41e-05	57.0
1140.0	8.43e-05	57.0310001373
1140.0	8.45e-05	57.0780000687
1140.0	8.47e-05	57.1100001335
1140.0	8.46e-05	57.1410000324
1140.0	8.5e-05	57.1879999638
1140.0	8.51e-05	57.2190001011
1140.0	8.52e-05	57.25
1140.0	8.52e-05	57.2970001698
1140.0	8.51e-05	57.3280000687
1140.0	8.47e-05	57.375
1140.0	8.46e-05	57.4060001373
1140.0	8.45e-05	57.4379999638
1140.0	8.43e-05	57.4850001335
1140.0	8.41e-05	57.5160000324
1140.0	8.38e-05	57.5470001698
1140.0	8.38e-05	57.5940001011
1150.0	8.91e-05	57.8440001011
1150.0	9.12e-05	57.8910000324
1150.0	9.31e-05	57.9220001698
1150.0	9.46e-05	57.9690001011
1150.0	9.58e-05	58.0
1150.0	9.68e-05	58.0310001373
1150.0	9.75e-05	58.0780000687
1150.0	9.83e-05	58.1100001335
1150.0	9.9e-05	58.1410000324
1150.0	9.93e-05	58.1879999638
1150.0	9.93e-05	58.2190001011
1150.0	9.95e-05	58.2660000324
1150.0	9.96e-05	58.2970001698
1150.0	9.96e-05	58.3280000687
1150.0	9.96e-05	58.375
1150.0	9.96e-05	58.4060001373
1150.0	9.96e-05	58.4379999638
1150.0	9.97e-05	58.4850001335
1150.0	9.96e-05	58.5160000324
1150.0	9.95e-05	58.5629999638
1150.0	9.93e-05	58.5940001011
1150.0	9.93e-05	58.6410000324
1150.0	9.91e-05	58.6720001698
1150.0	9.93e-05	58.7030000687
1150.0	9.95e-05	58.75
1150.0	9.95e-05	58.7810001373
1150.0	9.95e-05	58.8129999638
1150.0	9.95e-05	58.8600001335
1150.0	9.93e-05	58.8910000324
1150.0	9.91e-05	58.9220001698
1150.0	9.9e-05	58.9690001011
1150.0	9.88e-05	59.0
1150.0	9.88e-05	59.0470001698
1150.0	9.9e-05	59.0780000687
1150.0	9.9e-05	59.1100001335
1150.0	9.91e-05	59.1560001373
1150.0	9.91e-05	59.1879999638
1150.0	9.93e-05	59.2350001335
1150.0	9.95e-05	59.2660000324
1150.0	9.97e-05	59.2970001698
1150.0	0.0001	59.3440001011
1160.0	0.0001065	59.6100001335
1160.0	0.0001091	59.6560001373
1160.0	0.0001113	59.6879999638
1160.0	0.0001131	59.7350001335
1160.0	0.0001146	59.7810001373
1160.0	0.0001156	59.8129999638
1160.0	0.0001162	59.8600001335
1160.0	0.0001168	59.8910000324
1160.0	0.0001172	59.9379999638
1160.0	0.0001177	59.9850001335
1160.0	0.0001178	60.0160000324
1160.0	0.0001181	60.0629999638
1160.0	0.0001178	60.1100001335
1160.0	0.0001176	60.1410000324
1160.0	0.0001177	60.1879999638
1160.0	0.0001181	60.2350001335
1160.0	0.0001181	60.2660000324
1160.0	0.0001183	60.3129999638
1160.0	0.0001185	60.3440001011
1160.0	0.0001183	60.3910000324
1160.0	0.0001181	60.4379999638
1160.0	0.0001177	60.4690001011
1160.0	0.0001177	60.5160000324
1160.0	0.0001176	60.5629999638
1160.0	0.0001176	60.5940001011
1160.0	0.0001177	60.6410000324
1160.0	0.0001177	60.6720001698
1160.0	0.0001177	60.7190001011
1160.0	0.0001178	60.7660000324
1160.0	0.0001178	60.7970001698
1160.0	0.0001177	60.8440001011
1160.0	0.0001177	60.8910000324
1160.0	0.0001175	60.9220001698
1160.0	0.0001172	60.9690001011
1160.0	0.0001172	61.0
1160.0	0.0001171	61.0470001698
1160.0	0.0001172	61.0940001011
1170.0	0.0001258	61.3600001335
1170.0	0.000129	61.4060001373
1170.0	0.0001316	61.4379999638
1170.0	0.0001337	61.4850001335
1170.0	0.0001351	61.5310001373
1170.0	0.0001362	61.5629999638
1170.0	0.000137	61.6100001335
1170.0	0.0001376	61.6410000324
1170.0	0.0001381	61.6879999638
1170.0	0.0001385	61.7350001335
1170.0	0.0001388	61.7660000324
1170.0	0.0001387	61.8129999638
1170.0	0.0001387	61.8600001335
1170.0	0.0001388	61.8910000324
1170.0	0.0001388	61.9379999638
1170.0	0.000139	61.9850001335
1170.0	0.0001391	62.0160000324
1170.0	0.0001393	62.0629999638
1170.0	0.0001395	62.0940001011
1170.0	0.0001396	62.1410000324
1170.0	0.0001397	62.1879999638
1170.0	0.00014	62.2190001011
1170.0	0.0001397	62.2660000324
1170.0	0.0001395	62.3129999638
1170.0	0.0001395	62.3440001011
1170.0	0.0001396	62.3910000324
1170.0	0.0001396	62.4220001698
1170.0	0.00014	62.4690001011
1170.0	0.00014	62.5160000324
1170.0	0.00014	62.5470001698
1170.0	0.0001401	62.5940001011
1170.0	0.0001401	62.6410000324
1170.0	0.0001401	62.6720001698
1170.0	0.0001402	62.7190001011
1170.0	0.0001402	62.75
1170.0	0.0001402	62.7970001698
1170.0	0.0001402	62.8440001011
1180.0	0.0001493	63.1100001335
1180.0	0.0001525	63.1560001373
1180.0	0.000155	63.1879999638
1180.0	0.0001568	63.2350001335
1180.0	0.0001583	63.2810001373
1180.0	0.0001597	63.3129999638
1180.0	0.0001607	63.3600001335
1180.0	0.0001613	63.4060001373
1180.0	0.0001618	63.4379999638
1180.0	0.000162	63.4850001335
1180.0	0.0001622	63.5310001373
1180.0	0.0001622	63.5629999638
1180.0	0.0001626	63.6100001335
1180.0	0.0001627	63.6410000324
1180.0	0.0001628	63.6879999638
1180.0	0.0001631	63.7350001335
1180.0	0.0001632	63.7660000324
1180.0	0.0001633	63.8129999638
1180.0	0.0001631	63.8600001335
1180.0	0.0001628	63.8910000324
1180.0	0.0001626	63.9379999638
1180.0	0.0001622	63.9850001335
1180.0	0.0001622	64.0160000324
1180.0	0.0001625	64.0629999638
1180.0	0.0001627	64.0940001011
1180.0	0.0001628	64.1410000324
1180.0	0.0001631	64.1879999638
1180.0	0.0001628	64.2350001335
1180.0	0.0001631	64.2660000324
1180.0	0.0001628	64.3129999638
1180.0	0.0001625	64.3440001011
1180.0	0.0001625	64.3910000324
1180.0	0.0001627	64.4379999638
1180.0	0.0001627	64.4690001011
1180.0	0.0001631	64.5160000324
1180.0	0.0001633	64.5629999638
1190.0	0.0001721	64.8280000687
1190.0	0.0001752	64.875
1190.0	0.0001781	64.9060001373
1190.0	0.0001802	64.9530000687
1190.0	0.000182	64.9850001335
1190.0	0.0001833	65.0310001373
1190.0	0.0001843	65.0780000687
1190.0	0.000185	65.1100001335
1190.0	0.0001856	65.1560001373
1190.0	0.0001858	65.2030000687
1190.0	0.0001857	65.25
1190.0	0.0001862	65.2810001373
1190.0	0.0001866	65.3280000687
1190.0	0.0001871	65.3600001335
1190.0	0.0001871	65.4060001373
1190.0	0.0001871	65.4530000687
1190.0	0.0001872	65.4850001335
1190.0	0.0001876	65.5310001373
1190.0	0.0001876	65.5629999638
1190.0	0.0001872	65.6100001335
1190.0	0.000187	65.6560001373
1190.0	0.0001871	65.6879999638
1190.0	0.0001872	65.7350001335
1190.0	0.0001872	65.7810001373
1190.0	0.0001876	65.8129999638
1190.0	0.0001877	65.8600001335
1190.0	0.0001877	65.9060001373
1190.0	0.0001878	65.9379999638
1190.0	0.0001878	65.9850001335
1190.0	0.0001878	66.0160000324
1190.0	0.0001876	66.0629999638
1190.0	0.0001875	66.1100001335
1190.0	0.0001876	66.1410000324
1190.0	0.0001877	66.1879999638
1190.0	0.0001876	66.2350001335
1190.0	0.0001875	66.2660000324
1190.0	0.0001876	66.3129999638
1200.0	0.0001962	66.5780000687
1200.0	0.0001993	66.625
1200.0	0.0002018	66.6560001373
1200.0	0.0002038	66.7030000687
1200.0	0.0002053	66.75
1200.0	0.0002065	66.7810001373
1200.0	0.0002072	66.8280000687
1200.0	0.0002078	66.875
1200.0	0.0002085	66.9060001373
1200.0	0.0002091	66.9530000687
1200.0	0.0002095	67.0
1200.0	0.0002095	67.0310001373
1200.0	0.0002096	67.0780000687
1200.0	0.0002097	67.1100001335
1200.0	0.0002097	67.1560001373
1200.0	0.0002096	67.2030000687
1200.0	0.0002093	67.2350001335
1200.0	0.0002091	67.2810001373
1200.0	0.0002093	67.3129999638
1200.0	0.0002091	67.3600001335
1200.0	0.0002093	67.4060001373
1200.0	0.0002093	67.4379999638
1200.0	0.0002095	67.4850001335
1200.0	0.0002093	67.5310001373
1200.0	0.000209	67.5629999638
1200.0	0.000209	67.6100001335
1200.0	0.0002091	67.6410000324
1200.0	0.0002091	67.6879999638
1200.0	0.000209	67.7350001335
1200.0	0.0002091	67.7660000324
1200.0	0.0002093	67.8129999638
1200.0	0.0002095	67.8600001335
1200.0	0.0002097	67.8910000324
1200.0	0.00021	67.9379999638
1200.0	0.0002102	67.9850001335
1200.0	0.0002103	68.0160000324
1200.0	0.0002106	68.0629999638
1210.0	0.0002182	68.3280000687
1210.0	0.0002207	68.375
1210.0	0.0002228	68.4060001373
1210.0	0.0002247	68.4530000687
1210.0	0.0002262	68.4850001335
1210.0	0.0002275	68.5310001373
1210.0	0.0002283	68.5780000687
1210.0	0.0002288	68.625
1210.0	0.0002293	68.6560001373
1210.0	0.0002293	68.7030000687
1210.0	0.0002291	68.7350001335
1210.0	0.0002293	68.7810001373
1210.0	0.0002295	68.8280000687
1210.0	0.0002293	68.8600001335
1210.0	0.0002295	68.9060001373
1210.0	0.0002293	68.9530000687
1210.0	0.0002291	68.9850001335
1210.0	0.0002293	69.0310001373
1210.0	0.0002296	69.0629999638
1210.0	0.0002296	69.1100001335
1210.0	0.0002296	69.1560001373
1210.0	0.0002297	69.1879999638
1210.0	0.0002296	69.2350001335
1210.0	0.0002293	69.2810001373
1210.0	0.0002291	69.3129999638
1210.0	0.000229	69.3600001335
1210.0	0.000229	69.3910000324
1210.0	0.0002295	69.4379999638
1210.0	0.0002295	69.4850001335
1210.0	0.0002295	69.5160000324
1210.0	0.0002296	69.5629999638
1210.0	0.0002296	69.6100001335
1210.0	0.0002297	69.6410000324
1210.0	0.00023	69.6879999638
1210.0	0.00023	69.7350001335
1210.0	0.0002303	69.7660000324
1210.0	0.0002303	69.8129999638
1220.0	0.0002365	70.0780000687
1220.0	0.0002388	70.125
1220.0	0.0002403	70.1560001373
1220.0	0.0002418	70.2030000687
1220.0	0.0002428	70.2350001335
1220.0	0.0002438	70.2810001373
1220.0	0.0002445	70.3280000687
1220.0	0.000245	70.3600001335
1220.0	0.0002452	70.4060001373
1220.0	0.0002456	70.4530000687
1220.0	0.0002458	70.4850001335
1220.0	0.000246	70.5310001373
1220.0	0.0002463	70.5629999638
1220.0	0.0002465	70.6100001335
1220.0	0.0002465	70.6560001373
1220.0	0.0002465	70.6879999638
1220.0	0.0002465	70.7350001335
1220.0	0.0002462	70.7810001373
1220.0	0.000246	70.8129999638
1220.0	0.000246	70.8600001335
1220.0	0.000246	70.8910000324
1220.0	0.0002457	70.9379999638
1220.0	0.0002456	70.9850001335
1220.0	0.0002457	71.0310001373
1220.0	0.0002458	71.0629999638
1220.0	0.0002463	71.1100001335
1220.0	0.0002466	71.1410000324
1220.0	0.0002463	71.1879999638
1220.0	0.0002462	71.2350001335
1220.0	0.000246	71.2660000324
1220.0	0.0002462	71.3129999638
1220.0	0.0002465	71.3600001335
1220.0	0.0002466	71.3910000324
1220.0	0.0002468	71.4379999638
1220.0	0.0002468	71.4690001011
1220.0	0.0002468	71.5160000324
1220.0	0.0002466	71.5629999638
1230.0	0.0002518	71.8280000687
1230.0	0.0002531	71.875
1230.0	0.0002545	71.9060001373
1230.0	0.0002557	71.9530000687
1230.0	0.000257	71.9850001335
1230.0	0.0002581	72.0310001373
1230.0	0.0002585	72.0780000687
1230.0	0.0002585	72.125
1230.0	0.0002588	72.1560001373
1230.0	0.0002591	72.2030000687
1230.0	0.0002595	72.2350001335
1230.0	0.00026	72.2810001373
1230.0	0.00026	72.3280000687
1230.0	0.00026	72.3600001335
1230.0	0.00026	72.4060001373
1230.0	0.0002602	72.4530000687
1230.0	0.0002603	72.4850001335
1230.0	0.0002607	72.5310001373
1230.0	0.0002608	72.5629999638
1230.0	0.0002608	72.6100001335
1230.0	0.000261	72.6560001373
1230.0	0.0002607	72.6879999638
1230.0	0.0002606	72.7350001335
1230.0	0.0002603	72.7810001373
1230.0	0.0002603	72.8129999638
1230.0	0.0002603	72.8600001335
1230.0	0.0002602	72.9060001373
1230.0	0.0002601	72.9379999638
1230.0	0.00026	72.9850001335
1230.0	0.0002597	73.0310001373
1230.0	0.0002595	73.0629999638
1230.0	0.0002595	73.1100001335
1230.0	0.0002596	73.1560001373
1230.0	0.0002595	73.1879999638
1230.0	0.0002595	73.2350001335
1230.0	0.0002595	73.2660000324
1230.0	0.0002593	73.3129999638
1240.0	0.0002632	73.5780000687
1240.0	0.000265	73.625
1240.0	0.000266	73.6560001373
1240.0	0.0002671	73.7030000687
1240.0	0.0002678	73.75
1240.0	0.0002683	73.7810001373
1240.0	0.0002687	73.8280000687
1240.0	0.000269	73.875
1240.0	0.0002695	73.9060001373
1240.0	0.0002696	73.9530000687
1240.0	0.00027	73.9850001335
1240.0	0.00027	74.0310001373
1240.0	0.0002697	74.0780000687
1240.0	0.0002696	74.1100001335
1240.0	0.0002695	74.1560001373
1240.0	0.0002693	74.1879999638
1240.0	0.0002693	74.2350001335
1240.0	0.0002696	74.2810001373
1240.0	0.0002697	74.3129999638
1240.0	0.00027	74.3600001335
1240.0	0.0002703	74.4060001373
1240.0	0.0002706	74.4379999638
1240.0	0.0002707	74.4850001335
1240.0	0.0002708	74.5310001373
1240.0	0.0002708	74.5629999638
1240.0	0.0002707	74.6100001335
1240.0	0.0002703	74.6410000324
1240.0	0.00027	74.6879999638
1240.0	0.0002696	74.7350001335
1240.0	0.0002695	74.7660000324
1240.0	0.0002696	74.8129999638
1240.0	0.0002697	74.8600001335
1240.0	0.0002697	74.8910000324
1240.0	0.0002702	74.9379999638
1240.0	0.0002703	74.9690001011
1240.0	0.0002707	75.0160000324
1240.0	0.0002707	75.0629999638
1250.0	0.000272	75.3280000687
1250.0	0.0002731	75.3600001335
1250.0	0.0002743	75.4060001373
1250.0	0.0002752	75.4530000687
1250.0	0.0002762	75.4850001335
1250.0	0.0002766	75.5310001373
1250.0	0.000277	75.5780000687
1250.0	0.000277	75.6100001335
1250.0	0.0002768	75.6560001373
1250.0	0.0002768	75.6879999638
1250.0	0.0002772	75.7350001335
1250.0	0.0002772	75.7810001373
1250.0	0.0002776	75.8129999638
1250.0	0.0002775	75.8600001335
1250.0	0.0002772	75.9060001373
1250.0	0.0002771	75.9379999638
1250.0	0.000277	75.9850001335
1250.0	0.000277	76.0160000324
1250.0	0.0002768	76.0629999638
1250.0	0.0002768	76.1100001335
1250.0	0.0002766	76.1410000324
1250.0	0.000277	76.1879999638
1250.0	0.0002771	76.2350001335
1250.0	0.0002776	76.2660000324
1250.0	0.0002777	76.3129999638
1250.0	0.0002781	76.3600001335
1250.0	0.0002783	76.3910000324
1250.0	0.0002783	76.4379999638
1250.0	0.0002783	76.4690001011
1250.0	0.0002783	76.5160000324
1250.0	0.0002781	76.5629999638
1250.0	0.0002777	76.5940001011
1250.0	0.0002775	76.6410000324
1250.0	0.0002771	76.6879999638
1250.0	0.0002771	76.7190001011
1250.0	0.0002771	76.7660000324
1250.0	0.000277	76.7970001698
1260.0	0.0002793	77.0780000687
1260.0	0.0002803	77.1100001335
1260.0	0.0002815	77.1560001373
1260.0	0.0002825	77.1879999638
1260.0	0.0002831	77.2350001335
1260.0	0.0002833	77.2810001373
1260.0	0.0002835	77.3129999638
1260.0	0.0002835	77.3600001335
1260.0	0.0002837	77.4060001373
1260.0	0.0002837	77.4379999638
1260.0	0.0002835	77.4850001335
1260.0	0.0002835	77.5160000324
1260.0	0.0002835	77.5629999638
1260.0	0.0002837	77.6100001335
1260.0	0.0002838	77.6410000324
1260.0	0.0002838	77.6879999638
1260.0	0.0002838	77.7350001335
1260.0	0.0002838	77.7660000324
1260.0	0.000284	77.8129999638
1260.0	0.0002841	77.8600001335
1260.0	0.0002843	77.8910000324
1260.0	0.0002845	77.9379999638
1260.0	0.0002847	77.9850001335
1260.0	0.000285	78.0160000324
1260.0	0.000285	78.0629999638
1260.0	0.0002851	78.1100001335
1260.0	0.0002851	78.1410000324
1260.0	0.0002851	78.1879999638
1260.0	0.0002847	78.2190001011
1260.0	0.0002845	78.2660000324
1260.0	0.0002843	78.3129999638
1260.0	0.0002841	78.3440001011
1260.0	0.0002841	78.3910000324
1260.0	0.0002841	78.4379999638
1260.0	0.000284	78.4690001011
1260.0	0.0002841	78.5160000324
1260.0	0.0002841	78.5470001698
1270.0	0.0002856	78.8280000687
1270.0	0.0002865	78.8600001335
1270.0	0.0002875	78.9060001373
1270.0	0.0002878	78.9530000687
1270.0	0.0002885	78.9850001335
1270.0	0.000289	79.0310001373
1270.0	0.0002893	79.0780000687
1270.0	0.0002896	79.1100001335
1270.0	0.0002897	79.1560001373
1270.0	0.0002896	79.1879999638
1270.0	0.0002895	79.2350001335
1270.0	0.0002893	79.2810001373
1270.0	0.0002893	79.3129999638
1270.0	0.0002895	79.3600001335
1270.0	0.0002891	79.4060001373
1270.0	0.000289	79.4379999638
1270.0	0.000289	79.4850001335
1270.0	0.0002893	79.5160000324
1270.0	0.0002896	79.5629999638
1270.0	0.0002895	79.6100001335
1270.0	0.0002893	79.6410000324
1270.0	0.0002891	79.6879999638
1270.0	0.000289	79.7350001335
1270.0	0.0002891	79.7660000324
1270.0	0.0002891	79.8129999638
1270.0	0.0002891	79.8440001011
1270.0	0.0002893	79.8910000324
1270.0	0.0002895	79.9379999638
1270.0	0.0002897	79.9690001011
1270.0	0.00029	80.0160000324
1270.0	0.00029	80.0629999638
1270.0	0.0002897	80.0940001011
1270.0	0.0002897	80.1410000324
1270.0	0.0002897	80.1879999638
1270.0	0.0002895	80.2190001011
1270.0	0.0002891	80.2660000324
1270.0	0.0002888	80.3129999638
1280.0	0.0002916	80.5629999638
1280.0	0.0002921	80.6100001335
1280.0	0.0002925	80.6560001373
1280.0	0.0002927	80.6879999638
1280.0	0.0002927	80.7350001335
1280.0	0.0002931	80.7810001373
1280.0	0.0002933	80.8129999638
1280.0	0.0002935	80.8600001335
1280.0	0.0002937	80.8910000324
1280.0	0.0002937	80.9379999638
1280.0	0.0002937	80.9850001335
1280.0	0.0002937	81.0160000324
1280.0	0.0002938	81.0629999638
1280.0	0.0002937	81.1100001335
1280.0	0.000294	81.1410000324
1280.0	0.0002941	81.1879999638
1280.0	0.0002941	81.2350001335
1280.0	0.0002941	81.2660000324
1280.0	0.0002941	81.3129999638
1280.0	0.0002938	81.3440001011
1280.0	0.0002933	81.3910000324
1280.0	0.0002932	81.4379999638
1280.0	0.0002928	81.4690001011
1280.0	0.0002928	81.5160000324
1280.0	0.0002928	81.5629999638
1280.0	0.0002932	81.5940001011
1280.0	0.0002935	81.6410000324
1280.0	0.0002938	81.6720001698
1280.0	0.0002935	81.7190001011
1280.0	0.0002933	81.7660000324
1280.0	0.0002932	81.7970001698
1280.0	0.0002927	81.8440001011
1280.0	0.0002927	81.8910000324
1280.0	0.0002932	81.9379999638
1280.0	0.0002935	81.9690001011
1280.0	0.0002937	82.0160000324
1280.0	0.0002938	82.0629999638
1290.0	0.0002956	82.3280000687
1290.0	0.000296	82.3600001335
1290.0	0.0002962	82.4060001373
1290.0	0.0002965	82.4530000687
1290.0	0.0002966	82.4850001335
1290.0	0.0002963	82.5310001373
1290.0	0.0002962	82.5629999638
1290.0	0.0002962	82.6100001335
1290.0	0.0002958	82.6560001373
1290.0	0.0002956	82.6879999638
1290.0	0.0002956	82.7350001335
1290.0	0.0002957	82.7810001373
1290.0	0.000296	82.8129999638
1290.0	0.0002962	82.8600001335
1290.0	0.0002963	82.9060001373
1290.0	0.0002965	82.9379999638
1290.0	0.0002968	82.9850001335
1290.0	0.000297	83.0160000324
1290.0	0.0002968	83.0629999638
1290.0	0.0002966	83.1100001335
1290.0	0.0002966	83.1410000324
1290.0	0.0002965	83.1879999638
1290.0	0.000296	83.2350001335
1290.0	0.0002958	83.2660000324
1290.0	0.000296	83.3129999638
1290.0	0.0002962	83.3440001011
1290.0	0.0002963	83.3910000324
1290.0	0.0002962	83.4379999638
1290.0	0.0002963	83.4690001011
1290.0	0.0002963	83.5160000324
1290.0	0.0002962	83.5629999638
1290.0	0.0002963	83.5940001011
1290.0	0.000296	83.6410000324
1290.0	0.000296	83.6879999638
1290.0	0.0002962	83.7190001011
1290.0	0.0002962	83.7660000324
1290.0	0.000296	83.8129999638
1300.0	0.0002963	84.0780000687
1300.0	0.0002962	84.1100001335
1300.0	0.0002963	84.1560001373
1300.0	0.0002963	84.2030000687
1300.0	0.0002963	84.2350001335
1300.0	0.0002966	84.2810001373
1300.0	0.0002966	84.3129999638
1300.0	0.0002965	84.3600001335
1300.0	0.0002965	84.4060001373
1300.0	0.0002968	84.4379999638
1300.0	0.0002968	84.4850001335
1300.0	0.0002966	84.5310001373
1300.0	0.0002965	84.5629999638
1300.0	0.0002966	84.6100001335
1300.0	0.0002968	84.6410000324
1300.0	0.0002971	84.6879999638
1300.0	0.0002975	84.7350001335
1300.0	0.0002972	84.7660000324
1300.0	0.0002972	84.8129999638
1300.0	0.0002972	84.8600001335
1300.0	0.0002971	84.8910000324
1300.0	0.0002971	84.9379999638
1300.0	0.000297	84.9850001335
1300.0	0.0002966	85.0160000324
1300.0	0.0002966	85.0629999638
1300.0	0.0002965	85.0940001011
1300.0	0.0002965	85.1410000324
1300.0	0.0002966	85.1879999638
1300.0	0.0002968	85.2190001011
1300.0	0.0002968	85.2660000324
1300.0	0.0002968	85.3129999638
1300.0	0.000297	85.3440001011
1300.0	0.0002971	85.3910000324
1300.0	0.0002971	85.4220001698
1300.0	0.0002968	85.4690001011
1300.0	0.000297	85.5160000324
1300.0	0.000297	85.5470001698
1310.0	0.0002956	85.8280000687
1310.0	0.0002951	85.8600001335
1310.0	0.0002943	85.9060001373
1310.0	0.000294	85.9530000687
1310.0	0.0002938	85.9850001335
1310.0	0.0002938	86.0310001373
1310.0	0.000294	86.0629999638
1310.0	0.000294	86.1100001335
1310.0	0.0002943	86.1560001373
1310.0	0.0002947	86.2030000687
1310.0	0.000295	86.2350001335
1310.0	0.000295	86.2810001373
1310.0	0.0002946	86.3129999638
1310.0	0.0002943	86.3600001335
1310.0	0.0002941	86.4060001373
1310.0	0.000294	86.4379999638
1310.0	0.000294	86.4850001335
1310.0	0.0002941	86.5310001373
1310.0	0.000294	86.5780000687
1310.0	0.000294	86.6100001335
1310.0	0.0002937	86.6560001373
1310.0	0.0002935	86.6879999638
1310.0	0.0002937	86.7350001335
1310.0	0.0002938	86.7810001373
1310.0	0.0002938	86.8129999638
1310.0	0.0002935	86.8600001335
1310.0	0.0002933	86.9060001373
1310.0	0.0002933	86.9379999638
1310.0	0.0002935	86.9850001335
1310.0	0.0002938	87.0160000324
1310.0	0.0002943	87.0629999638
1310.0	0.0002945	87.1100001335
1310.0	0.0002943	87.1410000324
1310.0	0.0002943	87.1879999638
1310.0	0.0002943	87.2350001335
1310.0	0.000294	87.2660000324
1310.0	0.000294	87.3129999638
1320.0	0.0002915	87.5780000687
1320.0	0.000291	87.625
1320.0	0.0002906	87.6560001373
1320.0	0.0002902	87.7030000687
1320.0	0.0002902	87.75
1320.0	0.00029	87.7810001373
1320.0	0.0002896	87.8280000687
1320.0	0.0002895	87.875
1320.0	0.0002891	87.9060001373
1320.0	0.0002888	87.9530000687
1320.0	0.0002883	88.0
1320.0	0.0002881	88.0310001373
1320.0	0.0002882	88.0780000687
1320.0	0.0002883	88.125
1320.0	0.0002887	88.1560001373
1320.0	0.0002888	88.2030000687
1320.0	0.0002885	88.25
1320.0	0.0002882	88.2810001373
1320.0	0.0002881	88.3280000687
1320.0	0.0002881	88.3600001335
1320.0	0.0002881	88.4060001373
1320.0	0.0002878	88.4530000687
1320.0	0.0002881	88.4850001335
1320.0	0.0002881	88.5310001373
1320.0	0.0002883	88.5629999638
1320.0	0.0002883	88.6100001335
1320.0	0.0002885	88.6560001373
1320.0	0.0002885	88.6879999638
1320.0	0.0002883	88.7350001335
1320.0	0.0002882	88.7810001373
1320.0	0.0002882	88.8280000687
1320.0	0.0002883	88.8600001335
1320.0	0.0002887	88.9060001373
1320.0	0.0002887	88.9379999638
1320.0	0.0002885	88.9850001335
1320.0	0.0002885	89.0310001373
1330.0	0.0002843	89.2970001698
1330.0	0.0002828	89.3440001011
1330.0	0.0002821	89.375
1330.0	0.0002813	89.4220001698
1330.0	0.0002807	89.4690001011
1330.0	0.0002802	89.5
1330.0	0.00028	89.5470001698
1330.0	0.0002795	89.5780000687
1330.0	0.0002793	89.625
1330.0	0.0002793	89.6720001698
1330.0	0.0002793	89.7030000687
1330.0	0.0002793	89.75
1330.0	0.0002796	89.7970001698
1330.0	0.0002796	89.8280000687
1330.0	0.0002796	89.875
1330.0	0.0002795	89.9220001698
1330.0	0.0002793	89.9530000687
1330.0	0.0002791	90.0
1330.0	0.000279	90.0310001373
1330.0	0.0002787	90.0780000687
1330.0	0.0002788	90.125
1330.0	0.000279	90.1560001373
1330.0	0.0002793	90.2030000687
1330.0	0.0002791	90.25
1330.0	0.000279	90.2810001373
1330.0	0.0002788	90.3280000687
1330.0	0.0002793	90.375
1330.0	0.000279	90.4060001373
1330.0	0.0002791	90.4530000687
1330.0	0.0002791	90.5
1330.0	0.0002791	90.5310001373
1330.0	0.000279	90.5780000687
1330.0	0.0002785	90.6100001335
1330.0	0.0002782	90.6560001373
1330.0	0.0002783	90.7030000687
1330.0	0.0002782	90.7350001335
1330.0	0.0002781	90.7810001373
1340.0	0.0002737	91.0470001698
1340.0	0.0002721	91.0940001011
1340.0	0.0002707	91.1410000324
1340.0	0.0002695	91.1720001698
1340.0	0.0002685	91.2190001011
1340.0	0.0002681	91.2660000324
1340.0	0.0002677	91.2970001698
1340.0	0.0002678	91.3440001011
1340.0	0.0002677	91.3910000324
1340.0	0.0002676	91.4220001698
1340.0	0.0002672	91.4690001011
1340.0	0.0002668	91.5160000324
1340.0	0.0002665	91.5470001698
1340.0	0.0002663	91.5940001011
1340.0	0.000266	91.6410000324
1340.0	0.0002658	91.6720001698
1340.0	0.0002657	91.7190001011
1340.0	0.0002657	91.7660000324
1340.0	0.0002657	91.7970001698
1340.0	0.0002658	91.8440001011
1340.0	0.000266	91.875
1340.0	0.0002662	91.9220001698
1340.0	0.0002658	91.9690001011
1340.0	0.0002656	92.0
1340.0	0.0002657	92.0470001698
1340.0	0.0002658	92.0940001011
1340.0	0.0002658	92.125
1340.0	0.0002658	92.1720001698
1340.0	0.0002658	92.2030000687
1340.0	0.0002663	92.25
1340.0	0.0002666	92.2970001698
1340.0	0.0002668	92.3280000687
1340.0	0.000267	92.375
1340.0	0.0002668	92.4220001698
1340.0	0.0002666	92.4530000687
1340.0	0.0002666	92.5
1340.0	0.0002665	92.5310001373
1350.0	0.0002596	92.8129999638
1350.0	0.0002575	92.8440001011
1350.0	0.0002558	92.8910000324
1350.0	0.0002543	92.9220001698
1350.0	0.0002533	92.9690001011
1350.0	0.0002526	93.0160000324
1350.0	0.000252	93.0470001698
1350.0	0.0002512	93.0940001011
1350.0	0.0002507	93.1410000324
1350.0	0.0002502	93.1720001698
1350.0	0.00025	93.2190001011
1350.0	0.0002496	93.25
1350.0	0.0002496	93.2970001698
1350.0	0.0002496	93.3440001011
1350.0	0.0002496	93.375
1350.0	0.0002496	93.4220001698
1350.0	0.00025	93.4690001011
1350.0	0.0002501	93.5160000324
1350.0	0.0002502	93.5470001698
1350.0	0.0002502	93.5940001011
1350.0	0.0002502	93.6410000324
1350.0	0.0002501	93.6720001698
1350.0	0.0002502	93.7190001011
1350.0	0.0002506	93.7660000324
1350.0	0.0002506	93.7970001698
1350.0	0.0002506	93.8440001011
1350.0	0.0002506	93.875
1350.0	0.0002506	93.9220001698
1350.0	0.0002503	93.9690001011
1350.0	0.0002501	94.0
1350.0	0.0002496	94.0470001698
1350.0	0.0002495	94.0940001011
1350.0	0.0002496	94.125
1350.0	0.0002496	94.1720001698
1350.0	0.0002496	94.2030000687
1350.0	0.0002496	94.25
1350.0	0.0002495	94.2970001698
1360.0	0.000244	94.5629999638
1360.0	0.0002416	94.5940001011
1360.0	0.0002401	94.6410000324
1360.0	0.0002387	94.6879999638
1360.0	0.0002376	94.7190001011
1360.0	0.000237	94.7660000324
1360.0	0.0002362	94.8129999638
1360.0	0.0002358	94.8440001011
1360.0	0.0002352	94.8910000324
1360.0	0.000235	94.9220001698
1360.0	0.0002346	94.9690001011
1360.0	0.0002345	95.0160000324
1360.0	0.0002343	95.0470001698
1360.0	0.0002343	95.0940001011
1360.0	0.0002343	95.1410000324
1360.0	0.0002343	95.1720001698
1360.0	0.0002345	95.2190001011
1360.0	0.0002346	95.2660000324
1360.0	0.0002351	95.2970001698
1360.0	0.0002352	95.3440001011
1360.0	0.000235	95.3910000324
1360.0	0.0002346	95.4220001698
1360.0	0.0002345	95.4690001011
1360.0	0.0002343	95.5160000324
1360.0	0.0002343	95.5470001698
1360.0	0.0002341	95.5940001011
1360.0	0.0002341	95.6410000324
1360.0	0.0002337	95.6879999638
1360.0	0.0002337	95.7190001011
1360.0	0.0002333	95.7660000324
1360.0	0.0002332	95.7970001698
1360.0	0.0002333	95.8440001011
1360.0	0.0002333	95.8910000324
1360.0	0.0002331	95.9220001698
1360.0	0.0002333	95.9690001011
1360.0	0.0002333	96.0160000324
1370.0	0.0002268	96.2810001373
1370.0	0.0002245	96.3129999638
1370.0	0.0002226	96.3600001335
1370.0	0.0002212	96.4060001373
1370.0	0.00022	96.4379999638
1370.0	0.0002188	96.4850001335
1370.0	0.0002182	96.5160000324
1370.0	0.0002178	96.5629999638
1370.0	0.0002177	96.6100001335
1370.0	0.0002177	96.6410000324
1370.0	0.0002177	96.6879999638
1370.0	0.0002178	96.7350001335
1370.0	0.0002177	96.7660000324
1370.0	0.0002176	96.8129999638
1370.0	0.0002175	96.8440001011
1370.0	0.0002172	96.8910000324
1370.0	0.0002168	96.9379999638
1370.0	0.0002166	96.9690001011
1370.0	0.0002166	97.0160000324
1370.0	0.0002165	97.0629999638
1370.0	0.0002163	97.0940001011
1370.0	0.0002162	97.1410000324
1370.0	0.0002163	97.1720001698
1370.0	0.0002163	97.2190001011
1370.0	0.0002163	97.2660000324
1370.0	0.0002162	97.3129999638
1370.0	0.000216	97.3440001011
1370.0	0.0002158	97.3910000324
1370.0	0.0002158	97.4379999638
1370.0	0.0002157	97.4690001011
1370.0	0.0002153	97.5160000324
1370.0	0.0002152	97.5470001698
1370.0	0.0002151	97.5940001011
1370.0	0.0002152	97.6410000324
1370.0	0.0002156	97.6720001698
1370.0	0.0002156	97.7190001011
1370.0	0.0002156	97.7660000324
1380.0	0.0002106	98.0310001373
1380.0	0.0002085	98.0629999638
1380.0	0.0002068	98.1100001335
1380.0	0.0002051	98.1560001373
1380.0	0.0002038	98.1879999638
1380.0	0.0002028	98.2350001335
1380.0	0.0002021	98.2660000324
1380.0	0.0002018	98.3129999638
1380.0	0.0002016	98.3600001335
1380.0	0.0002013	98.3910000324
1380.0	0.000201	98.4379999638
1380.0	0.0002008	98.4850001335
1380.0	0.0002008	98.5160000324
1380.0	0.000201	98.5629999638
1380.0	0.0002012	98.5940001011
1380.0	0.0002012	98.6410000324
1380.0	0.0002013	98.6879999638
1380.0	0.0002015	98.7190001011
1380.0	0.0002016	98.7660000324
1380.0	0.0002016	98.8129999638
1380.0	0.0002015	98.8440001011
1380.0	0.0002013	98.8910000324
1380.0	0.0002016	98.9220001698
1380.0	0.0002015	98.9690001011
1380.0	0.0002013	99.0160000324
1380.0	0.0002013	99.0470001698
1380.0	0.0002015	99.0940001011
1380.0	0.0002012	99.1410000324
1380.0	0.0002007	99.1879999638
1380.0	0.0002003	99.2190001011
1380.0	0.0002002	99.2660000324
1380.0	0.0002003	99.2970001698
1380.0	0.0002006	99.3440001011
1380.0	0.0002008	99.3910000324
1380.0	0.0002008	99.4220001698
1380.0	0.0002013	99.4690001011
1380.0	0.0002015	99.5160000324
1390.0	0.0001972	99.7810001373
1390.0	0.0001958	99.8129999638
1390.0	0.0001946	99.8600001335
1390.0	0.0001933	99.9060001373
1390.0	0.0001926	99.9379999638
1390.0	0.000192	99.9850001335
1390.0	0.0001913	100.031000137
1390.0	0.0001908	100.062999964
1390.0	0.0001907	100.110000134
1390.0	0.0001903	100.156000137
1390.0	0.0001902	100.187999964
1390.0	0.00019	100.235000134
1390.0	0.0001896	100.266000032
1390.0	0.0001895	100.312999964
1390.0	0.0001895	100.360000134
1390.0	0.0001896	100.391000032
1390.0	0.0001895	100.437999964
1390.0	0.0001895	100.485000134
1390.0	0.0001895	100.516000032
1390.0	0.0001896	100.562999964
1390.0	0.0001896	100.594000101
1390.0	0.0001897	100.641000032
1390.0	0.00019	100.687999964
1390.0	0.0001903	100.719000101
1390.0	0.0001902	100.766000032
1390.0	0.0001901	100.812999964
1390.0	0.00019	100.844000101
1390.0	0.00019	100.891000032
1390.0	0.0001903	100.92200017
1390.0	0.0001901	100.969000101
1390.0	0.00019	101.016000032
1390.0	0.00019	101.04700017
1390.0	0.00019	101.094000101
1390.0	0.00019	101.141000032
1390.0	0.0001902	101.17200017
1390.0	0.0001901	101.219000101
1390.0	0.0001901	101.266000032
1400.0	0.0001871	101.531000137
1400.0	0.0001857	101.562999964
1400.0	0.0001846	101.610000134
1400.0	0.0001838	101.641000032
1400.0	0.0001833	101.687999964
1400.0	0.0001831	101.735000134
1400.0	0.0001828	101.766000032
1400.0	0.0001827	101.812999964
1400.0	0.0001826	101.860000134
1400.0	0.0001825	101.891000032
1400.0	0.0001826	101.937999964
1400.0	0.0001826	101.985000134
1400.0	0.0001828	102.016000032
1400.0	0.0001831	102.062999964
1400.0	0.0001831	102.110000134
1400.0	0.0001828	102.141000032
1400.0	0.0001825	102.187999964
1400.0	0.0001821	102.235000134
1400.0	0.0001822	102.266000032
1400.0	0.0001825	102.312999964
1400.0	0.0001822	102.344000101
1400.0	0.0001822	102.391000032
1400.0	0.0001822	102.437999964
1400.0	0.0001822	102.469000101
1400.0	0.0001822	102.516000032
1400.0	0.0001825	102.562999964
1400.0	0.0001827	102.594000101
1400.0	0.0001831	102.641000032
1400.0	0.0001832	102.67200017
1400.0	0.0001835	102.719000101
1400.0	0.0001837	102.766000032
1400.0	0.0001837	102.79700017
1400.0	0.0001838	102.844000101
1400.0	0.0001838	102.891000032
1400.0	0.0001841	102.92200017
1400.0	0.0001843	102.969000101
1400.0	0.000184	103.016000032
1410.0	0.0001815	103.281000137
1410.0	0.0001808	103.312999964
1410.0	0.0001803	103.360000134
1410.0	0.0001802	103.391000032
1410.0	0.0001802	103.437999964
1410.0	0.0001801	103.485000134
1410.0	0.00018	103.516000032
1410.0	0.0001795	103.562999964
1410.0	0.0001793	103.610000134
1410.0	0.0001795	103.641000032
1410.0	0.0001795	103.687999964
1410.0	0.0001796	103.719000101
1410.0	0.0001797	103.766000032
1410.0	0.00018	103.812999964
1410.0	0.0001797	103.844000101
1410.0	0.0001801	103.891000032
1410.0	0.0001801	103.937999964
1410.0	0.00018	103.969000101
1410.0	0.0001796	104.016000032
1410.0	0.0001795	104.062999964
1410.0	0.0001793	104.094000101
1410.0	0.0001795	104.141000032
1410.0	0.0001796	104.17200017
1410.0	0.0001795	104.219000101
1410.0	0.0001796	104.266000032
1410.0	0.0001797	104.29700017
1410.0	0.0001797	104.344000101
1410.0	0.0001796	104.391000032
1410.0	0.0001795	104.42200017
1410.0	0.0001791	104.469000101
1410.0	0.0001788	104.5
1410.0	0.0001785	104.54700017
1410.0	0.0001782	104.594000101
1410.0	0.0001783	104.625
1410.0	0.0001785	104.67200017
1410.0	0.0001785	104.719000101
1410.0	0.0001787	104.75
1420.0	0.0001788	105.016000032
1420.0	0.0001787	105.062999964
1420.0	0.0001787	105.110000134
1420.0	0.0001791	105.141000032
1420.0	0.0001796	105.187999964
1420.0	0.0001796	105.235000134
1420.0	0.0001797	105.281000137
1420.0	0.0001797	105.312999964
1420.0	0.0001796	105.360000134
1420.0	0.0001793	105.391000032
1420.0	0.0001791	105.437999964
1420.0	0.0001793	105.485000134
1420.0	0.0001793	105.516000032
1420.0	0.0001793	105.562999964
1420.0	0.0001795	105.610000134
1420.0	0.0001795	105.641000032
1420.0	0.0001793	105.687999964
1420.0	0.0001791	105.735000134
1420.0	0.0001791	105.766000032
1420.0	0.0001787	105.812999964
1420.0	0.0001783	105.860000134
1420.0	0.0001783	105.891000032
1420.0	0.0001783	105.937999964
1420.0	0.0001787	105.985000134
1420.0	0.000179	106.016000032
1420.0	0.0001793	106.062999964
1420.0	0.0001795	106.110000134
1420.0	0.0001793	106.141000032
1420.0	0.0001793	106.187999964
1420.0	0.0001791	106.235000134
1420.0	0.0001788	106.266000032
1420.0	0.0001787	106.312999964
1420.0	0.0001787	106.344000101
1420.0	0.0001788	106.391000032
1420.0	0.0001791	106.437999964
1420.0	0.0001791	106.469000101
1420.0	0.000179	106.516000032
1430.0	0.0001802	106.781000137
1430.0	0.0001808	106.828000069
1430.0	0.0001815	106.860000134
1430.0	0.000182	106.906000137
1430.0	0.0001822	106.953000069
1430.0	0.0001822	107.0
1430.0	0.0001826	107.031000137
1430.0	0.0001826	107.078000069
1430.0	0.0001827	107.125
1430.0	0.0001828	107.156000137
1430.0	0.0001831	107.203000069
1430.0	0.0001832	107.25
1430.0	0.0001833	107.281000137
1430.0	0.0001838	107.328000069
1430.0	0.0001837	107.375
1430.0	0.0001837	107.406000137
1430.0	0.0001835	107.453000069
1430.0	0.0001837	107.5
1430.0	0.0001837	107.531000137
1430.0	0.0001837	107.578000069
1430.0	0.0001837	107.610000134
1430.0	0.0001838	107.656000137
1430.0	0.000184	107.703000069
1430.0	0.000184	107.735000134
1430.0	0.000184	107.781000137
1430.0	0.0001837	107.828000069
1430.0	0.0001838	107.860000134
1430.0	0.0001843	107.906000137
1430.0	0.0001845	107.937999964
1430.0	0.0001847	107.985000134
1430.0	0.0001851	108.031000137
1430.0	0.000185	108.062999964
1430.0	0.000185	108.110000134
1430.0	0.0001851	108.156000137
1430.0	0.0001852	108.187999964
1430.0	0.0001856	108.235000134
1440.0	0.000187	108.5
1440.0	0.0001876	108.54700017
1440.0	0.0001883	108.578000069
1440.0	0.0001887	108.625
1440.0	0.0001891	108.656000137
1440.0	0.0001893	108.703000069
1440.0	0.0001896	108.75
1440.0	0.00019	108.781000137
1440.0	0.0001902	108.828000069
1440.0	0.0001906	108.875
1440.0	0.0001908	108.92200017
1440.0	0.000191	108.953000069
1440.0	0.000191	109.0
1440.0	0.000191	109.031000137
1440.0	0.0001908	109.078000069
1440.0	0.000191	109.125
1440.0	0.0001912	109.156000137
1440.0	0.0001913	109.203000069
1440.0	0.0001913	109.25
1440.0	0.0001912	109.281000137
1440.0	0.0001915	109.328000069
1440.0	0.0001915	109.360000134
1440.0	0.0001915	109.406000137
1440.0	0.0001912	109.453000069
1440.0	0.000191	109.485000134
1440.0	0.0001906	109.531000137
1440.0	0.0001906	109.578000069
1440.0	0.0001902	109.610000134
1440.0	0.0001902	109.656000137
1440.0	0.0001897	109.687999964
1440.0	0.0001896	109.735000134
1440.0	0.0001897	109.781000137
1440.0	0.00019	109.812999964
1440.0	0.0001901	109.860000134
1440.0	0.0001902	109.906000137
1440.0	0.0001906	109.937999964
1440.0	0.0001903	109.985000134
1450.0	0.0001925	110.25
1450.0	0.0001933	110.29700017
1450.0	0.0001941	110.328000069
1450.0	0.0001946	110.375
1450.0	0.0001951	110.406000137
1450.0	0.0001952	110.453000069
1450.0	0.0001956	110.5
1450.0	0.0001957	110.54700017
1450.0	0.0001958	110.578000069
1450.0	0.0001958	110.625
1450.0	0.0001958	110.656000137
1450.0	0.0001958	110.703000069
1450.0	0.0001956	110.75
1450.0	0.0001953	110.781000137
1450.0	0.0001953	110.828000069
1450.0	0.0001951	110.875
1450.0	0.0001951	110.906000137
1450.0	0.0001952	110.953000069
1450.0	0.0001953	111.0
1450.0	0.0001956	111.031000137
1450.0	0.0001957	111.078000069
1450.0	0.0001958	111.110000134
1450.0	0.0001957	111.156000137
1450.0	0.0001957	111.203000069
1450.0	0.0001958	111.235000134
1450.0	0.000196	111.281000137
1450.0	0.0001962	111.312999964
1450.0	0.0001962	111.360000134
1450.0	0.0001963	111.406000137
1450.0	0.0001965	111.437999964
1450.0	0.0001966	111.485000134
1450.0	0.0001963	111.531000137
1450.0	0.0001962	111.562999964
1450.0	0.000196	111.610000134
1450.0	0.0001958	111.656000137
1450.0	0.0001958	111.687999964
1450.0	0.0001956	111.735000134
1460.0	0.0001976	112.0
1460.0	0.0001983	112.04700017
1460.0	0.0001988	112.078000069
1460.0	0.0001993	112.125
1460.0	0.0001996	112.156000137
1460.0	0.0002	112.203000069
1460.0	0.0002001	112.25
1460.0	0.0002002	112.281000137
1460.0	0.0002003	112.328000069
1460.0	0.000201	112.375
1460.0	0.0002013	112.406000137
1460.0	0.0002012	112.453000069
1460.0	0.0002015	112.485000134
1460.0	0.0002012	112.531000137
1460.0	0.0002013	112.578000069
1460.0	0.0002016	112.610000134
1460.0	0.0002018	112.656000137
1460.0	0.000202	112.703000069
1460.0	0.0002022	112.735000134
1460.0	0.0002022	112.781000137
1460.0	0.0002021	112.812999964
1460.0	0.0002021	112.860000134
1460.0	0.0002022	112.906000137
1460.0	0.0002022	112.937999964
1460.0	0.0002022	112.985000134
1460.0	0.0002022	113.031000137
1460.0	0.0002025	113.062999964
1460.0	0.0002025	113.110000134
1460.0	0.0002025	113.156000137
1460.0	0.0002022	113.187999964
1460.0	0.000202	113.235000134
1460.0	0.0002018	113.266000032
1460.0	0.0002016	113.312999964
1460.0	0.0002016	113.360000134
1460.0	0.0002018	113.391000032
1460.0	0.0002016	113.437999964
1460.0	0.000202	113.485000134
1470.0	0.0002037	113.75
1470.0	0.0002041	113.781000137
1470.0	0.0002046	113.828000069
1470.0	0.000205	113.875
1470.0	0.000205	113.906000137
1470.0	0.000205	113.953000069
1470.0	0.000205	113.985000134
1470.0	0.000205	114.031000137
1470.0	0.0002052	114.078000069
1470.0	0.0002053	114.110000134
1470.0	0.0002057	114.156000137
1470.0	0.0002062	114.203000069
1470.0	0.0002062	114.235000134
1470.0	0.0002063	114.281000137
1470.0	0.0002063	114.312999964
1470.0	0.0002062	114.360000134
1470.0	0.0002062	114.406000137
1470.0	0.000206	114.453000069
1470.0	0.000206	114.485000134
1470.0	0.000206	114.531000137
1470.0	0.000206	114.562999964
1470.0	0.0002062	114.610000134
1470.0	0.000206	114.656000137
1470.0	0.0002056	114.703000069
1470.0	0.0002053	114.735000134
1470.0	0.0002053	114.781000137
1470.0	0.0002053	114.812999964
1470.0	0.0002053	114.860000134
1470.0	0.0002053	114.906000137
1470.0	0.0002052	114.937999964
1470.0	0.000205	114.985000134
1470.0	0.000205	115.031000137
1470.0	0.0002051	115.062999964
1470.0	0.0002051	115.110000134
1470.0	0.0002051	115.156000137
1470.0	0.0002051	115.187999964
1470.0	0.000205	115.235000134
1480.0	0.000206	115.5
1480.0	0.0002063	115.54700017
1480.0	0.0002068	115.578000069
1480.0	0.0002071	115.625
1480.0	0.0002072	115.67200017
1480.0	0.0002075	115.703000069
1480.0	0.0002078	115.75
1480.0	0.0002082	115.79700017
1480.0	0.0002083	115.828000069
1480.0	0.0002087	115.875
1480.0	0.0002087	115.906000137
1480.0	0.0002087	115.953000069
1480.0	0.0002083	116.0
1480.0	0.0002081	116.031000137
1480.0	0.0002082	116.078000069
1480.0	0.0002081	116.125
1480.0	0.0002078	116.156000137
1480.0	0.0002081	116.203000069
1480.0	0.0002081	116.25
1480.0	0.0002081	116.281000137
1480.0	0.0002082	116.328000069
1480.0	0.0002081	116.360000134
1480.0	0.0002082	116.406000137
1480.0	0.0002081	116.453000069
1480.0	0.0002081	116.485000134
1480.0	0.0002081	116.531000137
1480.0	0.0002077	116.562999964
1480.0	0.0002077	116.610000134
1480.0	0.0002077	116.656000137
1480.0	0.0002076	116.687999964
1480.0	0.0002075	116.735000134
1480.0	0.0002076	116.781000137
1480.0	0.0002075	116.812999964
1480.0	0.0002071	116.860000134
1480.0	0.000207	116.891000032
1480.0	0.0002071	116.937999964
1480.0	0.0002075	116.985000134
1490.0	0.0002077	117.25
1490.0	0.0002078	117.29700017
1490.0	0.0002081	117.328000069
1490.0	0.0002087	117.375
1490.0	0.000209	117.42200017
1490.0	0.0002091	117.453000069
1490.0	0.0002091	117.5
1490.0	0.0002093	117.54700017
1490.0	0.0002093	117.578000069
1490.0	0.0002095	117.625
1490.0	0.0002096	117.656000137
1490.0	0.0002095	117.703000069
1490.0	0.0002097	117.75
1490.0	0.0002097	117.781000137
1490.0	0.00021	117.828000069
1490.0	0.0002097	117.875
1490.0	0.0002096	117.906000137
1490.0	0.0002097	117.953000069
1490.0	0.00021	117.985000134
1490.0	0.0002101	118.031000137
1490.0	0.0002102	118.078000069
1490.0	0.0002102	118.110000134
1490.0	0.00021	118.156000137
1490.0	0.00021	118.203000069
1490.0	0.0002097	118.25
1490.0	0.00021	118.281000137
1490.0	0.00021	118.328000069
1490.0	0.00021	118.360000134
1490.0	0.0002093	118.406000137
1490.0	0.000209	118.453000069
1490.0	0.0002087	118.485000134
1490.0	0.0002088	118.531000137
1490.0	0.0002093	118.562999964
1490.0	0.0002093	118.610000134
1490.0	0.0002095	118.656000137
1490.0	0.0002095	118.687999964
1490.0	0.0002093	118.735000134
1500.0	0.0002096	119.0
1500.0	0.0002096	119.04700017
1500.0	0.0002096	119.094000101
1500.0	0.00021	119.125
1500.0	0.0002102	119.17200017
1500.0	0.0002106	119.219000101
1500.0	0.0002107	119.25
1500.0	0.0002108	119.29700017
1500.0	0.0002108	119.328000069
1500.0	0.0002112	119.375
1500.0	0.0002112	119.42200017
1500.0	0.0002113	119.453000069
1500.0	0.0002112	119.5
1500.0	0.000211	119.54700017
1500.0	0.0002107	119.578000069
1500.0	0.0002107	119.625
1500.0	0.0002106	119.656000137
1500.0	0.0002106	119.703000069
1500.0	0.0002107	119.75
1500.0	0.0002107	119.781000137
1500.0	0.0002107	119.828000069
1500.0	0.0002107	119.875
1500.0	0.0002106	119.906000137
1500.0	0.0002106	119.953000069
1500.0	0.0002106	119.985000134
1500.0	0.000211	120.031000137
1500.0	0.0002115	120.078000069
1500.0	0.0002115	120.110000134
1500.0	0.0002113	120.156000137
1500.0	0.000211	120.203000069
1500.0	0.0002108	120.235000134
1500.0	0.0002108	120.281000137
1500.0	0.0002107	120.312999964
1500.0	0.0002103	120.360000134
1500.0	0.0002102	120.406000137
1500.0	0.0002102	120.437999964
1500.0	0.0002106	120.485000134
1510.0	0.000211	120.75
1510.0	0.0002112	120.79700017
1510.0	0.0002112	120.844000101
1510.0	0.000211	120.875
1510.0	0.0002112	120.92200017
1510.0	0.0002112	120.953000069
1510.0	0.0002112	121.0
1510.0	0.0002112	121.04700017
1510.0	0.000211	121.078000069
1510.0	0.0002115	121.125
1510.0	0.000212	121.17200017
1510.0	0.0002122	121.203000069
1510.0	0.0002126	121.25
1510.0	0.0002132	121.29700017
1510.0	0.0002132	121.328000069
1510.0	0.0002133	121.375
1510.0	0.0002132	121.406000137
1510.0	0.0002131	121.453000069
1510.0	0.0002131	121.5
1510.0	0.0002127	121.531000137
1510.0	0.0002126	121.578000069
1510.0	0.0002125	121.625
1510.0	0.000212	121.656000137
1510.0	0.0002122	121.703000069
1510.0	0.0002128	121.735000134
1510.0	0.0002133	121.781000137
1510.0	0.0002133	121.828000069
1510.0	0.0002132	121.860000134
1510.0	0.0002127	121.906000137
1510.0	0.0002127	121.953000069
1510.0	0.0002126	121.985000134
1510.0	0.0002125	122.031000137
1510.0	0.000212	122.062999964
1510.0	0.0002116	122.110000134
1510.0	0.0002115	122.156000137
1510.0	0.0002115	122.187999964
1510.0	0.0002115	122.235000134
1520.0	0.0002116	122.516000032
1520.0	0.000212	122.54700017
1520.0	0.000212	122.594000101
1520.0	0.0002122	122.625
1520.0	0.0002126	122.67200017
1520.0	0.0002126	122.719000101
1520.0	0.0002125	122.75
1520.0	0.0002121	122.79700017
1520.0	0.000212	122.844000101
1520.0	0.000212	122.875
1520.0	0.0002121	122.92200017
1520.0	0.0002122	122.969000101
1520.0	0.0002122	123.0
1520.0	0.0002126	123.04700017
1520.0	0.0002126	123.078000069
1520.0	0.0002126	123.125
1520.0	0.0002127	123.17200017
1520.0	0.0002128	123.203000069
1520.0	0.0002127	123.25
1520.0	0.0002127	123.29700017
1520.0	0.0002126	123.328000069
1520.0	0.0002125	123.375
1520.0	0.0002121	123.406000137
1520.0	0.0002121	123.453000069
1520.0	0.0002122	123.5
1520.0	0.0002122	123.531000137
1520.0	0.0002122	123.578000069
1520.0	0.0002125	123.625
1520.0	0.0002125	123.656000137
1520.0	0.0002126	123.703000069
1520.0	0.0002126	123.735000134
1520.0	0.0002126	123.781000137
1520.0	0.0002126	123.828000069
1520.0	0.0002126	123.860000134
1520.0	0.0002126	123.906000137
1520.0	0.0002122	123.953000069
1520.0	0.0002122	123.985000134
1530.0	0.0002113	124.266000032
1530.0	0.0002116	124.29700017
1530.0	0.0002116	124.344000101
1530.0	0.0002116	124.391000032
1530.0	0.0002118	124.42200017
1530.0	0.0002121	124.469000101
1530.0	0.0002126	124.516000032
1530.0	0.0002126	124.54700017
1530.0	0.0002126	124.594000101
1530.0	0.0002125	124.625
1530.0	0.0002122	124.67200017
1530.0	0.0002125	124.719000101
1530.0	0.0002125	124.75
1530.0	0.0002122	124.79700017
1530.0	0.0002122	124.844000101
1530.0	0.0002125	124.875
1530.0	0.0002122	124.92200017
1530.0	0.0002118	124.969000101
1530.0	0.0002118	125.0
1530.0	0.000212	125.04700017
1530.0	0.0002118	125.078000069
1530.0	0.0002115	125.125
1530.0	0.0002113	125.17200017
1530.0	0.0002112	125.203000069
1530.0	0.0002113	125.25
1530.0	0.0002115	125.29700017
1530.0	0.0002115	125.328000069
1530.0	0.0002115	125.375
1530.0	0.0002115	125.42200017
1530.0	0.0002116	125.453000069
1530.0	0.0002115	125.5
1530.0	0.0002116	125.54700017
1530.0	0.0002116	125.578000069
1530.0	0.0002116	125.625
1530.0	0.0002118	125.656000137
1530.0	0.000212	125.703000069
1530.0	0.0002118	125.75
1540.0	0.0002106	126.016000032
1540.0	0.0002102	126.062999964
1540.0	0.00021	126.110000134
1540.0	0.0002101	126.141000032
1540.0	0.0002101	126.187999964
1540.0	0.0002102	126.219000101
1540.0	0.0002102	126.266000032
1540.0	0.0002102	126.312999964
1540.0	0.00021	126.344000101
1540.0	0.0002096	126.391000032
1540.0	0.0002093	126.437999964
1540.0	0.0002095	126.469000101
1540.0	0.00021	126.516000032
1540.0	0.0002101	126.54700017
1540.0	0.0002102	126.594000101
1540.0	0.0002106	126.641000032
1540.0	0.0002107	126.67200017
1540.0	0.0002108	126.719000101
1540.0	0.0002107	126.766000032
1540.0	0.0002103	126.79700017
1540.0	0.0002101	126.844000101
1540.0	0.00021	126.891000032
1540.0	0.0002097	126.92200017
1540.0	0.0002096	126.969000101
1540.0	0.0002097	127.0
1540.0	0.0002101	127.04700017
1540.0	0.0002101	127.094000101
1540.0	0.0002102	127.125
1540.0	0.00021	127.17200017
1540.0	0.0002096	127.219000101
1540.0	0.0002095	127.25
1540.0	0.0002095	127.29700017
1540.0	0.0002097	127.328000069
1540.0	0.00021	127.375
1540.0	0.00021	127.42200017
1540.0	0.00021	127.453000069
1540.0	0.00021	127.5
1550.0	0.000209	127.781000137
1550.0	0.0002083	127.812999964
1550.0	0.0002081	127.860000134
1550.0	0.0002077	127.891000032
1550.0	0.0002078	127.937999964
1550.0	0.0002081	127.985000134
1550.0	0.0002081	128.016000032
1550.0	0.0002078	128.062999964
1550.0	0.0002081	128.110000134
1550.0	0.0002083	128.141000032
1550.0	0.0002083	128.187999964
1550.0	0.0002083	128.235000134
1550.0	0.0002081	128.266000032
1550.0	0.0002082	128.312999964
1550.0	0.0002083	128.360000134
1550.0	0.0002085	128.391000032
1550.0	0.0002085	128.437999964
1550.0	0.0002085	128.469000101
1550.0	0.0002083	128.516000032
1550.0	0.0002083	128.562999964
1550.0	0.0002082	128.594000101
1550.0	0.0002085	128.641000032
1550.0	0.0002087	128.687999964
1550.0	0.000209	128.719000101
1550.0	0.0002093	128.766000032
1550.0	0.0002091	128.812999964
1550.0	0.000209	128.844000101
1550.0	0.000209	128.891000032
1550.0	0.0002088	128.92200017
1550.0	0.0002088	128.969000101
1550.0	0.0002087	129.016000032
1550.0	0.0002087	129.04700017
1550.0	0.0002088	129.094000101
1550.0	0.0002088	129.141000032
1550.0	0.0002088	129.17200017
1550.0	0.0002088	129.219000101
1550.0	0.0002088	129.25
1560.0	0.0002071	129.531000137
1560.0	0.0002065	129.578000069
1560.0	0.0002058	129.610000134
1560.0	0.0002056	129.656000137
1560.0	0.0002053	129.703000069
1560.0	0.0002052	129.735000134
1560.0	0.0002052	129.781000137
1560.0	0.000205	129.812999964
1560.0	0.0002045	129.860000134
1560.0	0.0002043	129.906000137
1560.0	0.000204	129.937999964
1560.0	0.0002038	129.985000134
1560.0	0.0002037	130.031000137
1560.0	0.0002037	130.062999964
1560.0	0.0002033	130.110000134
1560.0	0.0002033	130.141000032
1560.0	0.0002032	130.187999964
1560.0	0.0002028	130.235000134
1560.0	0.0002028	130.266000032
1560.0	0.0002027	130.312999964
1560.0	0.0002026	130.360000134
1560.0	0.0002027	130.391000032
1560.0	0.0002027	130.437999964
1560.0	0.0002027	130.485000134
1560.0	0.0002028	130.516000032
1560.0	0.0002028	130.562999964
1560.0	0.0002031	130.594000101
1560.0	0.0002028	130.641000032
1560.0	0.0002027	130.687999964
1560.0	0.0002027	130.719000101
1560.0	0.0002027	130.766000032
1560.0	0.0002027	130.812999964
1560.0	0.0002025	130.844000101
1560.0	0.0002026	130.891000032
1560.0	0.0002028	130.92200017
1560.0	0.0002031	130.969000101
1560.0	0.0002033	131.016000032
1570.0	0.000201	131.29700017
1570.0	0.0002001	131.328000069
1570.0	0.0001993	131.375
1570.0	0.0001985	131.42200017
1570.0	0.0001977	131.453000069
1570.0	0.0001972	131.5
1570.0	0.0001968	131.54700017
1570.0	0.0001966	131.578000069
1570.0	0.0001965	131.625
1570.0	0.0001963	131.67200017
1570.0	0.0001962	131.703000069
1570.0	0.0001962	131.75
1570.0	0.0001962	131.781000137
1570.0	0.0001965	131.828000069
1570.0	0.0001966	131.875
1570.0	0.0001966	131.906000137
1570.0	0.0001965	131.953000069
1570.0	0.0001965	132.0
1570.0	0.0001966	132.031000137
1570.0	0.000197	132.078000069
1570.0	0.0001971	132.110000134
1570.0	0.0001975	132.156000137
1570.0	0.0001972	132.203000069
1570.0	0.0001971	132.235000134
1570.0	0.0001972	132.281000137
1570.0	0.0001971	132.328000069
1570.0	0.0001971	132.360000134
1570.0	0.0001971	132.406000137
1570.0	0.000197	132.437999964
1570.0	0.0001968	132.485000134
1570.0	0.0001965	132.531000137
1570.0	0.0001963	132.562999964
1570.0	0.0001965	132.610000134
1570.0	0.0001963	132.656000137
1570.0	0.0001962	132.687999964
1570.0	0.0001962	132.735000134
1570.0	0.000196	132.766000032
1580.0	0.0001928	133.04700017
1580.0	0.0001921	133.094000101
1580.0	0.0001915	133.125
1580.0	0.0001907	133.17200017
1580.0	0.00019	133.219000101
1580.0	0.0001896	133.25
1580.0	0.0001891	133.29700017
1580.0	0.0001887	133.344000101
1580.0	0.0001882	133.375
1580.0	0.0001881	133.42200017
1580.0	0.0001881	133.453000069
1580.0	0.0001878	133.5
1580.0	0.0001881	133.54700017
1580.0	0.0001883	133.594000101
1580.0	0.0001883	133.625
1580.0	0.0001885	133.67200017
1580.0	0.0001881	133.703000069
1580.0	0.0001878	133.75
1580.0	0.0001878	133.79700017
1580.0	0.0001881	133.828000069
1580.0	0.0001881	133.875
1580.0	0.0001876	133.92200017
1580.0	0.0001876	133.953000069
1580.0	0.0001875	134.0
1580.0	0.0001875	134.031000137
1580.0	0.0001876	134.078000069
1580.0	0.0001876	134.125
1580.0	0.0001876	134.156000137
1580.0	0.0001875	134.203000069
1580.0	0.0001875	134.25
1580.0	0.0001875	134.281000137
1580.0	0.0001872	134.328000069
1580.0	0.0001875	134.375
1580.0	0.0001872	134.406000137
1580.0	0.0001872	134.453000069
1580.0	0.0001872	134.485000134
1580.0	0.0001876	134.531000137
1590.0	0.0001827	134.812999964
1590.0	0.000181	134.844000101
1590.0	0.0001796	134.891000032
1590.0	0.0001785	134.937999964
1590.0	0.0001777	134.969000101
1590.0	0.0001771	135.016000032
1590.0	0.0001765	135.04700017
1590.0	0.0001763	135.094000101
1590.0	0.0001762	135.141000032
1590.0	0.000176	135.17200017
1590.0	0.0001758	135.219000101
1590.0	0.0001757	135.266000032
1590.0	0.000176	135.29700017
1590.0	0.0001763	135.344000101
1590.0	0.0001763	135.375
1590.0	0.0001762	135.42200017
1590.0	0.0001758	135.469000101
1590.0	0.0001757	135.5
1590.0	0.0001756	135.54700017
1590.0	0.0001752	135.594000101
1590.0	0.000175	135.625
1590.0	0.000175	135.67200017
1590.0	0.000175	135.703000069
1590.0	0.0001751	135.75
1590.0	0.0001752	135.79700017
1590.0	0.0001756	135.828000069
1590.0	0.0001753	135.875
1590.0	0.0001752	135.92200017
1590.0	0.0001752	135.953000069
1590.0	0.0001753	136.0
1590.0	0.0001752	136.031000137
1590.0	0.0001752	136.078000069
1590.0	0.0001752	136.125
1590.0	0.0001752	136.156000137
1590.0	0.0001753	136.203000069
1590.0	0.0001756	136.25
1590.0	0.0001757	136.281000137
1600.0	0.000171	136.562999964
1600.0	0.0001691	136.594000101
1600.0	0.0001677	136.641000032
1600.0	0.0001668	136.687999964
1600.0	0.0001662	136.719000101
1600.0	0.0001653	136.766000032
1600.0	0.0001647	136.812999964
1600.0	0.0001646	136.844000101
1600.0	0.0001645	136.891000032
1600.0	0.0001643	136.92200017
1600.0	0.0001641	136.969000101
1600.0	0.000164	137.016000032
1600.0	0.0001637	137.04700017
1600.0	0.0001633	137.094000101
1600.0	0.0001633	137.141000032
1600.0	0.0001632	137.17200017
1600.0	0.0001632	137.219000101
1600.0	0.0001633	137.266000032
1600.0	0.0001637	137.29700017
1600.0	0.000164	137.344000101
1600.0	0.0001638	137.375
1600.0	0.000164	137.42200017
1600.0	0.0001643	137.469000101
1600.0	0.0001643	137.5
1600.0	0.0001643	137.54700017
1600.0	0.0001641	137.594000101
1600.0	0.000164	137.625
1600.0	0.000164	137.67200017
1600.0	0.000164	137.719000101
1600.0	0.000164	137.75
1600.0	0.0001638	137.79700017
1600.0	0.000164	137.844000101
1600.0	0.0001641	137.875
1600.0	0.0001641	137.92200017
1600.0	0.0001641	137.953000069
1600.0	0.0001643	138.0
1600.0	0.0001641	138.04700017
1610.0	0.0001588	138.328000069
1610.0	0.0001572	138.360000134
1610.0	0.0001562	138.406000137
1610.0	0.000155	138.437999964
1610.0	0.000154	138.485000134
1610.0	0.0001531	138.531000137
1610.0	0.0001522	138.562999964
1610.0	0.0001518	138.610000134
1610.0	0.0001513	138.656000137
1610.0	0.000151	138.687999964
1610.0	0.000151	138.735000134
1610.0	0.0001512	138.766000032
1610.0	0.000151	138.812999964
1610.0	0.0001507	138.860000134
1610.0	0.0001506	138.891000032
1610.0	0.0001506	138.937999964
1610.0	0.0001502	138.985000134
1610.0	0.0001503	139.016000032
1610.0	0.0001502	139.062999964
1610.0	0.0001501	139.110000134
1610.0	0.0001501	139.141000032
1610.0	0.00015	139.187999964
1610.0	0.0001497	139.235000134
1610.0	0.0001495	139.266000032
1610.0	0.0001491	139.312999964
1610.0	0.0001491	139.360000134
1610.0	0.000149	139.391000032
1610.0	0.000149	139.437999964
1610.0	0.000149	139.469000101
1610.0	0.0001487	139.516000032
1610.0	0.0001487	139.562999964
1610.0	0.0001485	139.594000101
1610.0	0.0001485	139.641000032
1610.0	0.0001483	139.687999964
1610.0	0.0001485	139.719000101
1610.0	0.0001488	139.766000032
1610.0	0.000149	139.812999964
1620.0	0.0001427	140.078000069
1620.0	0.000141	140.125
1620.0	0.0001396	140.17200017
1620.0	0.0001387	140.203000069
1620.0	0.0001382	140.25
1620.0	0.0001376	140.29700017
1620.0	0.000137	140.328000069
1620.0	0.0001363	140.375
1620.0	0.0001358	140.406000137
1620.0	0.0001356	140.453000069
1620.0	0.0001353	140.5
1620.0	0.0001351	140.531000137
1620.0	0.0001347	140.578000069
1620.0	0.0001346	140.625
1620.0	0.0001346	140.656000137
1620.0	0.0001346	140.703000069
1620.0	0.0001343	140.735000134
1620.0	0.000134	140.781000137
1620.0	0.000134	140.828000069
1620.0	0.0001345	140.860000134
1620.0	0.0001343	140.906000137
1620.0	0.0001343	140.953000069
1620.0	0.0001343	140.985000134
1620.0	0.0001346	141.031000137
1620.0	0.0001345	141.062999964
1620.0	0.0001341	141.110000134
1620.0	0.000134	141.156000137
1620.0	0.000134	141.187999964
1620.0	0.0001341	141.235000134
1620.0	0.0001341	141.281000137
1620.0	0.0001341	141.312999964
1620.0	0.0001338	141.360000134
1620.0	0.0001337	141.391000032
1620.0	0.0001333	141.437999964
1620.0	0.0001333	141.485000134
1620.0	0.0001333	141.516000032
1620.0	0.0001335	141.562999964
1630.0	0.0001293	141.844000101
1630.0	0.0001277	141.891000032
1630.0	0.0001262	141.92200017
1630.0	0.0001251	141.969000101
1630.0	0.0001238	142.016000032
1630.0	0.0001227	142.04700017
1630.0	0.000122	142.094000101
1630.0	0.0001213	142.141000032
1630.0	0.0001213	142.17200017
1630.0	0.000121	142.219000101
1630.0	0.0001208	142.25
1630.0	0.0001208	142.29700017
1630.0	0.0001212	142.344000101
1630.0	0.0001215	142.375
1630.0	0.0001215	142.42200017
1630.0	0.0001213	142.469000101
1630.0	0.0001213	142.5
1630.0	0.0001212	142.54700017
1630.0	0.000121	142.578000069
1630.0	0.0001207	142.625
1630.0	0.0001203	142.67200017
1630.0	0.0001203	142.703000069
1630.0	0.0001206	142.75
1630.0	0.0001207	142.79700017
1630.0	0.000121	142.828000069
1630.0	0.000121	142.875
1630.0	0.000121	142.906000137
1630.0	0.0001212	142.953000069
1630.0	0.0001208	143.0
1630.0	0.0001207	143.031000137
1630.0	0.0001208	143.078000069
1630.0	0.0001207	143.125
1630.0	0.0001208	143.156000137
1630.0	0.000121	143.203000069
1630.0	0.0001212	143.25
1630.0	0.0001212	143.281000137
1630.0	0.000121	143.328000069
1640.0	0.0001153	143.610000134
1640.0	0.0001141	143.656000137
1640.0	0.0001127	143.687999964
1640.0	0.0001115	143.735000134
1640.0	0.0001102	143.766000032
1640.0	0.0001093	143.812999964
1640.0	0.0001088	143.860000134
1640.0	0.0001083	143.891000032
1640.0	0.0001082	143.937999964
1640.0	0.0001081	143.985000134
1640.0	0.0001076	144.016000032
1640.0	0.0001076	144.062999964
1640.0	0.0001076	144.094000101
1640.0	0.0001075	144.141000032
1640.0	0.0001076	144.187999964
1640.0	0.0001075	144.219000101
1640.0	0.0001072	144.266000032
1640.0	0.0001072	144.312999964
1640.0	0.000107	144.344000101
1640.0	0.0001068	144.391000032
1640.0	0.000107	144.42200017
1640.0	0.0001068	144.469000101
1640.0	0.0001066	144.516000032
1640.0	0.0001065	144.54700017
1640.0	0.0001063	144.594000101
1640.0	0.0001062	144.641000032
1640.0	0.0001058	144.67200017
1640.0	0.0001058	144.719000101
1640.0	0.0001058	144.766000032
1640.0	0.0001058	144.79700017
1640.0	0.0001062	144.844000101
1640.0	0.0001065	144.875
1640.0	0.0001068	144.92200017
1640.0	0.0001071	144.969000101
1640.0	0.0001075	145.0
1640.0	0.0001081	145.04700017
1640.0	0.0001082	145.094000101
1650.0	0.0001025	145.375
1650.0	0.0001008	145.42200017
1650.0	9.95e-05	145.453000069
1650.0	9.88e-05	145.485000134
1650.0	9.83e-05	145.531000137
1650.0	9.77e-05	145.562999964
1650.0	9.72e-05	145.594000101
1650.0	9.71e-05	145.641000032
1650.0	9.68e-05	145.67200017
1650.0	9.65e-05	145.719000101
1650.0	9.62e-05	145.75
1650.0	9.57e-05	145.781000137
1650.0	9.52e-05	145.828000069
1650.0	9.51e-05	145.860000134
1650.0	9.51e-05	145.891000032
1650.0	9.52e-05	145.937999964
1650.0	9.53e-05	145.969000101
1650.0	9.52e-05	146.0
1650.0	9.52e-05	146.04700017
1650.0	9.53e-05	146.078000069
1650.0	9.53e-05	146.125
1650.0	9.56e-05	146.156000137
1650.0	9.56e-05	146.203000069
1650.0	9.56e-05	146.235000134
1650.0	9.56e-05	146.266000032
1650.0	9.56e-05	146.312999964
1650.0	9.56e-05	146.344000101
1650.0	9.56e-05	146.375
1650.0	9.56e-05	146.42200017
1650.0	9.56e-05	146.453000069
1650.0	9.52e-05	146.485000134
1650.0	9.51e-05	146.531000137
1650.0	9.5e-05	146.562999964
1650.0	9.47e-05	146.610000134
1650.0	9.47e-05	146.641000032
1650.0	9.47e-05	146.67200017
1650.0	9.47e-05	146.719000101
1650.0	9.5e-05	146.75
1650.0	9.5e-05	146.781000137
1650.0	9.5e-05	146.828000069
1660.0	9.15e-05	147.094000101
1660.0	9e-05	147.141000032
1660.0	8.87e-05	147.17200017
1660.0	8.76e-05	147.219000101
1660.0	8.66e-05	147.25
1660.0	8.57e-05	147.281000137
1660.0	8.52e-05	147.328000069
1660.0	8.47e-05	147.360000134
1660.0	8.43e-05	147.391000032
1660.0	8.43e-05	147.437999964
1660.0	8.43e-05	147.469000101
1660.0	8.41e-05	147.516000032
1660.0	8.4e-05	147.54700017
1660.0	8.38e-05	147.578000069
1660.0	8.35e-05	147.625
1660.0	8.37e-05	147.656000137
1660.0	8.38e-05	147.687999964
1660.0	8.38e-05	147.735000134
1660.0	8.38e-05	147.766000032
1660.0	8.4e-05	147.812999964
1660.0	8.4e-05	147.844000101
1660.0	8.4e-05	147.891000032
1660.0	8.37e-05	147.92200017
1660.0	8.35e-05	147.953000069
1660.0	8.37e-05	148.0
1660.0	8.38e-05	148.031000137
1660.0	8.37e-05	148.078000069
1660.0	8.4e-05	148.110000134
1660.0	8.4e-05	148.141000032
1660.0	8.43e-05	148.187999964
1660.0	8.45e-05	148.219000101
1660.0	8.46e-05	148.25
1660.0	8.46e-05	148.29700017
1660.0	8.46e-05	148.328000069
1660.0	8.47e-05	148.375
1660.0	8.47e-05	148.406000137
1660.0	8.45e-05	148.437999964
1660.0	8.43e-05	148.485000134
1660.0	8.41e-05	148.516000032
1660.0	8.4e-05	148.54700017
1660.0	8.4e-05	148.594000101
1670.0	8.03e-05	148.875
1670.0	7.95e-05	148.906000137
1670.0	7.87e-05	148.937999964
1670.0	7.78e-05	148.985000134
1670.0	7.75e-05	149.016000032
1670.0	7.7e-05	149.04700017
1670.0	7.62e-05	149.094000101
1670.0	7.58e-05	149.125
1670.0	7.56e-05	149.17200017
1670.0	7.51e-05	149.203000069
1670.0	7.46e-05	149.235000134
1670.0	7.41e-05	149.281000137
1670.0	7.35e-05	149.312999964
1670.0	7.32e-05	149.360000134
1670.0	7.28e-05	149.391000032
1670.0	7.28e-05	149.42200017
1670.0	7.32e-05	149.469000101
1670.0	7.37e-05	149.5
1670.0	7.38e-05	149.531000137
1670.0	7.45e-05	149.578000069
1670.0	7.47e-05	149.610000134
1670.0	7.5e-05	149.656000137
1670.0	7.47e-05	149.687999964
1670.0	7.45e-05	149.719000101
1670.0	7.43e-05	149.766000032
1670.0	7.41e-05	149.79700017
1670.0	7.41e-05	149.828000069
1670.0	7.45e-05	149.875
1670.0	7.47e-05	149.906000137
1670.0	7.47e-05	149.953000069
1670.0	7.47e-05	149.985000134
1670.0	7.47e-05	150.016000032
1670.0	7.5e-05	150.062999964
1670.0	7.5e-05	150.094000101
1670.0	7.52e-05	150.141000032
1670.0	7.53e-05	150.17200017
1670.0	7.51e-05	150.203000069
1670.0	7.46e-05	150.25
1670.0	7.45e-05	150.281000137
1670.0	7.43e-05	150.312999964
1670.0	7.45e-05	150.360000134
1680.0	7.16e-05	150.641000032
1680.0	7.07e-05	150.67200017
1680.0	7.01e-05	150.703000069
1680.0	6.95e-05	150.75
1680.0	6.9e-05	150.781000137
1680.0	6.83e-05	150.812999964
1680.0	6.78e-05	150.860000134
1680.0	6.76e-05	150.891000032
1680.0	6.75e-05	150.937999964
1680.0	6.71e-05	150.969000101
1680.0	6.7e-05	151.0
1680.0	6.66e-05	151.04700017
1680.0	6.65e-05	151.078000069
1680.0	6.66e-05	151.110000134
1680.0	6.66e-05	151.156000137
1680.0	6.66e-05	151.187999964
1680.0	6.66e-05	151.235000134
1680.0	6.68e-05	151.266000032
1680.0	6.7e-05	151.29700017
1680.0	6.7e-05	151.344000101
1680.0	6.71e-05	151.375
1680.0	6.75e-05	151.406000137
1680.0	6.75e-05	151.453000069
1680.0	6.75e-05	151.485000134
1680.0	6.76e-05	151.531000137
1680.0	6.77e-05	151.562999964
1680.0	6.76e-05	151.594000101
1680.0	6.75e-05	151.641000032
1680.0	6.75e-05	151.67200017
1680.0	6.75e-05	151.719000101
1680.0	6.72e-05	151.75
1680.0	6.72e-05	151.79700017
1680.0	6.75e-05	151.828000069
1680.0	6.75e-05	151.860000134
1680.0	6.75e-05	151.906000137
1680.0	6.75e-05	151.937999964
1680.0	6.75e-05	151.985000134
1680.0	6.75e-05	152.016000032
1680.0	6.76e-05	152.04700017
1680.0	6.75e-05	152.094000101
1690.0	6.41e-05	152.375
1690.0	6.33e-05	152.406000137
1690.0	6.26e-05	152.453000069
1690.0	6.18e-05	152.485000134
1690.0	6.12e-05	152.516000032
1690.0	6.06e-05	152.562999964
1690.0	6.03e-05	152.594000101
1690.0	6.03e-05	152.625
1690.0	6.03e-05	152.67200017
1690.0	6.03e-05	152.703000069
1690.0	6.02e-05	152.75
1690.0	6.01e-05	152.781000137
1690.0	6.01e-05	152.812999964
1690.0	6.01e-05	152.860000134
1690.0	6.02e-05	152.891000032
1690.0	6.03e-05	152.92200017
1690.0	6.06e-05	152.969000101
1690.0	6.06e-05	153.0
1690.0	6.06e-05	153.031000137
1690.0	6.06e-05	153.078000069
1690.0	6.06e-05	153.110000134
1690.0	6.03e-05	153.156000137
1690.0	6.03e-05	153.187999964
1690.0	6.03e-05	153.219000101
1690.0	6.02e-05	153.266000032
1690.0	6.01e-05	153.29700017
1690.0	6.02e-05	153.328000069
1690.0	6.06e-05	153.375
1690.0	6.06e-05	153.406000137
1690.0	6.07e-05	153.437999964
1690.0	6.06e-05	153.485000134
1690.0	6.06e-05	153.516000032
1690.0	6.02e-05	153.562999964
1690.0	6e-05	153.594000101
1690.0	5.96e-05	153.641000032
1690.0	5.96e-05	153.67200017
1690.0	5.97e-05	153.719000101
1690.0	6e-05	153.75
1690.0	6e-05	153.781000137
1690.0	6e-05	153.828000069
1700.0	5.83e-05	154.094000101
1700.0	5.75e-05	154.141000032
1700.0	5.66e-05	154.17200017
1700.0	5.6e-05	154.219000101
1700.0	5.56e-05	154.25
1700.0	5.51e-05	154.29700017
1700.0	5.5e-05	154.328000069
1700.0	5.47e-05	154.360000134
1700.0	5.47e-05	154.406000137
1700.0	5.5e-05	154.437999964
1700.0	5.47e-05	154.469000101
1700.0	5.46e-05	154.516000032
1700.0	5.45e-05	154.54700017
1700.0	5.45e-05	154.594000101
1700.0	5.43e-05	154.625
1700.0	5.4e-05	154.656000137
1700.0	5.4e-05	154.703000069
1700.0	5.4e-05	154.735000134
1700.0	5.4e-05	154.766000032
1700.0	5.41e-05	154.812999964
1700.0	5.43e-05	154.844000101
1700.0	5.43e-05	154.875
1700.0	5.45e-05	154.92200017
1700.0	5.43e-05	154.953000069
1700.0	5.43e-05	155.0
1700.0	5.41e-05	155.031000137
1700.0	5.4e-05	155.062999964
1700.0	5.37e-05	155.110000134
1700.0	5.35e-05	155.141000032
1700.0	5.32e-05	155.17200017
1700.0	5.33e-05	155.219000101
1700.0	5.33e-05	155.25
1700.0	5.31e-05	155.29700017
1700.0	5.31e-05	155.328000069
1700.0	5.28e-05	155.360000134
1700.0	5.27e-05	155.406000137
1700.0	5.26e-05	155.437999964
1700.0	5.26e-05	155.469000101
1700.0	5.26e-05	155.516000032
1700.0	5.27e-05	155.54700017
1700.0	5.28e-05	155.578000069
1710.0	5.16e-05	155.875
1710.0	5.1e-05	155.906000137
1710.0	5.02e-05	155.937999964
1710.0	4.97e-05	155.985000134
1710.0	4.91e-05	156.016000032
1710.0	4.88e-05	156.04700017
1710.0	4.87e-05	156.094000101
1710.0	4.85e-05	156.125
1710.0	4.83e-05	156.156000137
1710.0	4.82e-05	156.203000069
1710.0	4.81e-05	156.235000134
1710.0	4.76e-05	156.281000137
1710.0	4.75e-05	156.312999964
1710.0	4.75e-05	156.360000134
1710.0	4.75e-05	156.391000032
1710.0	4.75e-05	156.437999964
1710.0	4.76e-05	156.469000101
1710.0	4.76e-05	156.5
1710.0	4.76e-05	156.54700017
1710.0	4.76e-05	156.578000069
1710.0	4.76e-05	156.610000134
1710.0	4.77e-05	156.656000137
1710.0	4.77e-05	156.687999964
1710.0	4.76e-05	156.719000101
1710.0	4.75e-05	156.766000032
1710.0	4.76e-05	156.79700017
1710.0	4.76e-05	156.844000101
1710.0	4.77e-05	156.875
1710.0	4.78e-05	156.906000137
1710.0	4.78e-05	156.953000069
1710.0	4.78e-05	156.985000134
1710.0	4.81e-05	157.016000032
1710.0	4.77e-05	157.062999964
1710.0	4.76e-05	157.094000101
1710.0	4.75e-05	157.141000032
1710.0	4.76e-05	157.17200017
1710.0	4.76e-05	157.203000069
1710.0	4.75e-05	157.25
1710.0	4.72e-05	157.281000137
1710.0	4.71e-05	157.312999964
1710.0	4.75e-05	157.360000134
1720.0	4.57e-05	157.625
1720.0	4.52e-05	157.67200017
1720.0	4.47e-05	157.703000069
1720.0	4.45e-05	157.735000134
1720.0	4.43e-05	157.781000137
1720.0	4.43e-05	157.812999964
1720.0	4.41e-05	157.860000134
1720.0	4.4e-05	157.891000032
1720.0	4.4e-05	157.92200017
1720.0	4.4e-05	157.969000101
1720.0	4.4e-05	158.0
1720.0	4.41e-05	158.04700017
1720.0	4.38e-05	158.078000069
1720.0	4.37e-05	158.125
1720.0	4.35e-05	158.156000137
1720.0	4.32e-05	158.187999964
1720.0	4.31e-05	158.235000134
1720.0	4.31e-05	158.266000032
1720.0	4.32e-05	158.29700017
1720.0	4.32e-05	158.344000101
1720.0	4.32e-05	158.375
1720.0	4.28e-05	158.42200017
1720.0	4.31e-05	158.453000069
1720.0	4.32e-05	158.485000134
1720.0	4.35e-05	158.531000137
1720.0	4.35e-05	158.562999964
1720.0	4.35e-05	158.594000101
1720.0	4.37e-05	158.641000032
1720.0	4.35e-05	158.67200017
1720.0	4.35e-05	158.703000069
1720.0	4.35e-05	158.75
1720.0	4.35e-05	158.781000137
1720.0	4.35e-05	158.828000069
1720.0	4.33e-05	158.860000134
1720.0	4.32e-05	158.891000032
1720.0	4.28e-05	158.937999964
1720.0	4.28e-05	158.969000101
1720.0	4.28e-05	159.0
1720.0	4.31e-05	159.04700017
1720.0	4.32e-05	159.078000069
1720.0	4.33e-05	159.125
1730.0	4.25e-05	159.391000032
1730.0	4.2e-05	159.437999964
1730.0	4.16e-05	159.469000101
1730.0	4.12e-05	159.5
1730.0	4.06e-05	159.54700017
1730.0	4.02e-05	159.578000069
1730.0	4e-05	159.625
1730.0	4e-05	159.656000137
1730.0	4.01e-05	159.687999964
1730.0	4.01e-05	159.735000134
1730.0	3.97e-05	159.766000032
1730.0	3.95e-05	159.79700017
1730.0	3.96e-05	159.844000101
1730.0	4e-05	159.875
1730.0	4.02e-05	159.906000137
1730.0	4.06e-05	159.953000069
1730.0	4.07e-05	159.985000134
1730.0	4.08e-05	160.031000137
1730.0	4.06e-05	160.062999964
1730.0	4.06e-05	160.094000101
1730.0	4.07e-05	160.141000032
1730.0	4.1e-05	160.17200017
1730.0	4.1e-05	160.203000069
1730.0	4.1e-05	160.25
1730.0	4.1e-05	160.281000137
1730.0	4.1e-05	160.312999964
1730.0	4.08e-05	160.360000134
1730.0	4.07e-05	160.391000032
1730.0	4.07e-05	160.437999964
1730.0	4.07e-05	160.469000101
1730.0	4.08e-05	160.5
1730.0	4.08e-05	160.54700017
1730.0	4.1e-05	160.578000069
1730.0	4.1e-05	160.625
1730.0	4.08e-05	160.656000137
1730.0	4.08e-05	160.687999964
1730.0	4.08e-05	160.735000134
1730.0	4.07e-05	160.766000032
1730.0	4.06e-05	160.812999964
1730.0	4.03e-05	160.844000101
1730.0	4.02e-05	160.875
1740.0	3.9e-05	161.203000069
1740.0	3.88e-05	161.235000134
1740.0	3.88e-05	161.266000032
1740.0	3.88e-05	161.312999964
1740.0	3.87e-05	161.344000101
1740.0	3.87e-05	161.391000032
1740.0	3.87e-05	161.42200017
1740.0	3.83e-05	161.453000069
1740.0	3.82e-05	161.5
1740.0	3.82e-05	161.531000137
1740.0	3.78e-05	161.562999964
1740.0	3.77e-05	161.610000134
1740.0	3.75e-05	161.641000032
1740.0	3.75e-05	161.687999964
1740.0	3.76e-05	161.719000101
1740.0	3.75e-05	161.766000032
1740.0	3.71e-05	161.79700017
1740.0	3.7e-05	161.828000069
1740.0	3.68e-05	161.875
1740.0	3.7e-05	161.906000137
1740.0	3.7e-05	161.937999964
1740.0	3.71e-05	161.985000134
1740.0	3.72e-05	162.016000032
1740.0	3.75e-05	162.04700017
1740.0	3.71e-05	162.094000101
1740.0	3.7e-05	162.125
1740.0	3.7e-05	162.17200017
1740.0	3.72e-05	162.203000069
1740.0	3.72e-05	162.235000134
1740.0	3.71e-05	162.281000137
1740.0	3.71e-05	162.312999964
1740.0	3.71e-05	162.344000101
1740.0	3.71e-05	162.391000032
1740.0	3.72e-05	162.42200017
1740.0	3.7e-05	162.453000069
1740.0	3.7e-05	162.5
1740.0	3.72e-05	162.531000137
1740.0	3.72e-05	162.578000069
1740.0	3.72e-05	162.610000134
1740.0	3.72e-05	162.641000032
1740.0	3.71e-05	162.687999964
1750.0	3.63e-05	162.969000101
1750.0	3.6e-05	163.0
1750.0	3.56e-05	163.031000137
1750.0	3.53e-05	163.078000069
1750.0	3.5e-05	163.110000134
1750.0	3.43e-05	163.141000032
1750.0	3.41e-05	163.187999964
1750.0	3.41e-05	163.219000101
1750.0	3.4e-05	163.25
1750.0	3.4e-05	163.29700017
1750.0	3.4e-05	163.328000069
1750.0	3.38e-05	163.375
1750.0	3.35e-05	163.406000137
1750.0	3.33e-05	163.437999964
1750.0	3.31e-05	163.485000134
1750.0	3.27e-05	163.516000032
1750.0	3.27e-05	163.54700017
1750.0	3.31e-05	163.594000101
1750.0	3.33e-05	163.625
1750.0	3.37e-05	163.656000137
1750.0	3.4e-05	163.703000069
1750.0	3.41e-05	163.735000134
1750.0	3.43e-05	163.781000137
1750.0	3.41e-05	163.812999964
1750.0	3.38e-05	163.844000101
1750.0	3.41e-05	163.891000032
1750.0	3.41e-05	163.92200017
1750.0	3.43e-05	163.953000069
1750.0	3.43e-05	164.0
1750.0	3.41e-05	164.031000137
1750.0	3.4e-05	164.062999964
1750.0	3.38e-05	164.110000134
1750.0	3.38e-05	164.141000032
1750.0	3.4e-05	164.187999964
1750.0	3.38e-05	164.219000101
1750.0	3.37e-05	164.25
1750.0	3.37e-05	164.29700017
1750.0	3.35e-05	164.328000069
1750.0	3.35e-05	164.360000134
1750.0	3.33e-05	164.406000137
1750.0	3.35e-05	164.437999964
1760.0	3.22e-05	164.719000101
1760.0	3.2e-05	164.75
1760.0	3.16e-05	164.79700017
1760.0	3.13e-05	164.828000069
1760.0	3.08e-05	164.875
1760.0	3.06e-05	164.906000137
1760.0	3.02e-05	164.937999964
1760.0	3e-05	164.985000134
1760.0	3e-05	165.016000032
1760.0	3e-05	165.04700017
1760.0	3.01e-05	165.094000101
1760.0	3.03e-05	165.125
1760.0	3.06e-05	165.156000137
1760.0	3.06e-05	165.203000069
1760.0	3.03e-05	165.235000134
1760.0	3.03e-05	165.266000032
1760.0	3.03e-05	165.312999964
1760.0	3.02e-05	165.344000101
1760.0	3.02e-05	165.391000032
1760.0	3.02e-05	165.42200017
1760.0	3.03e-05	165.453000069
1760.0	3.02e-05	165.5
1760.0	3.01e-05	165.531000137
1760.0	3.01e-05	165.562999964
1760.0	3e-05	165.610000134
1760.0	3e-05	165.641000032
1760.0	2.97e-05	165.687999964
1760.0	3e-05	165.719000101
1760.0	2.97e-05	165.75
1760.0	3.01e-05	165.79700017
1760.0	3.02e-05	165.828000069
1760.0	3.02e-05	165.860000134
1760.0	3.02e-05	165.906000137
1760.0	3.01e-05	165.937999964
1760.0	3.01e-05	165.969000101
1760.0	3e-05	166.016000032
1760.0	3.01e-05	166.04700017
1760.0	3.02e-05	166.094000101
1760.0	3.03e-05	166.125
1760.0	3.06e-05	166.156000137
1760.0	3.02e-05	166.203000069
1770.0	2.95e-05	166.485000134
1770.0	2.95e-05	166.516000032
1770.0	2.93e-05	166.562999964
1770.0	2.9e-05	166.594000101
1770.0	2.87e-05	166.641000032
1770.0	2.82e-05	166.67200017
1770.0	2.81e-05	166.703000069
1770.0	2.81e-05	166.75
1770.0	2.78e-05	166.781000137
1770.0	2.77e-05	166.812999964
1770.0	2.78e-05	166.860000134
1770.0	2.81e-05	166.891000032
1770.0	2.83e-05	166.92200017
1770.0	2.85e-05	166.969000101
1770.0	2.83e-05	167.0
1770.0	2.83e-05	167.04700017
1770.0	2.78e-05	167.078000069
1770.0	2.77e-05	167.110000134
1770.0	2.77e-05	167.156000137
1770.0	2.77e-05	167.187999964
1770.0	2.76e-05	167.219000101
1770.0	2.76e-05	167.266000032
1770.0	2.75e-05	167.29700017
1770.0	2.75e-05	167.344000101
1770.0	2.75e-05	167.375
1770.0	2.72e-05	167.406000137
1770.0	2.75e-05	167.453000069
1770.0	2.72e-05	167.485000134
1770.0	2.72e-05	167.531000137
1770.0	2.71e-05	167.562999964
1770.0	2.7e-05	167.594000101
1770.0	2.7e-05	167.641000032
1770.0	2.68e-05	167.67200017
1770.0	2.7e-05	167.703000069
1770.0	2.72e-05	167.75
1770.0	2.72e-05	167.781000137
1770.0	2.72e-05	167.812999964
1770.0	2.72e-05	167.860000134
1770.0	2.72e-05	167.891000032
1770.0	2.75e-05	167.937999964
1780.0	2.66e-05	168.203000069
1780.0	2.66e-05	168.25
1780.0	2.65e-05	168.281000137
1780.0	2.63e-05	168.328000069
1780.0	2.6e-05	168.360000134
1780.0	2.58e-05	168.391000032
1780.0	2.56e-05	168.437999964
1780.0	2.53e-05	168.469000101
1780.0	2.52e-05	168.5
1780.0	2.51e-05	168.54700017
1780.0	2.51e-05	168.578000069
1780.0	2.51e-05	168.610000134
1780.0	2.5e-05	168.656000137
1780.0	2.5e-05	168.687999964
1780.0	2.46e-05	168.735000134
1780.0	2.46e-05	168.766000032
1780.0	2.5e-05	168.79700017
1780.0	2.51e-05	168.844000101
1780.0	2.5e-05	168.875
1780.0	2.47e-05	168.906000137
1780.0	2.47e-05	168.953000069
1780.0	2.47e-05	168.985000134
1780.0	2.46e-05	169.016000032
1780.0	2.46e-05	169.062999964
1780.0	2.45e-05	169.094000101
1780.0	2.46e-05	169.141000032
1780.0	2.5e-05	169.17200017
1780.0	2.51e-05	169.203000069
1780.0	2.51e-05	169.25
1780.0	2.52e-05	169.281000137
1780.0	2.56e-05	169.312999964
1780.0	2.57e-05	169.360000134
1780.0	2.56e-05	169.391000032
1780.0	2.51e-05	169.437999964
1780.0	2.5e-05	169.469000101
1780.0	2.5e-05	169.5
1780.0	2.47e-05	169.54700017
1780.0	2.47e-05	169.578000069
1780.0	2.47e-05	169.610000134
1780.0	2.5e-05	169.656000137
1780.0	2.52e-05	169.687999964
1790.0	2.5e-05	169.969000101
1790.0	2.41e-05	170.016000032
1790.0	2.35e-05	170.04700017
1790.0	2.33e-05	170.078000069
1790.0	2.32e-05	170.125
1790.0	2.28e-05	170.156000137
1790.0	2.27e-05	170.187999964
1790.0	2.27e-05	170.235000134
1790.0	2.27e-05	170.266000032
1790.0	2.26e-05	170.312999964
1790.0	2.22e-05	170.344000101
1790.0	2.21e-05	170.391000032
1790.0	2.2e-05	170.42200017
1790.0	2.18e-05	170.453000069
1790.0	2.18e-05	170.5
1790.0	2.18e-05	170.531000137
1790.0	2.2e-05	170.562999964
1790.0	2.2e-05	170.610000134
1790.0	2.2e-05	170.641000032
1790.0	2.2e-05	170.67200017
1790.0	2.21e-05	170.719000101
1790.0	2.18e-05	170.75
1790.0	2.16e-05	170.79700017
1790.0	2.16e-05	170.828000069
1790.0	2.16e-05	170.860000134
1790.0	2.15e-05	170.906000137
1790.0	2.18e-05	170.937999964
1790.0	2.21e-05	170.969000101
1790.0	2.21e-05	171.016000032
1790.0	2.2e-05	171.04700017
1790.0	2.21e-05	171.078000069
1790.0	2.21e-05	171.125
1790.0	2.21e-05	171.156000137
1790.0	2.22e-05	171.203000069
1790.0	2.22e-05	171.235000134
1790.0	2.22e-05	171.266000032
1790.0	2.25e-05	171.312999964
1790.0	2.27e-05	171.344000101
1790.0	2.31e-05	171.375
1790.0	2.32e-05	171.42200017
1790.0	2.31e-05	171.453000069
1800.0	2.07e-05	171.735000134
1800.0	2.06e-05	171.781000137
1800.0	2.02e-05	171.812999964
1800.0	2.02e-05	171.844000101
1800.0	2.03e-05	171.891000032
1800.0	2.02e-05	171.92200017
1800.0	2.02e-05	171.953000069
1800.0	2.02e-05	172.0
1800.0	2.02e-05	172.031000137
1800.0	2.02e-05	172.078000069
1800.0	2.01e-05	172.110000134
1800.0	2e-05	172.141000032
1800.0	2.01e-05	172.187999964
1800.0	2.02e-05	172.219000101
1800.0	2.02e-05	172.266000032
1800.0	2.02e-05	172.29700017
1800.0	2.02e-05	172.328000069
1800.0	2e-05	172.375
1800.0	1.97e-05	172.406000137
1800.0	1.97e-05	172.453000069
1800.0	1.97e-05	172.485000134
1800.0	2.01e-05	172.516000032
1800.0	2.06e-05	172.562999964
1800.0	2.03e-05	172.594000101
1800.0	2.02e-05	172.641000032
1800.0	2.02e-05	172.67200017
1800.0	2.02e-05	172.703000069
1800.0	2.03e-05	172.75
1800.0	2.03e-05	172.781000137
1800.0	2.06e-05	172.812999964
1800.0	2.07e-05	172.860000134
1800.0	2.07e-05	172.891000032
1800.0	2.07e-05	172.92200017
1800.0	2.07e-05	172.969000101
1800.0	2.07e-05	173.0
1800.0	2.07e-05	173.04700017
1800.0	2.06e-05	173.078000069
1800.0	2.03e-05	173.110000134
1800.0	2.03e-05	173.156000137
1800.0	2.02e-05	173.187999964
1800.0	2e-05	173.219000101
