Your edit line - do NOT delete this line
Wavelength [nm], Voltage [V], Elapsed time [s]
900.0	2.28e-05	14.0160000324
900.0	2.25e-05	14.0629999638
900.0	2.25e-05	14.0940001011
900.0	2.2e-05	14.1410000324
900.0	2.18e-05	14.1879999638
900.0	2.18e-05	14.2190001011
900.0	2.18e-05	14.2660000324
900.0	2.18e-05	14.3129999638
900.0	2.2e-05	14.3440001011
900.0	2.25e-05	14.3910000324
900.0	2.25e-05	14.4219999313
900.0	2.28e-05	14.4690001011
900.0	2.3e-05	14.5160000324
900.0	2.3e-05	14.5469999313
900.0	2.28e-05	14.5940001011
900.0	2.25e-05	14.6410000324
900.0	2.2e-05	14.6719999313
900.0	2.2e-05	14.7190001011
900.0	2.2e-05	14.75
900.0	2.2e-05	14.7969999313
900.0	2.2e-05	14.8440001011
900.0	2.18e-05	14.875
900.0	2.18e-05	14.9219999313
900.0	2.18e-05	14.9690001011
900.0	2.18e-05	15.0
900.0	2.18e-05	15.0469999313
900.0	2.18e-05	15.0940001011
900.0	2.18e-05	15.125
900.0	2.18e-05	15.1719999313
900.0	2.2e-05	15.2190001011
900.0	2.25e-05	15.25
900.0	2.28e-05	15.2969999313
900.0	2.3e-05	15.3440001011
900.0	2.3e-05	15.375
900.0	2.3e-05	15.4219999313
900.0	2.3e-05	15.4530000687
910.0	2.33e-05	15.7660000324
910.0	2.38e-05	15.8129999638
910.0	2.33e-05	15.8440001011
910.0	2.38e-05	15.8910000324
910.0	2.38e-05	15.9379999638
910.0	2.43e-05	15.9690001011
910.0	2.38e-05	16.0160000324
910.0	2.38e-05	16.0469999313
910.0	2.33e-05	16.0940001011
910.0	2.38e-05	16.1410000324
910.0	2.38e-05	16.1719999313
910.0	2.38e-05	16.2190001011
910.0	2.4e-05	16.2660000324
910.0	2.4e-05	16.2969999313
910.0	2.4e-05	16.3440001011
910.0	2.4e-05	16.3910000324
910.0	2.4e-05	16.4219999313
910.0	2.4e-05	16.4690001011
910.0	2.43e-05	16.5
910.0	2.45e-05	16.5469999313
910.0	2.45e-05	16.5940001011
910.0	2.43e-05	16.625
910.0	2.45e-05	16.6719999313
910.0	2.45e-05	16.7190001011
910.0	2.43e-05	16.75
910.0	2.43e-05	16.7969999313
910.0	2.43e-05	16.8280000687
910.0	2.43e-05	16.875
910.0	2.43e-05	16.9219999313
910.0	2.43e-05	16.9530000687
910.0	2.43e-05	17.0
910.0	2.4e-05	17.0469999313
910.0	2.43e-05	17.0780000687
910.0	2.4e-05	17.125
910.0	2.43e-05	17.1719999313
910.0	2.43e-05	17.2030000687
910.0	2.45e-05	17.25
920.0	2.5e-05	17.5469999313
920.0	2.45e-05	17.5940001011
920.0	2.45e-05	17.6410000324
920.0	2.5e-05	17.6719999313
920.0	2.5e-05	17.7190001011
920.0	2.5e-05	17.7660000324
920.0	2.53e-05	17.7969999313
920.0	2.53e-05	17.8440001011
920.0	2.55e-05	17.875
920.0	2.55e-05	17.9219999313
920.0	2.55e-05	17.9690001011
920.0	2.58e-05	18.0
920.0	2.63e-05	18.0469999313
920.0	2.63e-05	18.0940001011
920.0	2.65e-05	18.1410000324
920.0	2.63e-05	18.1719999313
920.0	2.65e-05	18.2190001011
920.0	2.65e-05	18.25
920.0	2.63e-05	18.2969999313
920.0	2.55e-05	18.3440001011
920.0	2.55e-05	18.375
920.0	2.55e-05	18.4219999313
920.0	2.55e-05	18.4690001011
920.0	2.55e-05	18.5
920.0	2.55e-05	18.5469999313
920.0	2.58e-05	18.5780000687
920.0	2.55e-05	18.625
920.0	2.58e-05	18.6719999313
920.0	2.63e-05	18.7030000687
920.0	2.63e-05	18.75
920.0	2.63e-05	18.7969999313
920.0	2.63e-05	18.8280000687
920.0	2.65e-05	18.875
920.0	2.65e-05	18.9070000648
920.0	2.63e-05	18.9530000687
920.0	2.63e-05	19.0
920.0	2.65e-05	19.0320000648
930.0	2.78e-05	19.3440001011
930.0	2.83e-05	19.375
930.0	2.88e-05	19.4219999313
930.0	2.9e-05	19.4690001011
930.0	2.88e-05	19.5
930.0	2.83e-05	19.5469999313
930.0	2.83e-05	19.5940001011
930.0	2.8e-05	19.625
930.0	2.8e-05	19.6719999313
930.0	2.83e-05	19.7030000687
930.0	2.83e-05	19.75
930.0	2.88e-05	19.7969999313
930.0	2.83e-05	19.8280000687
930.0	2.83e-05	19.875
930.0	2.8e-05	19.9219999313
930.0	2.8e-05	19.9530000687
930.0	2.8e-05	20.0
930.0	2.78e-05	20.0469999313
930.0	2.78e-05	20.0780000687
930.0	2.8e-05	20.125
930.0	2.8e-05	20.1570000648
930.0	2.8e-05	20.2030000687
930.0	2.8e-05	20.25
930.0	2.78e-05	20.2820000648
930.0	2.78e-05	20.3280000687
930.0	2.78e-05	20.375
930.0	2.78e-05	20.4070000648
930.0	2.78e-05	20.4530000687
930.0	2.78e-05	20.4849998951
930.0	2.78e-05	20.5320000648
930.0	2.78e-05	20.5780000687
930.0	2.8e-05	20.6099998951
930.0	2.8e-05	20.6570000648
930.0	2.8e-05	20.7030000687
930.0	2.78e-05	20.7349998951
930.0	2.75e-05	20.7820000648
930.0	2.7e-05	20.8129999638
940.0	2.83e-05	21.125
940.0	2.9e-05	21.1570000648
940.0	2.93e-05	21.2030000687
940.0	2.95e-05	21.25
940.0	2.95e-05	21.2820000648
940.0	3e-05	21.3280000687
940.0	3e-05	21.3599998951
940.0	3e-05	21.4070000648
940.0	3e-05	21.4530000687
940.0	3e-05	21.4849998951
940.0	3e-05	21.5320000648
940.0	2.95e-05	21.5780000687
940.0	2.95e-05	21.6099998951
940.0	3.03e-05	21.6570000648
940.0	3.03e-05	21.6879999638
940.0	3.05e-05	21.7349998951
940.0	3.08e-05	21.7820000648
940.0	3.05e-05	21.8129999638
940.0	3.05e-05	21.8599998951
940.0	3.08e-05	21.9070000648
940.0	3.08e-05	21.9379999638
940.0	3.08e-05	21.9849998951
940.0	3.08e-05	22.0160000324
940.0	3.05e-05	22.0629999638
940.0	3.03e-05	22.1099998951
940.0	3e-05	22.1410000324
940.0	3.03e-05	22.1879999638
940.0	3e-05	22.2349998951
940.0	3e-05	22.2660000324
940.0	3e-05	22.3129999638
940.0	3.03e-05	22.3440001011
940.0	3.05e-05	22.3910000324
940.0	3.03e-05	22.4379999638
940.0	3e-05	22.4690001011
940.0	2.95e-05	22.5160000324
940.0	2.95e-05	22.5629999638
940.0	2.95e-05	22.5940001011
950.0	3.15e-05	22.8910000324
950.0	3.18e-05	22.9379999638
950.0	3.18e-05	22.9690001011
950.0	3.18e-05	23.0160000324
950.0	3.18e-05	23.0469999313
950.0	3.25e-05	23.0940001011
950.0	3.25e-05	23.1410000324
950.0	3.28e-05	23.1719999313
950.0	3.3e-05	23.2190001011
950.0	3.28e-05	23.2660000324
950.0	3.28e-05	23.2969999313
950.0	3.28e-05	23.3440001011
950.0	3.28e-05	23.375
950.0	3.28e-05	23.4219999313
950.0	3.28e-05	23.4690001011
950.0	3.3e-05	23.5
950.0	3.28e-05	23.5469999313
950.0	3.28e-05	23.5940001011
950.0	3.25e-05	23.625
950.0	3.25e-05	23.6719999313
950.0	3.2e-05	23.7190001011
950.0	3.2e-05	23.75
950.0	3.2e-05	23.7969999313
950.0	3.18e-05	23.8280000687
950.0	3.2e-05	23.875
950.0	3.2e-05	23.9219999313
950.0	3.25e-05	23.9530000687
950.0	3.25e-05	24.0
950.0	3.25e-05	24.0469999313
950.0	3.25e-05	24.0780000687
950.0	3.25e-05	24.125
950.0	3.2e-05	24.1570000648
950.0	3.2e-05	24.2030000687
950.0	3.2e-05	24.25
950.0	3.2e-05	24.2820000648
950.0	3.25e-05	24.3280000687
950.0	3.25e-05	24.375
960.0	3.28e-05	24.6570000648
960.0	3.3e-05	24.7030000687
960.0	3.38e-05	24.7349998951
960.0	3.4e-05	24.7820000648
960.0	3.4e-05	24.8129999638
960.0	3.4e-05	24.8599998951
960.0	3.4e-05	24.9070000648
960.0	3.4e-05	24.9379999638
960.0	3.38e-05	24.9849998951
960.0	3.38e-05	25.0320000648
960.0	3.43e-05	25.0629999638
960.0	3.45e-05	25.1099998951
960.0	3.45e-05	25.1570000648
960.0	3.5e-05	25.1879999638
960.0	3.45e-05	25.2349998951
960.0	3.45e-05	25.2660000324
960.0	3.45e-05	25.3129999638
960.0	3.43e-05	25.3599998951
960.0	3.4e-05	25.3910000324
960.0	3.4e-05	25.4379999638
960.0	3.4e-05	25.4849998951
960.0	3.43e-05	25.5160000324
960.0	3.45e-05	25.5629999638
960.0	3.43e-05	25.5940001011
960.0	3.43e-05	25.6410000324
960.0	3.4e-05	25.6879999638
960.0	3.38e-05	25.7190001011
960.0	3.33e-05	25.7660000324
960.0	3.3e-05	25.8129999638
960.0	3.3e-05	25.8440001011
960.0	3.33e-05	25.8910000324
960.0	3.33e-05	25.9219999313
960.0	3.38e-05	25.9690001011
960.0	3.38e-05	26.0160000324
960.0	3.33e-05	26.0469999313
960.0	3.38e-05	26.0940001011
960.0	3.33e-05	26.1410000324
970.0	3.43e-05	26.4219999313
970.0	3.43e-05	26.4530000687
970.0	3.45e-05	26.5
970.0	3.5e-05	26.5469999313
970.0	3.53e-05	26.5780000687
970.0	3.53e-05	26.625
970.0	3.5e-05	26.6719999313
970.0	3.5e-05	26.7030000687
970.0	3.5e-05	26.75
970.0	3.53e-05	26.7820000648
970.0	3.55e-05	26.8280000687
970.0	3.55e-05	26.875
970.0	3.55e-05	26.9070000648
970.0	3.58e-05	26.9530000687
970.0	3.58e-05	27.0
970.0	3.55e-05	27.0320000648
970.0	3.55e-05	27.0780000687
970.0	3.55e-05	27.1099998951
970.0	3.55e-05	27.1570000648
970.0	3.55e-05	27.2030000687
970.0	3.58e-05	27.2349998951
970.0	3.58e-05	27.2820000648
970.0	3.55e-05	27.3280000687
970.0	3.55e-05	27.3599998951
970.0	3.53e-05	27.4070000648
970.0	3.53e-05	27.4379999638
970.0	3.53e-05	27.4849998951
970.0	3.53e-05	27.5320000648
970.0	3.53e-05	27.5629999638
970.0	3.53e-05	27.6099998951
970.0	3.53e-05	27.6570000648
970.0	3.53e-05	27.6879999638
970.0	3.55e-05	27.7349998951
970.0	3.58e-05	27.7820000648
970.0	3.63e-05	27.8129999638
970.0	3.63e-05	27.8599998951
970.0	3.58e-05	27.8910000324
980.0	3.63e-05	28.1719999313
980.0	3.68e-05	28.2190001011
980.0	3.75e-05	28.2660000324
980.0	3.78e-05	28.2969999313
980.0	3.78e-05	28.3440001011
980.0	3.8e-05	28.3910000324
980.0	3.8e-05	28.4219999313
980.0	3.83e-05	28.4690001011
980.0	3.8e-05	28.5160000324
980.0	3.78e-05	28.5469999313
980.0	3.78e-05	28.5940001011
980.0	3.75e-05	28.625
980.0	3.75e-05	28.6719999313
980.0	3.75e-05	28.7190001011
980.0	3.75e-05	28.75
980.0	3.78e-05	28.7969999313
980.0	3.78e-05	28.8440001011
980.0	3.8e-05	28.875
980.0	3.8e-05	28.9219999313
980.0	3.78e-05	28.9530000687
980.0	3.8e-05	29.0
980.0	3.8e-05	29.0469999313
980.0	3.8e-05	29.0780000687
980.0	3.8e-05	29.125
980.0	3.75e-05	29.1719999313
980.0	3.75e-05	29.2030000687
980.0	3.75e-05	29.25
980.0	3.75e-05	29.2820000648
980.0	3.75e-05	29.3280000687
980.0	3.78e-05	29.375
980.0	3.78e-05	29.4070000648
980.0	3.78e-05	29.4530000687
980.0	3.78e-05	29.5
980.0	3.78e-05	29.5320000648
980.0	3.8e-05	29.5780000687
980.0	3.8e-05	29.6099998951
980.0	3.83e-05	29.6570000648
990.0	3.78e-05	29.9379999638
990.0	3.8e-05	29.9849998951
990.0	3.88e-05	30.0160000324
990.0	3.9e-05	30.0629999638
990.0	3.93e-05	30.1099998951
990.0	3.95e-05	30.1410000324
990.0	4e-05	30.1879999638
990.0	4e-05	30.2190001011
990.0	3.95e-05	30.2660000324
990.0	3.95e-05	30.3129999638
990.0	3.93e-05	30.3440001011
990.0	3.93e-05	30.3910000324
990.0	3.93e-05	30.4379999638
990.0	3.93e-05	30.4690001011
990.0	3.93e-05	30.5160000324
990.0	3.93e-05	30.5469999313
990.0	3.93e-05	30.5940001011
990.0	3.93e-05	30.6410000324
990.0	3.95e-05	30.6719999313
990.0	4e-05	30.7190001011
990.0	4.03e-05	30.7660000324
990.0	4.05e-05	30.7969999313
990.0	4.08e-05	30.8440001011
990.0	4.08e-05	30.875
990.0	4.08e-05	30.9219999313
990.0	4.05e-05	30.9690001011
990.0	4.05e-05	31.0160000324
990.0	4.05e-05	31.0469999313
990.0	4.05e-05	31.0940001011
990.0	4.03e-05	31.1410000324
990.0	4e-05	31.1719999313
990.0	4e-05	31.2190001011
990.0	4e-05	31.25
990.0	4e-05	31.2969999313
990.0	4e-05	31.3440001011
990.0	4e-05	31.375
990.0	4.03e-05	31.4219999313
1000.0	4.05e-05	31.7030000687
1000.0	4.08e-05	31.7349998951
1000.0	4.13e-05	31.7820000648
1000.0	4.18e-05	31.8280000687
1000.0	4.18e-05	31.8599998951
1000.0	4.18e-05	31.9070000648
1000.0	4.25e-05	31.9530000687
1000.0	4.25e-05	31.9849998951
1000.0	4.28e-05	32.0320000648
1000.0	4.25e-05	32.0629999638
1000.0	4.28e-05	32.1099998951
1000.0	4.28e-05	32.1570000648
1000.0	4.3e-05	32.1879999638
1000.0	4.3e-05	32.2349998951
1000.0	4.28e-05	32.2820000648
1000.0	4.28e-05	32.3129999638
1000.0	4.28e-05	32.3599998951
1000.0	4.28e-05	32.3910000324
1000.0	4.25e-05	32.4379999638
1000.0	4.2e-05	32.4849998951
1000.0	4.25e-05	32.5160000324
1000.0	4.28e-05	32.5629999638
1000.0	4.28e-05	32.6099998951
1000.0	4.28e-05	32.6410000324
1000.0	4.25e-05	32.6879999638
1000.0	4.28e-05	32.7190001011
1000.0	4.28e-05	32.7660000324
1000.0	4.28e-05	32.8129999638
1000.0	4.28e-05	32.8440001011
1000.0	4.28e-05	32.8910000324
1000.0	4.28e-05	32.9379999638
1000.0	4.28e-05	32.9690001011
1000.0	4.28e-05	33.0160000324
1000.0	4.25e-05	33.0629999638
1000.0	4.2e-05	33.0940001011
1000.0	4.2e-05	33.1410000324
1000.0	4.2e-05	33.1719999313
1010.0	4.38e-05	33.4530000687
1010.0	4.4e-05	33.5
1010.0	4.4e-05	33.5469999313
1010.0	4.43e-05	33.5780000687
1010.0	4.45e-05	33.625
1010.0	4.5e-05	33.6570000648
1010.0	4.5e-05	33.7030000687
1010.0	4.5e-05	33.75
1010.0	4.5e-05	33.7820000648
1010.0	4.5e-05	33.8280000687
1010.0	4.5e-05	33.875
1010.0	4.53e-05	33.9070000648
1010.0	4.55e-05	33.9530000687
1010.0	4.58e-05	33.9849998951
1010.0	4.55e-05	34.0320000648
1010.0	4.53e-05	34.0780000687
1010.0	4.5e-05	34.1099998951
1010.0	4.5e-05	34.1570000648
1010.0	4.5e-05	34.2030000687
1010.0	4.53e-05	34.2349998951
1010.0	4.53e-05	34.2820000648
1010.0	4.53e-05	34.3280000687
1010.0	4.55e-05	34.3599998951
1010.0	4.55e-05	34.4070000648
1010.0	4.58e-05	34.4379999638
1010.0	4.58e-05	34.4849998951
1010.0	4.58e-05	34.5320000648
1010.0	4.58e-05	34.5629999638
1010.0	4.58e-05	34.6099998951
1010.0	4.55e-05	34.6570000648
1010.0	4.53e-05	34.6879999638
1010.0	4.53e-05	34.7349998951
1010.0	4.53e-05	34.7820000648
1010.0	4.53e-05	34.8129999638
1010.0	4.55e-05	34.8599998951
1010.0	4.55e-05	34.9070000648
1010.0	4.55e-05	34.9379999638
1020.0	4.78e-05	35.2190001011
1020.0	4.83e-05	35.2660000324
1020.0	4.88e-05	35.3129999638
1020.0	4.88e-05	35.3440001011
1020.0	4.88e-05	35.3910000324
1020.0	4.88e-05	35.4219999313
1020.0	4.83e-05	35.4690001011
1020.0	4.83e-05	35.5160000324
1020.0	4.83e-05	35.5469999313
1020.0	4.88e-05	35.5940001011
1020.0	4.88e-05	35.6410000324
1020.0	4.83e-05	35.6719999313
1020.0	4.83e-05	35.7190001011
1020.0	4.83e-05	35.75
1020.0	4.8e-05	35.7969999313
1020.0	4.78e-05	35.8440001011
1020.0	4.8e-05	35.875
1020.0	4.88e-05	35.9219999313
1020.0	4.88e-05	35.9690001011
1020.0	4.9e-05	36.0
1020.0	4.9e-05	36.0469999313
1020.0	4.9e-05	36.0940001011
1020.0	4.88e-05	36.125
1020.0	4.88e-05	36.1719999313
1020.0	4.83e-05	36.2030000687
1020.0	4.8e-05	36.25
1020.0	4.8e-05	36.2969999313
1020.0	4.8e-05	36.3280000687
1020.0	4.88e-05	36.375
1020.0	4.88e-05	36.4219999313
1020.0	4.9e-05	36.4530000687
1020.0	4.9e-05	36.5
1020.0	4.93e-05	36.5320000648
1020.0	4.93e-05	36.5780000687
1020.0	4.93e-05	36.625
1020.0	4.93e-05	36.6570000648
1020.0	4.93e-05	36.7030000687
1030.0	4.95e-05	36.9849998951
1030.0	5.03e-05	37.0160000324
1030.0	5.05e-05	37.0629999638
1030.0	5.05e-05	37.1099998951
1030.0	5.05e-05	37.1410000324
1030.0	5.08e-05	37.1879999638
1030.0	5.13e-05	37.2349998951
1030.0	5.13e-05	37.2660000324
1030.0	5.13e-05	37.3129999638
1030.0	5.15e-05	37.3440001011
1030.0	5.15e-05	37.3910000324
1030.0	5.15e-05	37.4379999638
1030.0	5.15e-05	37.4690001011
1030.0	5.13e-05	37.5160000324
1030.0	5.13e-05	37.5629999638
1030.0	5.13e-05	37.5940001011
1030.0	5.13e-05	37.6410000324
1030.0	5.13e-05	37.6719999313
1030.0	5.08e-05	37.7190001011
1030.0	5.08e-05	37.7660000324
1030.0	5.13e-05	37.7969999313
1030.0	5.13e-05	37.8440001011
1030.0	5.13e-05	37.8910000324
1030.0	5.13e-05	37.9219999313
1030.0	5.13e-05	37.9690001011
1030.0	5.13e-05	38.0160000324
1030.0	5.13e-05	38.0469999313
1030.0	5.15e-05	38.0940001011
1030.0	5.15e-05	38.125
1030.0	5.15e-05	38.1719999313
1030.0	5.13e-05	38.2190001011
1030.0	5.15e-05	38.25
1030.0	5.15e-05	38.2969999313
1030.0	5.15e-05	38.3440001011
1030.0	5.18e-05	38.375
1030.0	5.18e-05	38.4219999313
1030.0	5.2e-05	38.4530000687
1040.0	5.28e-05	38.75
1040.0	5.33e-05	38.7820000648
1040.0	5.38e-05	38.8280000687
1040.0	5.43e-05	38.8599998951
1040.0	5.45e-05	38.9070000648
1040.0	5.5e-05	38.9530000687
1040.0	5.5e-05	38.9849998951
1040.0	5.5e-05	39.0320000648
1040.0	5.53e-05	39.0780000687
1040.0	5.5e-05	39.1099998951
1040.0	5.53e-05	39.1570000648
1040.0	5.53e-05	39.2030000687
1040.0	5.55e-05	39.2349998951
1040.0	5.58e-05	39.2820000648
1040.0	5.55e-05	39.3280000687
1040.0	5.55e-05	39.3599998951
1040.0	5.53e-05	39.4070000648
1040.0	5.53e-05	39.4530000687
1040.0	5.5e-05	39.4849998951
1040.0	5.5e-05	39.5320000648
1040.0	5.5e-05	39.5629999638
1040.0	5.5e-05	39.6099998951
1040.0	5.5e-05	39.6570000648
1040.0	5.5e-05	39.6879999638
1040.0	5.45e-05	39.7349998951
1040.0	5.45e-05	39.7820000648
1040.0	5.45e-05	39.8129999638
1040.0	5.45e-05	39.8599998951
1040.0	5.45e-05	39.8910000324
1040.0	5.5e-05	39.9379999638
1040.0	5.53e-05	39.9849998951
1040.0	5.53e-05	40.0160000324
1040.0	5.55e-05	40.0629999638
1040.0	5.55e-05	40.1099998951
1040.0	5.53e-05	40.1410000324
1040.0	5.53e-05	40.1879999638
1040.0	5.5e-05	40.2190001011
1050.0	5.65e-05	40.5
1050.0	5.68e-05	40.5469999313
1050.0	5.7e-05	40.5940001011
1050.0	5.75e-05	40.625
1050.0	5.8e-05	40.6719999313
1050.0	5.83e-05	40.7190001011
1050.0	5.88e-05	40.75
1050.0	5.88e-05	40.7969999313
1050.0	5.9e-05	40.8280000687
1050.0	5.9e-05	40.875
1050.0	5.9e-05	40.9219999313
1050.0	5.93e-05	40.9530000687
1050.0	5.93e-05	41.0
1050.0	5.95e-05	41.0469999313
1050.0	5.95e-05	41.0780000687
1050.0	6e-05	41.125
1050.0	6.03e-05	41.1719999313
1050.0	6.03e-05	41.2030000687
1050.0	6e-05	41.25
1050.0	6e-05	41.2969999313
1050.0	5.95e-05	41.3280000687
1050.0	5.93e-05	41.375
1050.0	5.9e-05	41.4070000648
1050.0	5.9e-05	41.4530000687
1050.0	5.93e-05	41.5
1050.0	5.93e-05	41.5320000648
1050.0	5.93e-05	41.5780000687
1050.0	5.95e-05	41.625
1050.0	5.95e-05	41.6570000648
1050.0	5.95e-05	41.7030000687
1050.0	5.95e-05	41.7349998951
1050.0	5.93e-05	41.7820000648
1050.0	5.93e-05	41.8280000687
1050.0	5.93e-05	41.8599998951
1050.0	5.95e-05	41.9070000648
1050.0	6e-05	41.9530000687
1050.0	6e-05	41.9849998951
1060.0	6.28e-05	42.2660000324
1060.0	6.33e-05	42.3129999638
1060.0	6.4e-05	42.3599998951
1060.0	6.45e-05	42.3910000324
1060.0	6.53e-05	42.4379999638
1060.0	6.58e-05	42.4690001011
1060.0	6.63e-05	42.5160000324
1060.0	6.68e-05	42.5629999638
1060.0	6.68e-05	42.5940001011
1060.0	6.68e-05	42.6410000324
1060.0	6.68e-05	42.6879999638
1060.0	6.68e-05	42.7190001011
1060.0	6.68e-05	42.7660000324
1060.0	6.68e-05	42.8129999638
1060.0	6.68e-05	42.8440001011
1060.0	6.7e-05	42.8910000324
1060.0	6.68e-05	42.9219999313
1060.0	6.68e-05	42.9690001011
1060.0	6.68e-05	43.0160000324
1060.0	6.68e-05	43.0469999313
1060.0	6.68e-05	43.0940001011
1060.0	6.68e-05	43.1410000324
1060.0	6.7e-05	43.1719999313
1060.0	6.7e-05	43.2190001011
1060.0	6.7e-05	43.25
1060.0	6.68e-05	43.2969999313
1060.0	6.65e-05	43.3440001011
1060.0	6.65e-05	43.375
1060.0	6.68e-05	43.4219999313
1060.0	6.68e-05	43.4690001011
1060.0	6.65e-05	43.5
1060.0	6.65e-05	43.5469999313
1060.0	6.65e-05	43.5940001011
1060.0	6.65e-05	43.625
1060.0	6.65e-05	43.6719999313
1060.0	6.63e-05	43.7030000687
1060.0	6.63e-05	43.75
1070.0	6.9e-05	44.0320000648
1070.0	7e-05	44.0780000687
1070.0	7.05e-05	44.1099998951
1070.0	7.13e-05	44.1570000648
1070.0	7.15e-05	44.1879999638
1070.0	7.2e-05	44.2349998951
1070.0	7.2e-05	44.2820000648
1070.0	7.25e-05	44.3129999638
1070.0	7.28e-05	44.3599998951
1070.0	7.28e-05	44.4070000648
1070.0	7.3e-05	44.4379999638
1070.0	7.3e-05	44.4849998951
1070.0	7.3e-05	44.5160000324
1070.0	7.3e-05	44.5629999638
1070.0	7.28e-05	44.6099998951
1070.0	7.28e-05	44.6410000324
1070.0	7.28e-05	44.6879999638
1070.0	7.28e-05	44.7349998951
1070.0	7.28e-05	44.7660000324
1070.0	7.2e-05	44.8129999638
1070.0	7.18e-05	44.8440001011
1070.0	7.18e-05	44.8910000324
1070.0	7.18e-05	44.9379999638
1070.0	7.18e-05	44.9690001011
1070.0	7.2e-05	45.0160000324
1070.0	7.25e-05	45.0629999638
1070.0	7.2e-05	45.0940001011
1070.0	7.2e-05	45.1410000324
1070.0	7.25e-05	45.1719999313
1070.0	7.25e-05	45.2190001011
1070.0	7.28e-05	45.2660000324
1070.0	7.28e-05	45.2969999313
1070.0	7.28e-05	45.3440001011
1070.0	7.3e-05	45.3910000324
1070.0	7.3e-05	45.4219999313
1070.0	7.28e-05	45.4690001011
1070.0	7.28e-05	45.5160000324
1080.0	7.55e-05	45.7820000648
1080.0	7.63e-05	45.8280000687
1080.0	7.68e-05	45.875
1080.0	7.75e-05	45.9070000648
1080.0	7.78e-05	45.9530000687
1080.0	7.88e-05	46.0
1080.0	7.9e-05	46.0320000648
1080.0	7.93e-05	46.0780000687
1080.0	7.93e-05	46.1099998951
1080.0	7.95e-05	46.1570000648
1080.0	8e-05	46.2030000687
1080.0	7.95e-05	46.2349998951
1080.0	8e-05	46.2820000648
1080.0	8.03e-05	46.3280000687
1080.0	8.03e-05	46.3599998951
1080.0	8.03e-05	46.4070000648
1080.0	8.03e-05	46.4379999638
1080.0	8.03e-05	46.4849998951
1080.0	8.05e-05	46.5320000648
1080.0	8.05e-05	46.5629999638
1080.0	8.05e-05	46.6099998951
1080.0	8.05e-05	46.6570000648
1080.0	8.08e-05	46.6879999638
1080.0	8.13e-05	46.7349998951
1080.0	8.15e-05	46.7660000324
1080.0	8.15e-05	46.8129999638
1080.0	8.13e-05	46.8599998951
1080.0	8.13e-05	46.8910000324
1080.0	8.13e-05	46.9379999638
1080.0	8.08e-05	46.9849998951
1080.0	8.08e-05	47.0160000324
1080.0	8.13e-05	47.0629999638
1080.0	8.13e-05	47.0940001011
1080.0	8.15e-05	47.1410000324
1080.0	8.13e-05	47.1879999638
1080.0	8.13e-05	47.2190001011
1080.0	8.13e-05	47.2660000324
1090.0	8.58e-05	47.5469999313
1090.0	8.7e-05	47.5780000687
1090.0	8.8e-05	47.625
1090.0	8.88e-05	47.6719999313
1090.0	8.93e-05	47.7030000687
1090.0	8.95e-05	47.75
1090.0	9e-05	47.7820000648
1090.0	9e-05	47.8280000687
1090.0	9e-05	47.875
1090.0	9e-05	47.9070000648
1090.0	9.03e-05	47.9530000687
1090.0	9.05e-05	48.0
1090.0	9.05e-05	48.0320000648
1090.0	9.05e-05	48.0780000687
1090.0	9.05e-05	48.1099998951
1090.0	9.05e-05	48.1570000648
1090.0	9.03e-05	48.2030000687
1090.0	9.03e-05	48.2349998951
1090.0	9.05e-05	48.2820000648
1090.0	9.05e-05	48.3280000687
1090.0	9.08e-05	48.3599998951
1090.0	9.05e-05	48.4070000648
1090.0	9.05e-05	48.4379999638
1090.0	9.08e-05	48.4849998951
1090.0	9.08e-05	48.5320000648
1090.0	9.08e-05	48.5629999638
1090.0	9.08e-05	48.6099998951
1090.0	9.05e-05	48.6570000648
1090.0	9.05e-05	48.6879999638
1090.0	9.05e-05	48.7349998951
1090.0	9.03e-05	48.7820000648
1090.0	9.05e-05	48.8129999638
1090.0	9.08e-05	48.8599998951
1090.0	9.08e-05	48.8910000324
1090.0	9.05e-05	48.9379999638
1090.0	9.03e-05	48.9849998951
1090.0	9.03e-05	49.0160000324
1100.0	9.33e-05	49.2969999313
1100.0	9.45e-05	49.3280000687
1100.0	9.58e-05	49.375
1100.0	9.7e-05	49.4219999313
1100.0	9.78e-05	49.4530000687
1100.0	9.88e-05	49.5
1100.0	9.9e-05	49.5320000648
1100.0	9.93e-05	49.5780000687
1100.0	9.95e-05	49.625
1100.0	0.0001	49.6570000648
1100.0	0.0001005	49.7030000687
1100.0	0.0001005	49.75
1100.0	0.0001005	49.7820000648
1100.0	0.0001003	49.8280000687
1100.0	0.0001	49.8599998951
1100.0	0.0001	49.9070000648
1100.0	0.0001003	49.9530000687
1100.0	0.0001	49.9849998951
1100.0	0.0001	50.0320000648
1100.0	0.0001	50.0780000687
1100.0	9.95e-05	50.1099998951
1100.0	9.93e-05	50.1570000648
1100.0	9.9e-05	50.1879999638
1100.0	9.93e-05	50.2349998951
1100.0	9.95e-05	50.2820000648
1100.0	9.95e-05	50.3129999638
1100.0	0.0001	50.3599998951
1100.0	0.0001	50.4070000648
1100.0	0.0001	50.4379999638
1100.0	0.0001003	50.4849998951
1100.0	0.0001005	50.5160000324
1100.0	0.0001008	50.5629999638
1100.0	0.0001013	50.6099998951
1100.0	0.0001013	50.6410000324
1100.0	0.0001013	50.6879999638
1100.0	0.0001013	50.7349998951
1100.0	0.0001013	50.7660000324
1110.0	0.0001055	51.0320000648
1110.0	0.0001075	51.0780000687
1110.0	0.000109	51.125
1110.0	0.0001103	51.1570000648
1110.0	0.0001113	51.2030000687
1110.0	0.0001118	51.2349998951
1110.0	0.0001125	51.2820000648
1110.0	0.0001128	51.3280000687
1110.0	0.0001133	51.3599998951
1110.0	0.0001138	51.4070000648
1110.0	0.0001143	51.4530000687
1110.0	0.0001145	51.4849998951
1110.0	0.000115	51.5320000648
1110.0	0.0001153	51.5780000687
1110.0	0.000115	51.6099998951
1110.0	0.0001145	51.6570000648
1110.0	0.0001145	51.6879999638
1110.0	0.000115	51.7349998951
1110.0	0.000115	51.7820000648
1110.0	0.000115	51.8129999638
1110.0	0.000115	51.8599998951
1110.0	0.0001153	51.9070000648
1110.0	0.0001153	51.9379999638
1110.0	0.0001153	51.9849998951
1110.0	0.0001153	52.0160000324
1110.0	0.0001153	52.0629999638
1110.0	0.000115	52.1099998951
1110.0	0.0001145	52.1410000324
1110.0	0.0001145	52.1879999638
1110.0	0.0001145	52.2349998951
1110.0	0.0001145	52.2660000324
1110.0	0.0001143	52.3129999638
1110.0	0.000114	52.3440001011
1110.0	0.000114	52.3910000324
1110.0	0.000114	52.4379999638
1110.0	0.000114	52.4690001011
1110.0	0.0001143	52.5160000324
1120.0	0.0001208	52.7820000648
1120.0	0.0001233	52.8280000687
1120.0	0.000125	52.8599998951
1120.0	0.0001263	52.9070000648
1120.0	0.000127	52.9530000687
1120.0	0.000128	52.9849998951
1120.0	0.0001283	53.0320000648
1120.0	0.0001288	53.0629999638
1120.0	0.000129	53.1099998951
1120.0	0.0001293	53.1570000648
1120.0	0.00013	53.1879999638
1120.0	0.0001303	53.2349998951
1120.0	0.0001303	53.2820000648
1120.0	0.0001305	53.3129999638
1120.0	0.0001308	53.3599998951
1120.0	0.0001305	53.4070000648
1120.0	0.0001305	53.4379999638
1120.0	0.0001305	53.4849998951
1120.0	0.0001303	53.5160000324
1120.0	0.00013	53.5629999638
1120.0	0.0001303	53.6099998951
1120.0	0.00013	53.6410000324
1120.0	0.0001295	53.6879999638
1120.0	0.0001295	53.7190001011
1120.0	0.0001295	53.7660000324
1120.0	0.0001295	53.8129999638
1120.0	0.0001295	53.8440001011
1120.0	0.0001295	53.8910000324
1120.0	0.00013	53.9379999638
1120.0	0.00013	53.9690001011
1120.0	0.0001295	54.0160000324
1120.0	0.00013	54.0629999638
1120.0	0.00013	54.0940001011
1120.0	0.0001295	54.1410000324
1120.0	0.0001295	54.1719999313
1120.0	0.00013	54.2190001011
1120.0	0.00013	54.2660000324
1130.0	0.000137	54.5320000648
1130.0	0.0001393	54.5629999638
1130.0	0.0001413	54.6099998951
1130.0	0.000143	54.6570000648
1130.0	0.0001443	54.6879999638
1130.0	0.0001455	54.7349998951
1130.0	0.0001465	54.7820000648
1130.0	0.0001475	54.8129999638
1130.0	0.000148	54.8599998951
1130.0	0.000149	54.8910000324
1130.0	0.0001493	54.9379999638
1130.0	0.00015	54.9849998951
1130.0	0.0001503	55.0160000324
1130.0	0.0001505	55.0629999638
1130.0	0.0001505	55.1099998951
1130.0	0.0001505	55.1410000324
1130.0	0.0001505	55.1879999638
1130.0	0.0001505	55.2349998951
1130.0	0.0001505	55.2660000324
1130.0	0.0001505	55.3129999638
1130.0	0.0001505	55.3599998951
1130.0	0.0001503	55.3910000324
1130.0	0.00015	55.4379999638
1130.0	0.00015	55.4690001011
1130.0	0.00015	55.5160000324
1130.0	0.0001503	55.5629999638
1130.0	0.0001508	55.5940001011
1130.0	0.0001508	55.6410000324
1130.0	0.0001513	55.6879999638
1130.0	0.0001513	55.7190001011
1130.0	0.0001508	55.7660000324
1130.0	0.0001505	55.8129999638
1130.0	0.0001505	55.8440001011
1130.0	0.0001508	55.8910000324
1130.0	0.0001513	55.9219999313
1130.0	0.0001515	55.9690001011
1130.0	0.0001515	56.0160000324
1140.0	0.00016	56.2820000648
1140.0	0.000163	56.3129999638
1140.0	0.0001658	56.3599998951
1140.0	0.0001683	56.4070000648
1140.0	0.0001705	56.4379999638
1140.0	0.000172	56.4849998951
1140.0	0.0001733	56.5320000648
1140.0	0.0001743	56.5629999638
1140.0	0.0001745	56.6099998951
1140.0	0.0001745	56.6410000324
1140.0	0.000175	56.6879999638
1140.0	0.000175	56.7349998951
1140.0	0.0001753	56.7660000324
1140.0	0.0001753	56.8129999638
1140.0	0.0001755	56.8599998951
1140.0	0.0001753	56.8910000324
1140.0	0.0001755	56.9379999638
1140.0	0.0001755	56.9690001011
1140.0	0.0001758	57.0160000324
1140.0	0.0001763	57.0629999638
1140.0	0.0001758	57.0940001011
1140.0	0.0001763	57.1410000324
1140.0	0.0001763	57.1879999638
1140.0	0.0001763	57.2190001011
1140.0	0.0001758	57.2660000324
1140.0	0.0001763	57.2969999313
1140.0	0.0001763	57.3440001011
1140.0	0.0001763	57.3910000324
1140.0	0.0001765	57.4219999313
1140.0	0.0001765	57.4690001011
1140.0	0.0001765	57.5160000324
1140.0	0.0001768	57.5469999313
1140.0	0.0001768	57.5940001011
1140.0	0.0001765	57.625
1140.0	0.0001768	57.6719999313
1140.0	0.0001765	57.7190001011
1140.0	0.0001765	57.75
1150.0	0.000187	58.0160000324
1150.0	0.0001913	58.0629999638
1150.0	0.0001945	58.1099998951
1150.0	0.0001975	58.1410000324
1150.0	0.0001993	58.1879999638
1150.0	0.0002008	58.2349998951
1150.0	0.0002025	58.2660000324
1150.0	0.000203	58.3129999638
1150.0	0.0002038	58.3440001011
1150.0	0.000204	58.3910000324
1150.0	0.0002045	58.4379999638
1150.0	0.000205	58.4690001011
1150.0	0.000205	58.5160000324
1150.0	0.0002053	58.5629999638
1150.0	0.0002053	58.5940001011
1150.0	0.0002053	58.6410000324
1150.0	0.0002053	58.6719999313
1150.0	0.0002055	58.7190001011
1150.0	0.0002058	58.7660000324
1150.0	0.0002063	58.7969999313
1150.0	0.0002063	58.8440001011
1150.0	0.0002065	58.8910000324
1150.0	0.0002068	58.9219999313
1150.0	0.0002068	58.9690001011
1150.0	0.0002065	59.0160000324
1150.0	0.0002065	59.0469999313
1150.0	0.0002063	59.0940001011
1150.0	0.0002058	59.125
1150.0	0.0002055	59.1719999313
1150.0	0.0002053	59.2190001011
1150.0	0.0002053	59.2660000324
1150.0	0.0002055	59.2969999313
1150.0	0.0002053	59.3440001011
1150.0	0.000205	59.375
1150.0	0.0002053	59.4219999313
1150.0	0.0002055	59.4690001011
1150.0	0.0002058	59.5
1160.0	0.0002188	59.7660000324
1160.0	0.000223	59.8129999638
1160.0	0.0002268	59.8599998951
1160.0	0.0002295	59.8910000324
1160.0	0.000232	59.9379999638
1160.0	0.000234	59.9849998951
1160.0	0.000235	60.0160000324
1160.0	0.0002363	60.0629999638
1160.0	0.0002368	60.0940001011
1160.0	0.000237	60.1410000324
1160.0	0.0002375	60.1879999638
1160.0	0.0002378	60.2190001011
1160.0	0.0002378	60.2660000324
1160.0	0.0002378	60.3129999638
1160.0	0.0002378	60.3440001011
1160.0	0.0002378	60.3910000324
1160.0	0.000238	60.4219999313
1160.0	0.000238	60.4690001011
1160.0	0.0002383	60.5160000324
1160.0	0.0002383	60.5469999313
1160.0	0.0002383	60.5940001011
1160.0	0.0002383	60.6410000324
1160.0	0.0002383	60.6719999313
1160.0	0.0002383	60.7190001011
1160.0	0.000238	60.7660000324
1160.0	0.000238	60.7969999313
1160.0	0.0002375	60.8440001011
1160.0	0.000237	60.875
1160.0	0.0002368	60.9219999313
1160.0	0.000237	60.9690001011
1160.0	0.0002375	61.0
1160.0	0.0002378	61.0469999313
1160.0	0.000238	61.0940001011
1160.0	0.0002378	61.125
1160.0	0.000238	61.1719999313
1160.0	0.0002383	61.2030000687
1160.0	0.0002383	61.25
1170.0	0.000253	61.5160000324
1170.0	0.0002578	61.5629999638
1170.0	0.000262	61.5940001011
1170.0	0.0002658	61.6410000324
1170.0	0.0002683	61.6879999638
1170.0	0.0002705	61.7190001011
1170.0	0.000272	61.7660000324
1170.0	0.000273	61.8129999638
1170.0	0.000274	61.8440001011
1170.0	0.0002743	61.8910000324
1170.0	0.0002745	61.9219999313
1170.0	0.000275	61.9690001011
1170.0	0.0002755	62.0160000324
1170.0	0.0002755	62.0469999313
1170.0	0.0002758	62.0940001011
1170.0	0.0002763	62.1410000324
1170.0	0.0002763	62.1719999313
1170.0	0.0002758	62.2190001011
1170.0	0.0002758	62.25
1170.0	0.0002763	62.2969999313
1170.0	0.0002765	62.3440001011
1170.0	0.0002765	62.375
1170.0	0.0002765	62.4219999313
1170.0	0.0002765	62.4690001011
1170.0	0.0002765	62.5
1170.0	0.0002763	62.5469999313
1170.0	0.0002763	62.5940001011
1170.0	0.0002763	62.625
1170.0	0.0002763	62.6719999313
1170.0	0.0002763	62.7030000687
1170.0	0.0002765	62.75
1170.0	0.0002765	62.7969999313
1170.0	0.0002763	62.8280000687
1170.0	0.0002763	62.875
1170.0	0.0002763	62.9219999313
1170.0	0.0002763	62.9530000687
1170.0	0.0002765	63.0
1180.0	0.0002913	63.2660000324
1180.0	0.0002968	63.3129999638
1180.0	0.0003013	63.3440001011
1180.0	0.0003045	63.3910000324
1180.0	0.000307	63.4379999638
1180.0	0.0003093	63.4690001011
1180.0	0.0003108	63.5160000324
1180.0	0.0003125	63.5629999638
1180.0	0.0003133	63.5940001011
1180.0	0.000314	63.6410000324
1180.0	0.000315	63.6719999313
1180.0	0.0003153	63.7190001011
1180.0	0.0003153	63.7660000324
1180.0	0.0003153	63.7969999313
1180.0	0.0003155	63.8440001011
1180.0	0.0003155	63.8910000324
1180.0	0.0003155	63.9219999313
1180.0	0.0003155	63.9690001011
1180.0	0.0003153	64.0
1180.0	0.0003153	64.0469999313
1180.0	0.0003155	64.0940001011
1180.0	0.0003158	64.1410000324
1180.0	0.0003155	64.1719999313
1180.0	0.0003158	64.2190001011
1180.0	0.0003158	64.25
1180.0	0.0003158	64.2969999313
1180.0	0.0003158	64.3440001011
1180.0	0.0003158	64.375
1180.0	0.0003158	64.4219999313
1180.0	0.0003158	64.4690001011
1180.0	0.0003163	64.5
1180.0	0.0003165	64.5469999313
1180.0	0.0003165	64.5940001011
1180.0	0.0003163	64.625
1180.0	0.0003158	64.6719999313
1180.0	0.0003163	64.7030000687
1180.0	0.0003163	64.75
1190.0	0.0003305	65.0160000324
1190.0	0.0003358	65.0629999638
1190.0	0.0003405	65.1099998951
1190.0	0.000344	65.1410000324
1190.0	0.0003468	65.1879999638
1190.0	0.000349	65.2190001011
1190.0	0.0003503	65.2660000324
1190.0	0.0003515	65.3129999638
1190.0	0.000352	65.3440001011
1190.0	0.000353	65.3910000324
1190.0	0.000354	65.4379999638
1190.0	0.0003545	65.4690001011
1190.0	0.000355	65.5160000324
1190.0	0.0003553	65.5629999638
1190.0	0.0003558	65.5940001011
1190.0	0.0003563	65.6410000324
1190.0	0.0003565	65.6719999313
1190.0	0.0003565	65.7190001011
1190.0	0.0003565	65.7660000324
1190.0	0.0003565	65.7969999313
1190.0	0.0003568	65.8440001011
1190.0	0.0003565	65.8910000324
1190.0	0.0003563	65.9219999313
1190.0	0.0003563	65.9690001011
1190.0	0.0003563	66.0160000324
1190.0	0.0003563	66.0469999313
1190.0	0.0003558	66.0940001011
1190.0	0.0003558	66.1410000324
1190.0	0.0003558	66.1719999313
1190.0	0.0003563	66.2190001011
1190.0	0.0003565	66.25
1190.0	0.0003563	66.2969999313
1190.0	0.0003563	66.3440001011
1190.0	0.0003558	66.375
1190.0	0.0003563	66.4219999313
1190.0	0.0003563	66.4690001011
1190.0	0.0003565	66.5
1200.0	0.0003715	66.7820000648
1200.0	0.0003768	66.8129999638
1200.0	0.0003815	66.8599998951
1200.0	0.000385	66.9070000648
1200.0	0.000388	66.9379999638
1200.0	0.0003905	66.9849998951
1200.0	0.000392	67.0160000324
1200.0	0.0003938	67.0629999638
1200.0	0.0003945	67.1099998951
1200.0	0.0003953	67.1410000324
1200.0	0.0003958	67.1879999638
1200.0	0.0003963	67.2349998951
1200.0	0.0003965	67.2660000324
1200.0	0.0003968	67.3129999638
1200.0	0.000397	67.3440001011
1200.0	0.0003975	67.3910000324
1200.0	0.0003978	67.4379999638
1200.0	0.000398	67.4690001011
1200.0	0.000398	67.5160000324
1200.0	0.000398	67.5629999638
1200.0	0.000398	67.5940001011
1200.0	0.0003978	67.6410000324
1200.0	0.000397	67.6719999313
1200.0	0.0003968	67.7190001011
1200.0	0.0003965	67.7660000324
1200.0	0.0003965	67.7969999313
1200.0	0.0003968	67.8440001011
1200.0	0.0003968	67.8910000324
1200.0	0.0003968	67.9219999313
1200.0	0.0003968	67.9690001011
1200.0	0.0003965	68.0160000324
1200.0	0.0003965	68.0469999313
1200.0	0.0003965	68.0940001011
1200.0	0.0003965	68.125
1200.0	0.0003965	68.1719999313
1200.0	0.0003965	68.2190001011
1200.0	0.0003968	68.25
1210.0	0.0004125	68.5160000324
1210.0	0.0004183	68.5629999638
1210.0	0.000423	68.6099998951
1210.0	0.000427	68.6410000324
1210.0	0.0004303	68.6879999638
1210.0	0.0004328	68.7190001011
1210.0	0.0004343	68.7660000324
1210.0	0.000435	68.8129999638
1210.0	0.0004358	68.8440001011
1210.0	0.0004365	68.8910000324
1210.0	0.0004365	68.9379999638
1210.0	0.0004368	68.9690001011
1210.0	0.0004368	69.0160000324
1210.0	0.0004368	69.0469999313
1210.0	0.0004368	69.0940001011
1210.0	0.0004368	69.1410000324
1210.0	0.000437	69.1719999313
1210.0	0.000437	69.2190001011
1210.0	0.0004375	69.2660000324
1210.0	0.0004375	69.2969999313
1210.0	0.000438	69.3440001011
1210.0	0.000438	69.3910000324
1210.0	0.000438	69.4219999313
1210.0	0.0004378	69.4690001011
1210.0	0.0004378	69.5
1210.0	0.0004378	69.5469999313
1210.0	0.000438	69.5940001011
1210.0	0.000438	69.625
1210.0	0.000438	69.6719999313
1210.0	0.000438	69.7190001011
1210.0	0.000438	69.75
1210.0	0.000438	69.7969999313
1210.0	0.000438	69.8280000687
1210.0	0.0004383	69.875
1210.0	0.0004388	69.9219999313
1210.0	0.000439	69.9530000687
1210.0	0.0004388	70.0
1220.0	0.0004518	70.2660000324
1220.0	0.000457	70.3129999638
1220.0	0.0004615	70.3440001011
1220.0	0.0004653	70.3910000324
1220.0	0.000468	70.4379999638
1220.0	0.0004705	70.4690001011
1220.0	0.000472	70.5160000324
1220.0	0.0004733	70.5469999313
1220.0	0.0004745	70.5940001011
1220.0	0.0004753	70.6410000324
1220.0	0.0004758	70.6719999313
1220.0	0.0004758	70.7190001011
1220.0	0.0004763	70.7660000324
1220.0	0.0004765	70.7969999313
1220.0	0.0004768	70.8440001011
1220.0	0.0004768	70.875
1220.0	0.0004768	70.9219999313
1220.0	0.0004768	70.9690001011
1220.0	0.000477	71.0
1220.0	0.0004775	71.0469999313
1220.0	0.0004778	71.0940001011
1220.0	0.000478	71.125
1220.0	0.0004778	71.1719999313
1220.0	0.0004775	71.2030000687
1220.0	0.000477	71.25
1220.0	0.0004768	71.2969999313
1220.0	0.0004765	71.3280000687
1220.0	0.0004765	71.375
1220.0	0.0004765	71.4219999313
1220.0	0.0004768	71.4690001011
1220.0	0.0004768	71.5
1220.0	0.000477	71.5469999313
1220.0	0.000477	71.5780000687
1220.0	0.0004775	71.625
1220.0	0.000478	71.6719999313
1220.0	0.0004778	71.7030000687
1220.0	0.0004775	71.75
1230.0	0.0004893	72.0160000324
1230.0	0.000494	72.0629999638
1230.0	0.0004978	72.0940001011
1230.0	0.0005013	72.1410000324
1230.0	0.000504	72.1879999638
1230.0	0.0005063	72.2190001011
1230.0	0.0005075	72.2660000324
1230.0	0.000508	72.2969999313
1230.0	0.000509	72.3440001011
1230.0	0.0005095	72.3910000324
1230.0	0.0005103	72.4219999313
1230.0	0.0005108	72.4690001011
1230.0	0.0005113	72.5160000324
1230.0	0.0005115	72.5469999313
1230.0	0.0005118	72.5940001011
1230.0	0.0005115	72.625
1230.0	0.0005115	72.6719999313
1230.0	0.0005115	72.7190001011
1230.0	0.000512	72.75
1230.0	0.0005125	72.7969999313
1230.0	0.0005125	72.8440001011
1230.0	0.0005125	72.875
1230.0	0.000512	72.9219999313
1230.0	0.000512	72.9530000687
1230.0	0.0005115	73.0
1230.0	0.0005115	73.0469999313
1230.0	0.0005115	73.0780000687
1230.0	0.0005118	73.125
1230.0	0.000512	73.1719999313
1230.0	0.000512	73.2030000687
1230.0	0.000512	73.25
1230.0	0.0005118	73.2969999313
1230.0	0.000512	73.3280000687
1230.0	0.0005118	73.375
1230.0	0.000512	73.4070000648
1230.0	0.0005118	73.4530000687
1230.0	0.000512	73.5
1240.0	0.0005245	73.7660000324
1240.0	0.0005288	73.7969999313
1240.0	0.0005325	73.8440001011
1240.0	0.0005355	73.8910000324
1240.0	0.0005378	73.9219999313
1240.0	0.0005393	73.9690001011
1240.0	0.0005403	74.0160000324
1240.0	0.0005408	74.0469999313
1240.0	0.0005413	74.0940001011
1240.0	0.0005418	74.125
1240.0	0.0005425	74.1719999313
1240.0	0.0005428	74.2190001011
1240.0	0.000543	74.25
1240.0	0.0005433	74.2969999313
1240.0	0.000543	74.3440001011
1240.0	0.000543	74.375
1240.0	0.000543	74.4219999313
1240.0	0.0005433	74.4530000687
1240.0	0.0005433	74.5
1240.0	0.0005438	74.5469999313
1240.0	0.0005438	74.5780000687
1240.0	0.000544	74.625
1240.0	0.000544	74.6719999313
1240.0	0.0005438	74.7030000687
1240.0	0.0005438	74.75
1240.0	0.0005438	74.7820000648
1240.0	0.000544	74.8280000687
1240.0	0.0005438	74.875
1240.0	0.000544	74.9070000648
1240.0	0.0005438	74.9530000687
1240.0	0.0005438	75.0
1240.0	0.0005438	75.0320000648
1240.0	0.0005438	75.0780000687
1240.0	0.0005438	75.125
1240.0	0.0005438	75.1570000648
1240.0	0.000544	75.2030000687
1240.0	0.0005443	75.2349998951
1250.0	0.000553	75.5
1250.0	0.0005568	75.5469999313
1250.0	0.00056	75.5940001011
1250.0	0.000562	75.625
1250.0	0.000564	75.6719999313
1250.0	0.0005655	75.7190001011
1250.0	0.0005668	75.75
1250.0	0.000568	75.7969999313
1250.0	0.0005688	75.8280000687
1250.0	0.0005693	75.875
1250.0	0.0005695	75.9219999313
1250.0	0.00057	75.9690001011
1250.0	0.0005705	76.0
1250.0	0.0005703	76.0469999313
1250.0	0.0005703	76.0940001011
1250.0	0.0005705	76.125
1250.0	0.0005705	76.1719999313
1250.0	0.0005705	76.2030000687
1250.0	0.0005705	76.25
1250.0	0.0005705	76.2969999313
1250.0	0.0005705	76.3440001011
1250.0	0.0005705	76.375
1250.0	0.0005703	76.4219999313
1250.0	0.00057	76.4530000687
1250.0	0.00057	76.5
1250.0	0.0005695	76.5469999313
1250.0	0.0005695	76.5780000687
1250.0	0.00057	76.625
1250.0	0.0005703	76.6719999313
1250.0	0.0005703	76.7030000687
1250.0	0.00057	76.75
1250.0	0.0005703	76.7969999313
1250.0	0.0005705	76.8280000687
1250.0	0.0005705	76.875
1250.0	0.0005705	76.9070000648
1250.0	0.0005705	76.9530000687
1250.0	0.0005703	77.0
1260.0	0.0005768	77.2660000324
1260.0	0.00058	77.2969999313
1260.0	0.000582	77.3440001011
1260.0	0.0005843	77.3910000324
1260.0	0.0005863	77.4219999313
1260.0	0.0005878	77.4690001011
1260.0	0.000589	77.5
1260.0	0.00059	77.5469999313
1260.0	0.0005903	77.5940001011
1260.0	0.0005905	77.625
1260.0	0.0005913	77.6719999313
1260.0	0.0005915	77.7190001011
1260.0	0.0005915	77.75
1260.0	0.0005915	77.7969999313
1260.0	0.0005915	77.8440001011
1260.0	0.0005913	77.875
1260.0	0.0005913	77.9219999313
1260.0	0.0005908	77.9530000687
1260.0	0.0005913	78.0
1260.0	0.0005913	78.0469999313
1260.0	0.0005915	78.0780000687
1260.0	0.0005913	78.125
1260.0	0.0005915	78.1719999313
1260.0	0.0005915	78.2030000687
1260.0	0.0005915	78.25
1260.0	0.0005915	78.2820000648
1260.0	0.0005915	78.3280000687
1260.0	0.0005918	78.375
1260.0	0.0005915	78.4070000648
1260.0	0.0005915	78.4530000687
1260.0	0.0005913	78.5
1260.0	0.0005913	78.5320000648
1260.0	0.0005913	78.5780000687
1260.0	0.0005913	78.6099998951
1260.0	0.0005915	78.6570000648
1260.0	0.0005913	78.7030000687
1260.0	0.0005908	78.7349998951
1270.0	0.0005965	79.0
1270.0	0.0005988	79.0469999313
1270.0	0.0006008	79.0940001011
1270.0	0.000602	79.1410000324
1270.0	0.0006033	79.1719999313
1270.0	0.0006043	79.2190001011
1270.0	0.0006055	79.25
1270.0	0.0006063	79.2969999313
1270.0	0.000607	79.3440001011
1270.0	0.0006075	79.375
1270.0	0.0006075	79.4219999313
1270.0	0.0006075	79.4690001011
1270.0	0.0006078	79.5
1270.0	0.0006078	79.5469999313
1270.0	0.0006078	79.5780000687
1270.0	0.0006078	79.625
1270.0	0.0006075	79.6719999313
1270.0	0.0006075	79.7030000687
1270.0	0.000607	79.75
1270.0	0.000607	79.7969999313
1270.0	0.000607	79.8280000687
1270.0	0.0006075	79.875
1270.0	0.0006075	79.9219999313
1270.0	0.0006078	79.9530000687
1270.0	0.000608	80.0
1270.0	0.000608	80.0320000648
1270.0	0.000608	80.0780000687
1270.0	0.0006078	80.125
1270.0	0.0006078	80.1570000648
1270.0	0.0006078	80.2030000687
1270.0	0.000608	80.25
1270.0	0.0006078	80.2820000648
1270.0	0.000608	80.3280000687
1270.0	0.0006078	80.3599998951
1270.0	0.0006078	80.4070000648
1270.0	0.0006078	80.4530000687
1270.0	0.000607	80.4849998951
1280.0	0.0006113	80.75
1280.0	0.0006125	80.7969999313
1280.0	0.0006138	80.8440001011
1280.0	0.000615	80.8910000324
1280.0	0.0006158	80.9219999313
1280.0	0.0006168	80.9690001011
1280.0	0.0006168	81.0
1280.0	0.0006168	81.0469999313
1280.0	0.0006168	81.0940001011
1280.0	0.0006168	81.125
1280.0	0.0006165	81.1719999313
1280.0	0.0006168	81.2190001011
1280.0	0.000617	81.25
1280.0	0.0006175	81.2969999313
1280.0	0.0006178	81.3280000687
1280.0	0.0006178	81.375
1280.0	0.0006175	81.4219999313
1280.0	0.0006175	81.4530000687
1280.0	0.0006175	81.5
1280.0	0.0006178	81.5469999313
1280.0	0.0006178	81.5780000687
1280.0	0.0006175	81.625
1280.0	0.0006175	81.6719999313
1280.0	0.0006175	81.7030000687
1280.0	0.0006175	81.75
1280.0	0.0006175	81.7820000648
1280.0	0.0006175	81.8280000687
1280.0	0.0006175	81.875
1280.0	0.0006175	81.9070000648
1280.0	0.0006178	81.9530000687
1280.0	0.000618	82.0
1280.0	0.0006183	82.0320000648
1280.0	0.0006183	82.0780000687
1280.0	0.000618	82.1099998951
1280.0	0.0006178	82.1570000648
1280.0	0.0006175	82.2030000687
1280.0	0.0006168	82.2349998951
1290.0	0.000619	82.5
1290.0	0.0006203	82.5469999313
1290.0	0.0006213	82.5940001011
1290.0	0.0006218	82.625
1290.0	0.0006225	82.6719999313
1290.0	0.000623	82.7190001011
1290.0	0.0006233	82.75
1290.0	0.0006238	82.7969999313
1290.0	0.0006238	82.8280000687
1290.0	0.0006238	82.875
1290.0	0.0006238	82.9219999313
1290.0	0.0006243	82.9530000687
1290.0	0.0006243	83.0
1290.0	0.000624	83.0469999313
1290.0	0.000624	83.0780000687
1290.0	0.0006238	83.125
1290.0	0.0006238	83.1570000648
1290.0	0.000623	83.2030000687
1290.0	0.000623	83.25
1290.0	0.000623	83.2820000648
1290.0	0.0006238	83.3280000687
1290.0	0.0006238	83.375
1290.0	0.000624	83.4070000648
1290.0	0.000624	83.4530000687
1290.0	0.000624	83.4849998951
1290.0	0.000624	83.5320000648
1290.0	0.0006238	83.5780000687
1290.0	0.000624	83.6099998951
1290.0	0.000624	83.6570000648
1290.0	0.0006238	83.7030000687
1290.0	0.0006238	83.7349998951
1290.0	0.0006233	83.7820000648
1290.0	0.0006233	83.8280000687
1290.0	0.0006233	83.8599998951
1290.0	0.0006233	83.9070000648
1290.0	0.0006238	83.9379999638
1290.0	0.0006238	83.9849998951
1300.0	0.0006245	84.25
1300.0	0.000625	84.2969999313
1300.0	0.0006253	84.3280000687
1300.0	0.0006255	84.375
1300.0	0.0006255	84.4219999313
1300.0	0.0006253	84.4530000687
1300.0	0.0006245	84.5
1300.0	0.0006243	84.5469999313
1300.0	0.0006243	84.5780000687
1300.0	0.0006243	84.625
1300.0	0.0006245	84.6570000648
1300.0	0.0006245	84.7030000687
1300.0	0.000625	84.75
1300.0	0.0006255	84.7820000648
1300.0	0.0006255	84.8280000687
1300.0	0.0006255	84.875
1300.0	0.0006255	84.9070000648
1300.0	0.0006253	84.9530000687
1300.0	0.0006253	84.9849998951
1300.0	0.0006255	85.0320000648
1300.0	0.0006253	85.0780000687
1300.0	0.0006253	85.1099998951
1300.0	0.0006255	85.1570000648
1300.0	0.0006255	85.2030000687
1300.0	0.0006255	85.2349998951
1300.0	0.0006255	85.2820000648
1300.0	0.0006253	85.3129999638
1300.0	0.0006253	85.3599998951
1300.0	0.000625	85.4070000648
1300.0	0.000625	85.4379999638
1300.0	0.000625	85.4849998951
1300.0	0.000625	85.5320000648
1300.0	0.000625	85.5629999638
1300.0	0.000625	85.6099998951
1300.0	0.0006255	85.6570000648
1300.0	0.0006258	85.6879999638
1300.0	0.0006258	85.7349998951
1310.0	0.0006243	86.0
1310.0	0.0006238	86.0469999313
1310.0	0.000623	86.0780000687
1310.0	0.0006228	86.125
1310.0	0.000623	86.1719999313
1310.0	0.0006228	86.2030000687
1310.0	0.000622	86.25
1310.0	0.0006215	86.2969999313
1310.0	0.0006215	86.3280000687
1310.0	0.0006213	86.375
1310.0	0.0006213	86.4070000648
1310.0	0.0006213	86.4530000687
1310.0	0.0006215	86.5
1310.0	0.0006215	86.5320000648
1310.0	0.0006218	86.5780000687
1310.0	0.0006218	86.625
1310.0	0.000622	86.6570000648
1310.0	0.0006225	86.7030000687
1310.0	0.0006225	86.7349998951
1310.0	0.0006225	86.7820000648
1310.0	0.000622	86.8280000687
1310.0	0.0006218	86.8599998951
1310.0	0.0006218	86.9070000648
1310.0	0.0006218	86.9530000687
1310.0	0.0006218	86.9849998951
1310.0	0.0006218	87.0320000648
1310.0	0.0006218	87.0629999638
1310.0	0.0006215	87.1099998951
1310.0	0.0006215	87.1570000648
1310.0	0.0006218	87.1879999638
1310.0	0.000622	87.2349998951
1310.0	0.000622	87.2820000648
1310.0	0.000622	87.3129999638
1310.0	0.000622	87.3599998951
1310.0	0.000622	87.4070000648
1310.0	0.000622	87.4379999638
1310.0	0.0006218	87.4849998951
1320.0	0.0006183	87.75
1320.0	0.000617	87.7969999313
1320.0	0.0006155	87.8440001011
1320.0	0.0006143	87.875
1320.0	0.0006138	87.9219999313
1320.0	0.000613	87.9530000687
1320.0	0.0006125	88.0
1320.0	0.0006128	88.0469999313
1320.0	0.000613	88.0780000687
1320.0	0.000613	88.125
1320.0	0.0006128	88.1719999313
1320.0	0.0006125	88.2030000687
1320.0	0.0006128	88.25
1320.0	0.0006128	88.2820000648
1320.0	0.000613	88.3280000687
1320.0	0.0006133	88.375
1320.0	0.0006138	88.4070000648
1320.0	0.0006133	88.4530000687
1320.0	0.0006133	88.5
1320.0	0.0006138	88.5320000648
1320.0	0.0006138	88.5780000687
1320.0	0.0006133	88.625
1320.0	0.000613	88.6570000648
1320.0	0.0006128	88.7030000687
1320.0	0.0006125	88.7349998951
1320.0	0.0006128	88.7820000648
1320.0	0.0006128	88.8280000687
1320.0	0.0006125	88.8599998951
1320.0	0.0006125	88.9070000648
1320.0	0.0006128	88.9530000687
1320.0	0.000613	88.9849998951
1320.0	0.0006133	89.0320000648
1320.0	0.0006138	89.0629999638
1320.0	0.0006133	89.1099998951
1320.0	0.0006138	89.1570000648
1320.0	0.0006138	89.1879999638
1320.0	0.0006138	89.2349998951
1330.0	0.000608	89.5160000324
1330.0	0.0006063	89.5469999313
1330.0	0.0006045	89.5940001011
1330.0	0.000603	89.625
1330.0	0.0006018	89.6719999313
1330.0	0.0006013	89.7190001011
1330.0	0.0006005	89.75
1330.0	0.0006	89.7969999313
1330.0	0.0005993	89.8440001011
1330.0	0.0005988	89.875
1330.0	0.0005983	89.9219999313
1330.0	0.0005983	89.9530000687
1330.0	0.000598	90.0
1330.0	0.0005978	90.0469999313
1330.0	0.0005975	90.0780000687
1330.0	0.000597	90.125
1330.0	0.0005965	90.1719999313
1330.0	0.0005963	90.2030000687
1330.0	0.0005965	90.25
1330.0	0.0005968	90.2969999313
1330.0	0.0005965	90.3280000687
1330.0	0.0005968	90.375
1330.0	0.0005975	90.4219999313
1330.0	0.0005978	90.4530000687
1330.0	0.000598	90.5
1330.0	0.0005983	90.5469999313
1330.0	0.000598	90.5780000687
1330.0	0.000598	90.625
1330.0	0.000598	90.6570000648
1330.0	0.0005978	90.7030000687
1330.0	0.0005978	90.75
1330.0	0.0005975	90.7820000648
1330.0	0.0005975	90.8280000687
1330.0	0.0005975	90.875
1330.0	0.0005975	90.9070000648
1330.0	0.0005978	90.9530000687
1330.0	0.0005975	90.9849998951
1340.0	0.0005895	91.2660000324
1340.0	0.0005865	91.2969999313
1340.0	0.000584	91.3440001011
1340.0	0.0005818	91.3910000324
1340.0	0.00058	91.4219999313
1340.0	0.0005788	91.4690001011
1340.0	0.0005778	91.5160000324
1340.0	0.0005768	91.5469999313
1340.0	0.0005765	91.5940001011
1340.0	0.0005765	91.625
1340.0	0.0005763	91.6719999313
1340.0	0.0005758	91.7190001011
1340.0	0.0005755	91.75
1340.0	0.0005753	91.7969999313
1340.0	0.000575	91.8440001011
1340.0	0.0005753	91.875
1340.0	0.0005755	91.9219999313
1340.0	0.0005755	91.9690001011
1340.0	0.0005755	92.0
1340.0	0.0005753	92.0469999313
1340.0	0.000575	92.0780000687
1340.0	0.0005745	92.125
1340.0	0.000575	92.1719999313
1340.0	0.000575	92.2030000687
1340.0	0.000575	92.25
1340.0	0.0005745	92.2969999313
1340.0	0.0005743	92.3280000687
1340.0	0.0005743	92.375
1340.0	0.000574	92.4070000648
1340.0	0.0005743	92.4530000687
1340.0	0.000575	92.5
1340.0	0.0005755	92.5320000648
1340.0	0.0005755	92.5780000687
1340.0	0.0005755	92.625
1340.0	0.0005755	92.6570000648
1340.0	0.0005753	92.7030000687
1340.0	0.000575	92.75
1350.0	0.0005645	93.0160000324
1350.0	0.0005615	93.0469999313
1350.0	0.000559	93.0940001011
1350.0	0.0005568	93.1410000324
1350.0	0.000555	93.1879999638
1350.0	0.0005538	93.2190001011
1350.0	0.0005525	93.2660000324
1350.0	0.0005518	93.2969999313
1350.0	0.0005515	93.3440001011
1350.0	0.0005513	93.3910000324
1350.0	0.0005513	93.4219999313
1350.0	0.0005515	93.4690001011
1350.0	0.0005515	93.5160000324
1350.0	0.0005515	93.5469999313
1350.0	0.0005515	93.5940001011
1350.0	0.0005518	93.625
1350.0	0.0005515	93.6719999313
1350.0	0.0005515	93.7190001011
1350.0	0.0005513	93.75
1350.0	0.0005513	93.7969999313
1350.0	0.0005508	93.8440001011
1350.0	0.0005513	93.875
1350.0	0.0005513	93.9219999313
1350.0	0.0005513	93.9690001011
1350.0	0.0005513	94.0
1350.0	0.0005508	94.0469999313
1350.0	0.0005513	94.0780000687
1350.0	0.0005508	94.125
1350.0	0.0005505	94.1719999313
1350.0	0.0005505	94.2030000687
1350.0	0.0005503	94.25
1350.0	0.0005503	94.2969999313
1350.0	0.0005503	94.3280000687
1350.0	0.0005503	94.375
1350.0	0.0005503	94.4070000648
1350.0	0.0005505	94.4530000687
1350.0	0.0005508	94.5
1360.0	0.0005418	94.7660000324
1360.0	0.0005388	94.7969999313
1360.0	0.0005363	94.8440001011
1360.0	0.0005343	94.8910000324
1360.0	0.000533	94.9379999638
1360.0	0.0005325	94.9690001011
1360.0	0.000532	95.0160000324
1360.0	0.0005318	95.0469999313
1360.0	0.0005315	95.0940001011
1360.0	0.0005313	95.1410000324
1360.0	0.0005305	95.1719999313
1360.0	0.0005305	95.2190001011
1360.0	0.0005303	95.2660000324
1360.0	0.00053	95.2969999313
1360.0	0.00053	95.3440001011
1360.0	0.00053	95.375
1360.0	0.00053	95.4219999313
1360.0	0.00053	95.4690001011
1360.0	0.00053	95.5
1360.0	0.0005295	95.5469999313
1360.0	0.0005295	95.5940001011
1360.0	0.0005295	95.625
1360.0	0.0005295	95.6719999313
1360.0	0.0005295	95.7030000687
1360.0	0.0005295	95.75
1360.0	0.0005295	95.7969999313
1360.0	0.0005295	95.8280000687
1360.0	0.0005295	95.875
1360.0	0.00053	95.9219999313
1360.0	0.0005295	95.9530000687
1360.0	0.00053	96.0
1360.0	0.00053	96.0469999313
1360.0	0.0005295	96.0780000687
1360.0	0.0005295	96.125
1360.0	0.0005293	96.1570000648
1360.0	0.0005293	96.2030000687
1360.0	0.000529	96.25
1370.0	0.00052	96.5160000324
1370.0	0.0005175	96.5469999313
1370.0	0.0005155	96.5940001011
1370.0	0.0005138	96.6410000324
1370.0	0.0005118	96.6719999313
1370.0	0.0005105	96.7190001011
1370.0	0.0005093	96.7660000324
1370.0	0.0005088	96.7969999313
1370.0	0.0005083	96.8440001011
1370.0	0.0005078	96.875
1370.0	0.0005075	96.9219999313
1370.0	0.000507	96.9690001011
1370.0	0.000507	97.0
1370.0	0.0005068	97.0469999313
1370.0	0.0005068	97.0940001011
1370.0	0.0005065	97.125
1370.0	0.0005065	97.1719999313
1370.0	0.0005068	97.2030000687
1370.0	0.0005075	97.25
1370.0	0.0005075	97.2969999313
1370.0	0.000507	97.3280000687
1370.0	0.000507	97.375
1370.0	0.0005075	97.4219999313
1370.0	0.0005075	97.4530000687
1370.0	0.000508	97.5
1370.0	0.000508	97.5320000648
1370.0	0.0005075	97.5780000687
1370.0	0.000507	97.625
1370.0	0.0005068	97.6570000648
1370.0	0.0005065	97.7030000687
1370.0	0.0005065	97.75
1370.0	0.0005068	97.7820000648
1370.0	0.0005065	97.8280000687
1370.0	0.0005065	97.875
1370.0	0.0005065	97.9070000648
1370.0	0.0005065	97.9530000687
1370.0	0.0005065	97.9849998951
1380.0	0.0004978	98.25
1380.0	0.0004943	98.2969999313
1380.0	0.0004918	98.3440001011
1380.0	0.0004893	98.375
1380.0	0.0004878	98.4219999313
1380.0	0.0004868	98.4690001011
1380.0	0.0004858	98.5
1380.0	0.0004853	98.5469999313
1380.0	0.0004853	98.5940001011
1380.0	0.0004853	98.625
1380.0	0.0004853	98.6719999313
1380.0	0.000485	98.7030000687
1380.0	0.0004845	98.75
1380.0	0.0004843	98.7969999313
1380.0	0.0004843	98.8280000687
1380.0	0.0004843	98.875
1380.0	0.0004843	98.9219999313
1380.0	0.0004845	98.9530000687
1380.0	0.0004845	99.0
1380.0	0.0004845	99.0320000648
1380.0	0.0004845	99.0780000687
1380.0	0.0004845	99.125
1380.0	0.0004845	99.1570000648
1380.0	0.0004845	99.2030000687
1380.0	0.0004843	99.25
1380.0	0.0004843	99.2820000648
1380.0	0.0004843	99.3280000687
1380.0	0.000484	99.375
1380.0	0.0004838	99.4070000648
1380.0	0.0004833	99.4530000687
1380.0	0.000483	99.5
1380.0	0.000483	99.5320000648
1380.0	0.000483	99.5780000687
1380.0	0.000483	99.6099998951
1380.0	0.0004833	99.6570000648
1380.0	0.000483	99.7030000687
1380.0	0.0004833	99.7349998951
1390.0	0.000474	100.0
1390.0	0.0004708	100.046999931
1390.0	0.0004688	100.094000101
1390.0	0.0004668	100.125
1390.0	0.0004655	100.171999931
1390.0	0.0004643	100.219000101
1390.0	0.0004638	100.25
1390.0	0.0004633	100.296999931
1390.0	0.0004633	100.328000069
1390.0	0.0004633	100.375
1390.0	0.000463	100.421999931
1390.0	0.0004628	100.453000069
1390.0	0.000463	100.5
1390.0	0.000463	100.546999931
1390.0	0.000463	100.578000069
1390.0	0.000463	100.625
1390.0	0.0004628	100.671999931
1390.0	0.0004628	100.703000069
1390.0	0.0004625	100.75
1390.0	0.000462	100.796999931
1390.0	0.000462	100.828000069
1390.0	0.0004625	100.875
1390.0	0.0004628	100.921999931
1390.0	0.0004628	100.953000069
1390.0	0.0004628	101.0
1390.0	0.0004625	101.032000065
1390.0	0.000462	101.078000069
1390.0	0.0004618	101.125
1390.0	0.000462	101.157000065
1390.0	0.0004625	101.203000069
1390.0	0.0004625	101.25
1390.0	0.000462	101.282000065
1390.0	0.000462	101.328000069
1390.0	0.000462	101.359999895
1390.0	0.0004625	101.407000065
1390.0	0.0004625	101.453000069
1390.0	0.0004625	101.484999895
1400.0	0.000455	101.75
1400.0	0.000452	101.796999931
1400.0	0.00045	101.844000101
1400.0	0.0004478	101.891000032
1400.0	0.0004465	101.921999931
1400.0	0.0004463	101.969000101
1400.0	0.0004458	102.0
1400.0	0.0004455	102.046999931
1400.0	0.000445	102.094000101
1400.0	0.0004445	102.125
1400.0	0.000444	102.171999931
1400.0	0.0004438	102.219000101
1400.0	0.0004433	102.25
1400.0	0.000443	102.296999931
1400.0	0.000443	102.344000101
1400.0	0.000443	102.375
1400.0	0.0004428	102.421999931
1400.0	0.0004428	102.453000069
1400.0	0.0004428	102.5
1400.0	0.0004428	102.546999931
1400.0	0.0004433	102.578000069
1400.0	0.0004433	102.625
1400.0	0.0004438	102.671999931
1400.0	0.0004438	102.703000069
1400.0	0.0004443	102.75
1400.0	0.000445	102.782000065
1400.0	0.000445	102.828000069
1400.0	0.0004453	102.875
1400.0	0.000445	102.907000065
1400.0	0.000445	102.953000069
1400.0	0.000445	103.0
1400.0	0.0004445	103.032000065
1400.0	0.000444	103.078000069
1400.0	0.0004438	103.125
1400.0	0.0004433	103.157000065
1400.0	0.000443	103.203000069
1400.0	0.0004428	103.25
1410.0	0.0004375	103.516000032
1410.0	0.0004353	103.546999931
1410.0	0.0004333	103.594000101
1410.0	0.0004318	103.641000032
1410.0	0.0004308	103.671999931
1410.0	0.0004305	103.719000101
1410.0	0.00043	103.75
1410.0	0.0004295	103.796999931
1410.0	0.0004295	103.844000101
1410.0	0.0004295	103.875
1410.0	0.0004295	103.921999931
1410.0	0.0004293	103.969000101
1410.0	0.0004295	104.0
1410.0	0.0004295	104.046999931
1410.0	0.00043	104.078000069
1410.0	0.0004295	104.125
1410.0	0.0004293	104.171999931
1410.0	0.000429	104.203000069
1410.0	0.000429	104.25
1410.0	0.000429	104.296999931
1410.0	0.000429	104.328000069
1410.0	0.0004283	104.375
1410.0	0.000428	104.421999931
1410.0	0.000428	104.453000069
1410.0	0.0004278	104.5
1410.0	0.0004275	104.532000065
1410.0	0.0004278	104.578000069
1410.0	0.000428	104.625
1410.0	0.0004283	104.657000065
1410.0	0.0004288	104.703000069
1410.0	0.0004288	104.75
1410.0	0.0004288	104.782000065
1410.0	0.0004288	104.828000069
1410.0	0.0004288	104.859999895
1410.0	0.0004288	104.907000065
1410.0	0.0004288	104.953000069
1410.0	0.0004288	104.984999895
1420.0	0.0004233	105.25
1420.0	0.0004218	105.296999931
1420.0	0.0004205	105.344000101
1420.0	0.0004195	105.375
1420.0	0.0004188	105.421999931
1420.0	0.0004183	105.469000101
1420.0	0.000418	105.5
1420.0	0.0004178	105.546999931
1420.0	0.000418	105.578000069
1420.0	0.0004178	105.625
1420.0	0.000418	105.671999931
1420.0	0.000418	105.703000069
1420.0	0.000418	105.75
1420.0	0.0004178	105.796999931
1420.0	0.0004178	105.828000069
1420.0	0.0004175	105.875
1420.0	0.0004178	105.907000065
1420.0	0.000418	105.953000069
1420.0	0.0004183	106.0
1420.0	0.0004183	106.032000065
1420.0	0.0004188	106.078000069
1420.0	0.0004183	106.125
1420.0	0.000418	106.157000065
1420.0	0.000418	106.203000069
1420.0	0.0004178	106.25
1420.0	0.000417	106.282000065
1420.0	0.0004168	106.328000069
1420.0	0.0004168	106.359999895
1420.0	0.0004168	106.407000065
1420.0	0.000417	106.453000069
1420.0	0.0004175	106.5
1420.0	0.000417	106.532000065
1420.0	0.000417	106.578000069
1420.0	0.000417	106.609999895
1420.0	0.0004175	106.657000065
1420.0	0.0004178	106.703000069
1420.0	0.0004178	106.734999895
1430.0	0.0004145	107.0
1430.0	0.0004133	107.046999931
1430.0	0.000413	107.094000101
1430.0	0.000412	107.125
1430.0	0.0004115	107.171999931
1430.0	0.0004108	107.219000101
1430.0	0.0004108	107.25
1430.0	0.0004108	107.296999931
1430.0	0.0004105	107.328000069
1430.0	0.0004105	107.375
1430.0	0.0004103	107.421999931
1430.0	0.0004103	107.453000069
1430.0	0.0004103	107.5
1430.0	0.0004103	107.546999931
1430.0	0.00041	107.578000069
1430.0	0.0004103	107.625
1430.0	0.0004103	107.657000065
1430.0	0.0004105	107.703000069
1430.0	0.0004105	107.75
1430.0	0.0004105	107.782000065
1430.0	0.0004108	107.828000069
1430.0	0.0004113	107.875
1430.0	0.0004113	107.907000065
1430.0	0.0004113	107.953000069
1430.0	0.0004113	107.984999895
1430.0	0.0004113	108.032000065
1430.0	0.0004113	108.078000069
1430.0	0.0004115	108.109999895
1430.0	0.0004115	108.157000065
1430.0	0.0004115	108.203000069
1430.0	0.0004115	108.234999895
1430.0	0.0004115	108.282000065
1430.0	0.0004118	108.328000069
1430.0	0.0004118	108.359999895
1430.0	0.0004118	108.407000065
1430.0	0.0004115	108.437999964
1430.0	0.0004115	108.484999895
1440.0	0.0004093	108.75
1440.0	0.0004095	108.796999931
1440.0	0.0004095	108.828000069
1440.0	0.000409	108.875
1440.0	0.000409	108.921999931
1440.0	0.000409	108.953000069
1440.0	0.0004088	109.0
1440.0	0.000409	109.032000065
1440.0	0.0004093	109.078000069
1440.0	0.0004093	109.125
1440.0	0.0004093	109.157000065
1440.0	0.0004095	109.203000069
1440.0	0.0004095	109.25
1440.0	0.00041	109.282000065
1440.0	0.00041	109.328000069
1440.0	0.00041	109.375
1440.0	0.00041	109.407000065
1440.0	0.0004095	109.453000069
1440.0	0.00041	109.484999895
1440.0	0.0004095	109.532000065
1440.0	0.0004093	109.578000069
1440.0	0.0004093	109.609999895
1440.0	0.0004093	109.657000065
1440.0	0.0004095	109.703000069
1440.0	0.00041	109.734999895
1440.0	0.0004095	109.782000065
1440.0	0.0004095	109.812999964
1440.0	0.00041	109.859999895
1440.0	0.00041	109.907000065
1440.0	0.00041	109.937999964
1440.0	0.0004095	109.984999895
1440.0	0.0004093	110.032000065
1440.0	0.0004093	110.062999964
1440.0	0.0004095	110.109999895
1440.0	0.0004095	110.157000065
1440.0	0.0004093	110.187999964
1440.0	0.0004095	110.234999895
1450.0	0.0004113	110.5
1450.0	0.0004118	110.546999931
1450.0	0.0004118	110.578000069
1450.0	0.0004125	110.625
1450.0	0.0004128	110.671999931
1450.0	0.0004128	110.703000069
1450.0	0.000413	110.75
1450.0	0.000413	110.782000065
1450.0	0.000413	110.828000069
1450.0	0.000413	110.875
1450.0	0.000413	110.907000065
1450.0	0.0004128	110.953000069
1450.0	0.0004128	111.0
1450.0	0.000413	111.032000065
1450.0	0.000413	111.078000069
1450.0	0.000413	111.125
1450.0	0.000413	111.157000065
1450.0	0.000413	111.203000069
1450.0	0.000413	111.234999895
1450.0	0.000413	111.282000065
1450.0	0.0004133	111.328000069
1450.0	0.0004133	111.359999895
1450.0	0.0004128	111.407000065
1450.0	0.0004125	111.453000069
1450.0	0.0004125	111.484999895
1450.0	0.0004125	111.532000065
1450.0	0.0004125	111.562999964
1450.0	0.0004128	111.609999895
1450.0	0.0004128	111.657000065
1450.0	0.000412	111.687999964
1450.0	0.0004118	111.734999895
1450.0	0.0004118	111.782000065
1450.0	0.0004125	111.812999964
1450.0	0.0004125	111.859999895
1450.0	0.0004128	111.891000032
1450.0	0.0004128	111.937999964
1450.0	0.000413	111.984999895
1460.0	0.0004145	112.25
1460.0	0.0004155	112.282000065
1460.0	0.0004165	112.328000069
1460.0	0.000417	112.375
1460.0	0.000418	112.407000065
1460.0	0.0004183	112.453000069
1460.0	0.0004188	112.5
1460.0	0.000419	112.532000065
1460.0	0.0004193	112.578000069
1460.0	0.0004195	112.609999895
1460.0	0.00042	112.657000065
1460.0	0.0004195	112.703000069
1460.0	0.00042	112.734999895
1460.0	0.00042	112.782000065
1460.0	0.0004195	112.828000069
1460.0	0.0004193	112.859999895
1460.0	0.0004193	112.907000065
1460.0	0.000419	112.937999964
1460.0	0.0004193	112.984999895
1460.0	0.000419	113.032000065
1460.0	0.000419	113.062999964
1460.0	0.000419	113.109999895
1460.0	0.0004188	113.157000065
1460.0	0.0004188	113.187999964
1460.0	0.0004183	113.234999895
1460.0	0.000418	113.282000065
1460.0	0.0004183	113.312999964
1460.0	0.0004188	113.359999895
1460.0	0.000419	113.391000032
1460.0	0.000419	113.437999964
1460.0	0.000419	113.484999895
1460.0	0.0004188	113.516000032
1460.0	0.0004183	113.562999964
1460.0	0.0004183	113.609999895
1460.0	0.0004183	113.641000032
1460.0	0.0004183	113.687999964
1460.0	0.0004188	113.719000101
1470.0	0.0004225	114.0
1470.0	0.0004238	114.032000065
1470.0	0.0004243	114.078000069
1470.0	0.0004253	114.125
1470.0	0.0004263	114.157000065
1470.0	0.0004265	114.203000069
1470.0	0.000427	114.25
1470.0	0.0004278	114.282000065
1470.0	0.000428	114.328000069
1470.0	0.000428	114.359999895
1470.0	0.000428	114.407000065
1470.0	0.000428	114.453000069
1470.0	0.000428	114.484999895
1470.0	0.0004283	114.532000065
1470.0	0.0004283	114.578000069
1470.0	0.0004283	114.609999895
1470.0	0.0004283	114.657000065
1470.0	0.0004283	114.687999964
1470.0	0.0004288	114.734999895
1470.0	0.0004288	114.782000065
1470.0	0.0004288	114.812999964
1470.0	0.000428	114.859999895
1470.0	0.000428	114.907000065
1470.0	0.000428	114.937999964
1470.0	0.0004283	114.984999895
1470.0	0.0004283	115.032000065
1470.0	0.0004283	115.062999964
1470.0	0.0004283	115.109999895
1470.0	0.0004283	115.141000032
1470.0	0.0004283	115.187999964
1470.0	0.0004283	115.234999895
1470.0	0.0004288	115.266000032
1470.0	0.0004288	115.312999964
1470.0	0.000429	115.359999895
1470.0	0.000429	115.391000032
1470.0	0.0004293	115.437999964
1470.0	0.0004293	115.469000101
1480.0	0.0004315	115.75
1480.0	0.0004328	115.782000065
1480.0	0.000434	115.828000069
1480.0	0.000435	115.859999895
1480.0	0.0004355	115.907000065
1480.0	0.0004365	115.953000069
1480.0	0.0004368	115.984999895
1480.0	0.0004375	116.032000065
1480.0	0.0004378	116.078000069
1480.0	0.0004378	116.109999895
1480.0	0.0004378	116.157000065
1480.0	0.000438	116.187999964
1480.0	0.000438	116.234999895
1480.0	0.000438	116.282000065
1480.0	0.000438	116.312999964
1480.0	0.0004383	116.359999895
1480.0	0.0004388	116.407000065
1480.0	0.000439	116.437999964
1480.0	0.0004393	116.484999895
1480.0	0.0004393	116.516000032
1480.0	0.000439	116.562999964
1480.0	0.000439	116.609999895
1480.0	0.0004393	116.641000032
1480.0	0.00044	116.687999964
1480.0	0.00044	116.734999895
1480.0	0.0004395	116.766000032
1480.0	0.0004393	116.812999964
1480.0	0.000439	116.844000101
1480.0	0.0004388	116.891000032
1480.0	0.0004388	116.937999964
1480.0	0.0004388	116.969000101
1480.0	0.0004393	117.016000032
1480.0	0.0004395	117.062999964
1480.0	0.0004395	117.094000101
1480.0	0.00044	117.141000032
1480.0	0.00044	117.171999931
1480.0	0.0004393	117.219000101
1490.0	0.000442	117.484999895
1490.0	0.0004438	117.532000065
1490.0	0.0004443	117.578000069
1490.0	0.0004453	117.609999895
1490.0	0.0004455	117.657000065
1490.0	0.0004455	117.703000069
1490.0	0.0004458	117.734999895
1490.0	0.0004463	117.782000065
1490.0	0.0004468	117.828000069
1490.0	0.0004468	117.859999895
1490.0	0.0004468	117.907000065
1490.0	0.000447	117.937999964
1490.0	0.000447	117.984999895
1490.0	0.000447	118.032000065
1490.0	0.0004475	118.062999964
1490.0	0.0004475	118.109999895
1490.0	0.0004475	118.157000065
1490.0	0.0004475	118.187999964
1490.0	0.0004475	118.234999895
1490.0	0.0004475	118.282000065
1490.0	0.000447	118.312999964
1490.0	0.0004468	118.359999895
1490.0	0.0004465	118.407000065
1490.0	0.0004458	118.437999964
1490.0	0.0004463	118.484999895
1490.0	0.0004458	118.516000032
1490.0	0.0004463	118.562999964
1490.0	0.0004463	118.609999895
1490.0	0.0004458	118.641000032
1490.0	0.0004458	118.687999964
1490.0	0.0004455	118.734999895
1490.0	0.0004458	118.766000032
1490.0	0.0004458	118.812999964
1490.0	0.0004458	118.844000101
1490.0	0.0004463	118.891000032
1490.0	0.0004463	118.937999964
1490.0	0.0004463	118.969000101
1500.0	0.0004475	119.25
1500.0	0.0004478	119.282000065
1500.0	0.0004483	119.328000069
1500.0	0.000449	119.375
1500.0	0.0004495	119.407000065
1500.0	0.0004503	119.453000069
1500.0	0.0004505	119.484999895
1500.0	0.0004505	119.532000065
1500.0	0.0004505	119.578000069
1500.0	0.0004503	119.609999895
1500.0	0.0004503	119.657000065
1500.0	0.0004503	119.703000069
1500.0	0.0004503	119.734999895
1500.0	0.0004503	119.782000065
1500.0	0.00045	119.828000069
1500.0	0.0004505	119.859999895
1500.0	0.0004505	119.907000065
1500.0	0.0004505	119.937999964
1500.0	0.0004505	119.984999895
1500.0	0.0004503	120.032000065
1500.0	0.0004503	120.062999964
1500.0	0.0004505	120.109999895
1500.0	0.0004505	120.157000065
1500.0	0.0004503	120.187999964
1500.0	0.0004503	120.234999895
1500.0	0.00045	120.266000032
1500.0	0.0004495	120.312999964
1500.0	0.00045	120.359999895
1500.0	0.0004503	120.391000032
1500.0	0.0004505	120.437999964
1500.0	0.0004505	120.484999895
1500.0	0.0004503	120.516000032
1500.0	0.0004503	120.562999964
1500.0	0.0004505	120.594000101
1500.0	0.0004508	120.641000032
1500.0	0.0004505	120.687999964
1500.0	0.0004503	120.719000101
1510.0	0.0004518	121.0
1510.0	0.0004525	121.046999931
1510.0	0.000453	121.078000069
1510.0	0.0004533	121.125
1510.0	0.000454	121.157000065
1510.0	0.0004543	121.203000069
1510.0	0.0004545	121.25
1510.0	0.000455	121.282000065
1510.0	0.000455	121.328000069
1510.0	0.000455	121.375
1510.0	0.000455	121.407000065
1510.0	0.000455	121.453000069
1510.0	0.0004545	121.484999895
1510.0	0.0004543	121.532000065
1510.0	0.000454	121.578000069
1510.0	0.000454	121.609999895
1510.0	0.000454	121.657000065
1510.0	0.000454	121.703000069
1510.0	0.0004543	121.75
1510.0	0.0004543	121.782000065
1510.0	0.0004545	121.828000069
1510.0	0.0004553	121.859999895
1510.0	0.0004555	121.907000065
1510.0	0.0004555	121.953000069
1510.0	0.0004555	121.984999895
1510.0	0.0004555	122.032000065
1510.0	0.0004555	122.078000069
1510.0	0.0004555	122.109999895
1510.0	0.0004555	122.157000065
1510.0	0.0004553	122.187999964
1510.0	0.0004553	122.234999895
1510.0	0.0004553	122.282000065
1510.0	0.0004553	122.312999964
1510.0	0.0004553	122.359999895
1510.0	0.000455	122.407000065
1510.0	0.000455	122.437999964
1510.0	0.000455	122.484999895
1520.0	0.0004565	122.75
1520.0	0.0004568	122.796999931
1520.0	0.000457	122.844000101
1520.0	0.0004575	122.875
1520.0	0.0004575	122.921999931
1520.0	0.0004575	122.969000101
1520.0	0.0004575	123.0
1520.0	0.0004575	123.046999931
1520.0	0.0004575	123.078000069
1520.0	0.0004578	123.125
1520.0	0.0004578	123.171999931
1520.0	0.0004578	123.203000069
1520.0	0.0004578	123.25
1520.0	0.0004578	123.296999931
1520.0	0.0004575	123.328000069
1520.0	0.000457	123.375
1520.0	0.0004568	123.421999931
1520.0	0.0004568	123.453000069
1520.0	0.0004565	123.5
1520.0	0.0004558	123.546999931
1520.0	0.0004555	123.578000069
1520.0	0.0004558	123.625
1520.0	0.0004563	123.671999931
1520.0	0.0004565	123.703000069
1520.0	0.0004565	123.75
1520.0	0.0004565	123.782000065
1520.0	0.0004565	123.828000069
1520.0	0.0004568	123.875
1520.0	0.0004568	123.907000065
1520.0	0.0004568	123.953000069
1520.0	0.0004565	124.0
1520.0	0.000457	124.032000065
1520.0	0.0004578	124.078000069
1520.0	0.000458	124.109999895
1520.0	0.000458	124.157000065
1520.0	0.000458	124.203000069
1520.0	0.0004575	124.234999895
1530.0	0.0004558	124.516000032
1530.0	0.0004558	124.562999964
1530.0	0.0004563	124.594000101
1530.0	0.0004558	124.641000032
1530.0	0.0004558	124.671999931
1530.0	0.0004558	124.719000101
1530.0	0.0004555	124.766000032
1530.0	0.0004555	124.796999931
1530.0	0.0004555	124.844000101
1530.0	0.0004553	124.891000032
1530.0	0.0004555	124.921999931
1530.0	0.0004553	124.969000101
1530.0	0.0004553	125.0
1530.0	0.0004553	125.046999931
1530.0	0.0004553	125.094000101
1530.0	0.0004553	125.141000032
1530.0	0.000455	125.171999931
1530.0	0.000455	125.219000101
1530.0	0.000455	125.266000032
1530.0	0.000455	125.296999931
1530.0	0.0004545	125.344000101
1530.0	0.0004545	125.375
1530.0	0.0004545	125.421999931
1530.0	0.0004545	125.469000101
1530.0	0.000455	125.5
1530.0	0.0004553	125.546999931
1530.0	0.0004555	125.594000101
1530.0	0.0004555	125.625
1530.0	0.0004558	125.671999931
1530.0	0.0004555	125.703000069
1530.0	0.0004555	125.75
1530.0	0.0004553	125.796999931
1530.0	0.000455	125.828000069
1530.0	0.0004545	125.875
1530.0	0.0004545	125.921999931
1530.0	0.0004545	125.953000069
1530.0	0.000454	126.0
1540.0	0.0004533	126.266000032
1540.0	0.000453	126.312999964
1540.0	0.0004528	126.359999895
1540.0	0.000452	126.391000032
1540.0	0.0004518	126.437999964
1540.0	0.0004515	126.484999895
1540.0	0.0004515	126.516000032
1540.0	0.0004513	126.562999964
1540.0	0.0004513	126.609999895
1540.0	0.0004515	126.641000032
1540.0	0.0004513	126.687999964
1540.0	0.0004513	126.719000101
1540.0	0.0004513	126.766000032
1540.0	0.0004513	126.812999964
1540.0	0.0004513	126.844000101
1540.0	0.0004508	126.891000032
1540.0	0.0004508	126.921999931
1540.0	0.0004508	126.969000101
1540.0	0.0004513	127.016000032
1540.0	0.0004513	127.046999931
1540.0	0.0004513	127.094000101
1540.0	0.0004508	127.141000032
1540.0	0.0004505	127.171999931
1540.0	0.0004505	127.219000101
1540.0	0.0004508	127.266000032
1540.0	0.0004513	127.296999931
1540.0	0.0004513	127.344000101
1540.0	0.0004508	127.391000032
1540.0	0.0004508	127.421999931
1540.0	0.0004508	127.469000101
1540.0	0.0004513	127.516000032
1540.0	0.0004513	127.546999931
1540.0	0.0004505	127.594000101
1540.0	0.0004505	127.625
1540.0	0.0004505	127.671999931
1540.0	0.0004505	127.719000101
1540.0	0.0004505	127.75
1550.0	0.000449	128.032000065
1550.0	0.0004488	128.078000069
1550.0	0.000448	128.109999895
1550.0	0.0004475	128.157000065
1550.0	0.0004468	128.203000069
1550.0	0.0004468	128.234999895
1550.0	0.0004468	128.282000065
1550.0	0.0004468	128.312999964
1550.0	0.0004468	128.359999895
1550.0	0.0004468	128.407000065
1550.0	0.0004468	128.437999964
1550.0	0.000447	128.484999895
1550.0	0.000447	128.532000065
1550.0	0.0004468	128.562999964
1550.0	0.0004465	128.609999895
1550.0	0.0004465	128.641000032
1550.0	0.0004465	128.687999964
1550.0	0.0004465	128.734999895
1550.0	0.0004468	128.766000032
1550.0	0.0004468	128.812999964
1550.0	0.000447	128.859999895
1550.0	0.0004475	128.891000032
1550.0	0.0004475	128.937999964
1550.0	0.000447	128.969000101
1550.0	0.0004468	129.016000032
1550.0	0.0004468	129.062999964
1550.0	0.0004468	129.109999895
1550.0	0.0004465	129.141000032
1550.0	0.0004463	129.187999964
1550.0	0.0004463	129.219000101
1550.0	0.0004463	129.266000032
1550.0	0.0004463	129.312999964
1550.0	0.0004463	129.344000101
1550.0	0.0004465	129.391000032
1550.0	0.0004465	129.437999964
1550.0	0.0004463	129.469000101
1550.0	0.0004463	129.516000032
1560.0	0.0004433	129.782000065
1560.0	0.000442	129.828000069
1560.0	0.0004413	129.875
1560.0	0.0004403	129.907000065
1560.0	0.0004393	129.953000069
1560.0	0.000439	130.0
1560.0	0.000439	130.032000065
1560.0	0.0004388	130.078000069
1560.0	0.0004383	130.125
1560.0	0.000438	130.157000065
1560.0	0.000438	130.203000069
1560.0	0.000438	130.234999895
1560.0	0.0004375	130.282000065
1560.0	0.000437	130.328000069
1560.0	0.000437	130.359999895
1560.0	0.0004368	130.407000065
1560.0	0.0004368	130.453000069
1560.0	0.0004368	130.484999895
1560.0	0.0004368	130.532000065
1560.0	0.0004368	130.562999964
1560.0	0.000437	130.609999895
1560.0	0.000437	130.657000065
1560.0	0.0004375	130.687999964
1560.0	0.0004375	130.734999895
1560.0	0.0004378	130.782000065
1560.0	0.000438	130.812999964
1560.0	0.000438	130.859999895
1560.0	0.000438	130.891000032
1560.0	0.000438	130.937999964
1560.0	0.000438	130.984999895
1560.0	0.000438	131.016000032
1560.0	0.000438	131.062999964
1560.0	0.0004383	131.109999895
1560.0	0.0004383	131.141000032
1560.0	0.0004388	131.187999964
1560.0	0.0004388	131.219000101
1560.0	0.0004388	131.266000032
1570.0	0.000435	131.546999931
1570.0	0.000433	131.578000069
1570.0	0.0004315	131.625
1570.0	0.0004308	131.671999931
1570.0	0.0004303	131.703000069
1570.0	0.0004293	131.75
1570.0	0.0004288	131.796999931
1570.0	0.000428	131.828000069
1570.0	0.0004275	131.875
1570.0	0.0004275	131.907000065
1570.0	0.0004275	131.953000069
1570.0	0.000427	132.0
1570.0	0.0004268	132.032000065
1570.0	0.0004265	132.078000069
1570.0	0.0004263	132.125
1570.0	0.0004258	132.157000065
1570.0	0.0004263	132.203000069
1570.0	0.0004268	132.234999895
1570.0	0.000427	132.282000065
1570.0	0.0004275	132.328000069
1570.0	0.000427	132.359999895
1570.0	0.000427	132.407000065
1570.0	0.000427	132.453000069
1570.0	0.000427	132.484999895
1570.0	0.0004268	132.532000065
1570.0	0.0004268	132.562999964
1570.0	0.0004268	132.609999895
1570.0	0.0004268	132.657000065
1570.0	0.0004268	132.687999964
1570.0	0.0004268	132.734999895
1570.0	0.000427	132.782000065
1570.0	0.000427	132.812999964
1570.0	0.000427	132.859999895
1570.0	0.0004275	132.907000065
1570.0	0.0004275	132.937999964
1570.0	0.0004268	132.984999895
1570.0	0.000427	133.016000032
1580.0	0.0004213	133.296999931
1580.0	0.0004188	133.328000069
1580.0	0.0004168	133.375
1580.0	0.0004153	133.421999931
1580.0	0.0004145	133.453000069
1580.0	0.0004143	133.5
1580.0	0.0004138	133.532000065
1580.0	0.000413	133.578000069
1580.0	0.0004125	133.625
1580.0	0.0004118	133.657000065
1580.0	0.0004118	133.703000069
1580.0	0.0004115	133.75
1580.0	0.0004118	133.782000065
1580.0	0.0004118	133.828000069
1580.0	0.000412	133.875
1580.0	0.000412	133.907000065
1580.0	0.0004115	133.953000069
1580.0	0.0004118	134.0
1580.0	0.0004118	134.032000065
1580.0	0.0004118	134.078000069
1580.0	0.0004115	134.125
1580.0	0.0004118	134.157000065
1580.0	0.0004115	134.203000069
1580.0	0.0004115	134.234999895
1580.0	0.0004115	134.282000065
1580.0	0.0004113	134.328000069
1580.0	0.0004113	134.359999895
1580.0	0.0004113	134.407000065
1580.0	0.0004108	134.453000069
1580.0	0.0004108	134.484999895
1580.0	0.0004108	134.532000065
1580.0	0.0004113	134.562999964
1580.0	0.0004113	134.609999895
1580.0	0.0004115	134.657000065
1580.0	0.0004115	134.687999964
1580.0	0.0004113	134.734999895
1580.0	0.0004115	134.782000065
1590.0	0.000404	135.046999931
1590.0	0.0004013	135.094000101
1590.0	0.0003988	135.125
1590.0	0.000397	135.171999931
1590.0	0.0003963	135.219000101
1590.0	0.000395	135.25
1590.0	0.0003943	135.296999931
1590.0	0.0003938	135.344000101
1590.0	0.0003933	135.375
1590.0	0.000393	135.421999931
1590.0	0.000393	135.453000069
1590.0	0.0003928	135.5
1590.0	0.0003925	135.546999931
1590.0	0.0003918	135.578000069
1590.0	0.0003918	135.625
1590.0	0.0003918	135.671999931
1590.0	0.0003915	135.703000069
1590.0	0.0003915	135.75
1590.0	0.0003913	135.796999931
1590.0	0.0003915	135.828000069
1590.0	0.0003915	135.875
1590.0	0.0003915	135.907000065
1590.0	0.0003915	135.953000069
1590.0	0.0003918	136.0
1590.0	0.0003918	136.032000065
1590.0	0.000392	136.078000069
1590.0	0.0003925	136.125
1590.0	0.0003925	136.157000065
1590.0	0.0003925	136.203000069
1590.0	0.0003925	136.234999895
1590.0	0.0003925	136.282000065
1590.0	0.000392	136.328000069
1590.0	0.000392	136.359999895
1590.0	0.0003918	136.407000065
1590.0	0.0003915	136.453000069
1590.0	0.0003915	136.484999895
1590.0	0.0003918	136.532000065
1600.0	0.0003838	136.796999931
1600.0	0.0003805	136.844000101
1600.0	0.000378	136.891000032
1600.0	0.0003763	136.921999931
1600.0	0.0003743	136.969000101
1600.0	0.000373	137.016000032
1600.0	0.000372	137.046999931
1600.0	0.0003713	137.094000101
1600.0	0.0003705	137.125
1600.0	0.0003703	137.171999931
1600.0	0.00037	137.219000101
1600.0	0.0003695	137.25
1600.0	0.0003695	137.296999931
1600.0	0.0003695	137.344000101
1600.0	0.0003693	137.375
1600.0	0.0003693	137.421999931
1600.0	0.0003693	137.469000101
1600.0	0.0003693	137.5
1600.0	0.0003695	137.546999931
1600.0	0.0003695	137.578000069
1600.0	0.00037	137.625
1600.0	0.0003695	137.671999931
1600.0	0.0003693	137.703000069
1600.0	0.000369	137.75
1600.0	0.0003688	137.796999931
1600.0	0.000369	137.828000069
1600.0	0.000369	137.875
1600.0	0.000369	137.907000065
1600.0	0.000369	137.953000069
1600.0	0.0003688	138.0
1600.0	0.0003688	138.032000065
1600.0	0.000369	138.078000069
1600.0	0.000369	138.125
1600.0	0.000369	138.157000065
1600.0	0.000369	138.203000069
1600.0	0.000369	138.234999895
1600.0	0.000369	138.282000065
1610.0	0.000358	138.562999964
1610.0	0.000355	138.609999895
1610.0	0.0003525	138.641000032
1610.0	0.0003503	138.687999964
1610.0	0.0003488	138.734999895
1610.0	0.0003478	138.766000032
1610.0	0.0003468	138.812999964
1610.0	0.0003458	138.859999895
1610.0	0.0003453	138.891000032
1610.0	0.000345	138.937999964
1610.0	0.0003445	138.984999895
1610.0	0.0003443	139.016000032
1610.0	0.0003443	139.062999964
1610.0	0.0003443	139.094000101
1610.0	0.0003443	139.141000032
1610.0	0.000344	139.187999964
1610.0	0.0003443	139.219000101
1610.0	0.0003443	139.266000032
1610.0	0.0003445	139.296999931
1610.0	0.0003443	139.344000101
1610.0	0.0003443	139.391000032
1610.0	0.0003445	139.421999931
1610.0	0.0003445	139.469000101
1610.0	0.0003445	139.516000032
1610.0	0.0003443	139.546999931
1610.0	0.000344	139.594000101
1610.0	0.000344	139.641000032
1610.0	0.000344	139.671999931
1610.0	0.0003438	139.719000101
1610.0	0.000344	139.75
1610.0	0.000344	139.796999931
1610.0	0.0003438	139.844000101
1610.0	0.000344	139.875
1610.0	0.000344	139.921999931
1610.0	0.000344	139.969000101
1610.0	0.0003443	140.0
1610.0	0.0003443	140.046999931
1620.0	0.0003333	140.328000069
1620.0	0.0003295	140.359999895
1620.0	0.0003268	140.407000065
1620.0	0.0003245	140.453000069
1620.0	0.0003228	140.484999895
1620.0	0.0003215	140.532000065
1620.0	0.0003203	140.578000069
1620.0	0.0003195	140.609999895
1620.0	0.000319	140.657000065
1620.0	0.0003183	140.687999964
1620.0	0.000318	140.734999895
1620.0	0.000318	140.782000065
1620.0	0.000318	140.812999964
1620.0	0.000318	140.859999895
1620.0	0.000318	140.907000065
1620.0	0.000318	140.937999964
1620.0	0.0003175	140.984999895
1620.0	0.0003175	141.016000032
1620.0	0.000317	141.062999964
1620.0	0.0003168	141.109999895
1620.0	0.000317	141.141000032
1620.0	0.0003175	141.187999964
1620.0	0.0003175	141.234999895
1620.0	0.0003178	141.266000032
1620.0	0.0003178	141.312999964
1620.0	0.0003175	141.344000101
1620.0	0.000317	141.391000032
1620.0	0.000317	141.437999964
1620.0	0.000317	141.469000101
1620.0	0.000317	141.516000032
1620.0	0.0003168	141.562999964
1620.0	0.0003168	141.594000101
1620.0	0.0003168	141.641000032
1620.0	0.000317	141.671999931
1620.0	0.000317	141.719000101
1620.0	0.0003168	141.766000032
1620.0	0.000317	141.796999931
1630.0	0.0003068	142.078000069
1630.0	0.000303	142.125
1630.0	0.0003	142.171999931
1630.0	0.0002968	142.219000101
1630.0	0.0002945	142.25
1630.0	0.000293	142.296999931
1630.0	0.0002918	142.344000101
1630.0	0.0002908	142.375
1630.0	0.0002905	142.421999931
1630.0	0.00029	142.469000101
1630.0	0.00029	142.5
1630.0	0.00029	142.546999931
1630.0	0.00029	142.594000101
1630.0	0.00029	142.625
1630.0	0.00029	142.671999931
1630.0	0.00029	142.703000069
1630.0	0.0002895	142.75
1630.0	0.0002895	142.796999931
1630.0	0.0002893	142.828000069
1630.0	0.0002895	142.875
1630.0	0.00029	142.921999931
1630.0	0.0002903	142.953000069
1630.0	0.0002903	143.0
1630.0	0.0002903	143.032000065
1630.0	0.00029	143.078000069
1630.0	0.00029	143.125
1630.0	0.0002903	143.157000065
1630.0	0.00029	143.203000069
1630.0	0.00029	143.25
1630.0	0.00029	143.282000065
1630.0	0.0002895	143.328000069
1630.0	0.0002895	143.359999895
1630.0	0.0002895	143.407000065
1630.0	0.00029	143.453000069
1630.0	0.00029	143.484999895
1630.0	0.0002903	143.532000065
1630.0	0.0002905	143.578000069
1640.0	0.0002788	143.859999895
1640.0	0.0002745	143.891000032
1640.0	0.0002715	143.937999964
1640.0	0.000269	143.984999895
1640.0	0.0002668	144.016000032
1640.0	0.0002655	144.062999964
1640.0	0.0002643	144.109999895
1640.0	0.0002633	144.141000032
1640.0	0.0002628	144.187999964
1640.0	0.0002625	144.219000101
1640.0	0.000262	144.266000032
1640.0	0.0002618	144.312999964
1640.0	0.000262	144.344000101
1640.0	0.0002618	144.391000032
1640.0	0.0002618	144.437999964
1640.0	0.0002618	144.469000101
1640.0	0.000262	144.516000032
1640.0	0.000262	144.546999931
1640.0	0.0002618	144.594000101
1640.0	0.0002618	144.641000032
1640.0	0.0002618	144.671999931
1640.0	0.0002618	144.719000101
1640.0	0.0002618	144.766000032
1640.0	0.0002615	144.796999931
1640.0	0.0002618	144.844000101
1640.0	0.000262	144.875
1640.0	0.0002625	144.921999931
1640.0	0.0002628	144.969000101
1640.0	0.000263	145.0
1640.0	0.000263	145.046999931
1640.0	0.000263	145.094000101
1640.0	0.0002628	145.125
1640.0	0.0002628	145.171999931
1640.0	0.0002628	145.219000101
1640.0	0.0002628	145.25
1640.0	0.0002625	145.296999931
1640.0	0.0002625	145.328000069
1650.0	0.0002505	145.625
1650.0	0.000247	145.657000065
1650.0	0.0002443	145.703000069
1650.0	0.0002418	145.734999895
1650.0	0.00024	145.782000065
1650.0	0.0002383	145.828000069
1650.0	0.0002375	145.859999895
1650.0	0.0002368	145.907000065
1650.0	0.0002363	145.953000069
1650.0	0.0002355	145.984999895
1650.0	0.000235	146.032000065
1650.0	0.000235	146.078000069
1650.0	0.0002345	146.109999895
1650.0	0.0002343	146.157000065
1650.0	0.0002345	146.187999964
1650.0	0.0002345	146.234999895
1650.0	0.0002345	146.282000065
1650.0	0.000235	146.312999964
1650.0	0.0002345	146.359999895
1650.0	0.0002343	146.407000065
1650.0	0.0002343	146.437999964
1650.0	0.0002345	146.484999895
1650.0	0.000235	146.516000032
1650.0	0.000235	146.562999964
1650.0	0.000235	146.609999895
1650.0	0.0002345	146.641000032
1650.0	0.0002345	146.687999964
1650.0	0.0002343	146.734999895
1650.0	0.0002343	146.766000032
1650.0	0.0002343	146.812999964
1650.0	0.0002343	146.844000101
1650.0	0.0002345	146.891000032
1650.0	0.0002343	146.937999964
1650.0	0.0002343	146.969000101
1650.0	0.0002343	147.016000032
1650.0	0.0002343	147.062999964
1650.0	0.0002343	147.094000101
1660.0	0.0002245	147.375
1660.0	0.0002213	147.421999931
1660.0	0.000218	147.469000101
1660.0	0.0002155	147.5
1660.0	0.0002138	147.546999931
1660.0	0.0002125	147.578000069
1660.0	0.0002115	147.625
1660.0	0.0002105	147.671999931
1660.0	0.00021	147.703000069
1660.0	0.0002095	147.75
1660.0	0.0002093	147.796999931
1660.0	0.0002093	147.828000069
1660.0	0.0002093	147.875
1660.0	0.0002093	147.907000065
1660.0	0.0002093	147.953000069
1660.0	0.0002095	148.0
1660.0	0.0002095	148.046999931
1660.0	0.000209	148.078000069
1660.0	0.000209	148.125
1660.0	0.0002088	148.171999931
1660.0	0.0002088	148.203000069
1660.0	0.0002088	148.25
1660.0	0.0002083	148.296999931
1660.0	0.0002088	148.328000069
1660.0	0.0002088	148.375
1660.0	0.000209	148.421999931
1660.0	0.0002093	148.453000069
1660.0	0.0002093	148.5
1660.0	0.0002093	148.532000065
1660.0	0.0002095	148.578000069
1660.0	0.0002095	148.625
1660.0	0.0002095	148.657000065
1660.0	0.0002095	148.703000069
1660.0	0.0002093	148.75
1660.0	0.0002093	148.782000065
1660.0	0.0002093	148.828000069
1660.0	0.0002093	148.859999895
1670.0	0.0001995	149.157000065
1670.0	0.0001965	149.203000069
1670.0	0.0001943	149.234999895
1670.0	0.000192	149.282000065
1670.0	0.0001905	149.328000069
1670.0	0.0001893	149.359999895
1670.0	0.000188	149.407000065
1670.0	0.0001878	149.453000069
1670.0	0.0001875	149.484999895
1670.0	0.0001868	149.532000065
1670.0	0.0001868	149.562999964
1670.0	0.0001863	149.609999895
1670.0	0.0001863	149.657000065
1670.0	0.0001858	149.687999964
1670.0	0.0001858	149.734999895
1670.0	0.0001858	149.782000065
1670.0	0.0001863	149.812999964
1670.0	0.0001858	149.859999895
1670.0	0.0001858	149.891000032
1670.0	0.0001858	149.937999964
1670.0	0.0001858	149.984999895
1670.0	0.0001858	150.016000032
1670.0	0.0001858	150.062999964
1670.0	0.0001855	150.109999895
1670.0	0.0001853	150.141000032
1670.0	0.000185	150.187999964
1670.0	0.0001853	150.219000101
1670.0	0.0001855	150.266000032
1670.0	0.0001858	150.312999964
1670.0	0.0001863	150.344000101
1670.0	0.0001863	150.391000032
1670.0	0.0001865	150.437999964
1670.0	0.0001865	150.469000101
1670.0	0.0001865	150.516000032
1670.0	0.0001858	150.546999931
1670.0	0.0001855	150.594000101
1670.0	0.000185	150.641000032
1680.0	0.0001765	150.921999931
1680.0	0.0001743	150.969000101
1680.0	0.000172	151.0
1680.0	0.0001705	151.046999931
1680.0	0.000169	151.094000101
1680.0	0.000168	151.125
1680.0	0.0001675	151.171999931
1680.0	0.0001668	151.219000101
1680.0	0.0001658	151.25
1680.0	0.0001653	151.296999931
1680.0	0.000165	151.328000069
1680.0	0.0001645	151.375
1680.0	0.0001645	151.421999931
1680.0	0.0001643	151.453000069
1680.0	0.0001643	151.5
1680.0	0.0001643	151.546999931
1680.0	0.0001643	151.578000069
1680.0	0.0001643	151.625
1680.0	0.0001643	151.657000065
1680.0	0.0001645	151.703000069
1680.0	0.0001653	151.75
1680.0	0.0001653	151.782000065
1680.0	0.000165	151.828000069
1680.0	0.000165	151.875
1680.0	0.000165	151.907000065
1680.0	0.000165	151.953000069
1680.0	0.000165	152.0
1680.0	0.0001645	152.032000065
1680.0	0.0001645	152.078000069
1680.0	0.0001643	152.109999895
1680.0	0.0001643	152.157000065
1680.0	0.0001643	152.203000069
1680.0	0.0001643	152.234999895
1680.0	0.0001643	152.282000065
1680.0	0.0001645	152.328000069
1680.0	0.0001645	152.359999895
1680.0	0.0001645	152.407000065
1690.0	0.000158	152.687999964
1690.0	0.0001558	152.734999895
1690.0	0.0001533	152.766000032
1690.0	0.0001515	152.812999964
1690.0	0.00015	152.859999895
1690.0	0.000149	152.891000032
1690.0	0.000148	152.937999964
1690.0	0.0001475	152.984999895
1690.0	0.000147	153.016000032
1690.0	0.0001468	153.062999964
1690.0	0.0001465	153.109999895
1690.0	0.0001463	153.141000032
1690.0	0.0001463	153.187999964
1690.0	0.0001463	153.219000101
1690.0	0.0001463	153.266000032
1690.0	0.0001465	153.312999964
1690.0	0.0001463	153.344000101
1690.0	0.0001463	153.391000032
1690.0	0.0001465	153.437999964
1690.0	0.0001468	153.469000101
1690.0	0.000147	153.516000032
1690.0	0.0001468	153.546999931
1690.0	0.0001468	153.594000101
1690.0	0.0001468	153.641000032
1690.0	0.0001465	153.671999931
1690.0	0.0001463	153.719000101
1690.0	0.0001463	153.766000032
1690.0	0.0001463	153.796999931
1690.0	0.0001463	153.844000101
1690.0	0.0001458	153.875
1690.0	0.0001455	153.921999931
1690.0	0.0001455	153.969000101
1690.0	0.0001455	154.0
1690.0	0.0001455	154.046999931
1690.0	0.0001453	154.094000101
1690.0	0.000145	154.125
1690.0	0.000145	154.171999931
1700.0	0.0001405	154.453000069
1700.0	0.0001388	154.5
1700.0	0.000137	154.532000065
1700.0	0.0001355	154.578000069
1700.0	0.0001345	154.625
1700.0	0.000134	154.657000065
1700.0	0.000133	154.703000069
1700.0	0.000132	154.75
1700.0	0.0001315	154.782000065
1700.0	0.0001313	154.828000069
1700.0	0.0001308	154.875
1700.0	0.0001305	154.907000065
1700.0	0.0001305	154.953000069
1700.0	0.0001303	154.984999895
1700.0	0.00013	155.032000065
1700.0	0.00013	155.078000069
1700.0	0.00013	155.109999895
1700.0	0.00013	155.157000065
1700.0	0.0001295	155.203000069
1700.0	0.00013	155.234999895
1700.0	0.0001295	155.282000065
1700.0	0.0001295	155.312999964
1700.0	0.00013	155.359999895
1700.0	0.00013	155.407000065
1700.0	0.00013	155.437999964
1700.0	0.00013	155.484999895
1700.0	0.00013	155.532000065
1700.0	0.00013	155.562999964
1700.0	0.00013	155.609999895
1700.0	0.00013	155.641000032
1700.0	0.0001303	155.687999964
1700.0	0.0001303	155.734999895
1700.0	0.0001303	155.766000032
1700.0	0.00013	155.812999964
1700.0	0.00013	155.859999895
1700.0	0.0001295	155.891000032
1700.0	0.0001295	155.937999964
1710.0	0.0001253	156.234999895
1710.0	0.0001233	156.266000032
1710.0	0.0001218	156.312999964
1710.0	0.0001205	156.344000101
1710.0	0.000119	156.391000032
1710.0	0.000118	156.437999964
1710.0	0.000117	156.469000101
1710.0	0.0001163	156.516000032
1710.0	0.0001163	156.562999964
1710.0	0.0001158	156.594000101
1710.0	0.0001158	156.641000032
1710.0	0.0001158	156.671999931
1710.0	0.0001158	156.719000101
1710.0	0.0001158	156.766000032
1710.0	0.0001163	156.796999931
1710.0	0.0001155	156.844000101
1710.0	0.0001153	156.891000032
1710.0	0.0001153	156.921999931
1710.0	0.0001155	156.969000101
1710.0	0.0001158	157.0
1710.0	0.0001163	157.046999931
1710.0	0.0001165	157.094000101
1710.0	0.0001168	157.125
1710.0	0.0001165	157.171999931
1710.0	0.0001165	157.219000101
1710.0	0.0001165	157.25
1710.0	0.0001165	157.296999931
1710.0	0.0001168	157.328000069
1710.0	0.0001168	157.375
1710.0	0.0001165	157.421999931
1710.0	0.0001163	157.453000069
1710.0	0.0001165	157.5
1710.0	0.0001165	157.546999931
1710.0	0.0001163	157.578000069
1710.0	0.0001163	157.625
1710.0	0.0001158	157.671999931
1710.0	0.0001158	157.703000069
1720.0	0.0001118	158.0
1720.0	0.00011	158.032000065
1720.0	0.0001083	158.078000069
1720.0	0.000107	158.109999895
1720.0	0.0001063	158.157000065
1720.0	0.0001055	158.203000069
1720.0	0.000105	158.234999895
1720.0	0.000105	158.282000065
1720.0	0.0001045	158.328000069
1720.0	0.0001043	158.359999895
1720.0	0.0001038	158.407000065
1720.0	0.0001038	158.437999964
1720.0	0.0001038	158.484999895
1720.0	0.0001038	158.532000065
1720.0	0.000104	158.562999964
1720.0	0.000104	158.609999895
1720.0	0.000104	158.657000065
1720.0	0.0001038	158.687999964
1720.0	0.0001038	158.734999895
1720.0	0.0001038	158.782000065
1720.0	0.000104	158.812999964
1720.0	0.000104	158.859999895
1720.0	0.0001043	158.891000032
1720.0	0.0001043	158.937999964
1720.0	0.0001045	158.984999895
1720.0	0.0001045	159.016000032
1720.0	0.0001045	159.062999964
1720.0	0.000105	159.109999895
1720.0	0.0001045	159.141000032
1720.0	0.0001043	159.187999964
1720.0	0.000104	159.219000101
1720.0	0.0001033	159.266000032
1720.0	0.0001028	159.312999964
1720.0	0.0001028	159.344000101
1720.0	0.0001025	159.391000032
1720.0	0.0001025	159.437999964
1720.0	0.000103	159.469000101
1730.0	9.95e-05	159.766000032
1730.0	9.8e-05	159.796999931
1730.0	9.68e-05	159.844000101
1730.0	9.58e-05	159.875
1730.0	9.53e-05	159.921999931
1730.0	9.45e-05	159.969000101
1730.0	9.43e-05	160.0
1730.0	9.43e-05	160.046999931
1730.0	9.43e-05	160.094000101
1730.0	9.4e-05	160.125
1730.0	9.38e-05	160.171999931
1730.0	9.38e-05	160.203000069
1730.0	9.33e-05	160.25
1730.0	9.3e-05	160.296999931
1730.0	9.28e-05	160.328000069
1730.0	9.28e-05	160.375
1730.0	9.28e-05	160.421999931
1730.0	9.28e-05	160.453000069
1730.0	9.28e-05	160.5
1730.0	9.28e-05	160.546999931
1730.0	9.28e-05	160.578000069
1730.0	9.28e-05	160.625
1730.0	9.25e-05	160.657000065
1730.0	9.2e-05	160.703000069
1730.0	9.18e-05	160.75
1730.0	9.2e-05	160.782000065
1730.0	9.25e-05	160.828000069
1730.0	9.28e-05	160.875
1730.0	9.3e-05	160.907000065
1730.0	9.28e-05	160.953000069
1730.0	9.28e-05	160.984999895
1730.0	9.28e-05	161.032000065
1730.0	9.28e-05	161.078000069
1730.0	9.28e-05	161.109999895
1730.0	9.28e-05	161.157000065
1730.0	9.28e-05	161.203000069
1730.0	9.28e-05	161.234999895
1740.0	8.83e-05	161.532000065
1740.0	8.68e-05	161.562999964
1740.0	8.58e-05	161.609999895
1740.0	8.5e-05	161.657000065
1740.0	8.45e-05	161.687999964
1740.0	8.43e-05	161.734999895
1740.0	8.38e-05	161.782000065
1740.0	8.38e-05	161.812999964
1740.0	8.33e-05	161.859999895
1740.0	8.33e-05	161.907000065
1740.0	8.33e-05	161.937999964
1740.0	8.33e-05	161.984999895
1740.0	8.33e-05	162.016000032
1740.0	8.33e-05	162.062999964
1740.0	8.3e-05	162.109999895
1740.0	8.3e-05	162.141000032
1740.0	8.33e-05	162.187999964
1740.0	8.3e-05	162.234999895
1740.0	8.28e-05	162.266000032
1740.0	8.28e-05	162.312999964
1740.0	8.25e-05	162.359999895
1740.0	8.25e-05	162.391000032
1740.0	8.25e-05	162.437999964
1740.0	8.25e-05	162.484999895
1740.0	8.28e-05	162.532000065
1740.0	8.3e-05	162.562999964
1740.0	8.3e-05	162.609999895
1740.0	8.3e-05	162.641000032
1740.0	8.3e-05	162.687999964
1740.0	8.3e-05	162.734999895
1740.0	8.3e-05	162.766000032
1740.0	8.33e-05	162.812999964
1740.0	8.3e-05	162.859999895
1740.0	8.28e-05	162.891000032
1740.0	8.2e-05	162.937999964
1740.0	8.2e-05	162.969000101
1740.0	8.25e-05	163.016000032
1750.0	8e-05	163.296999931
1750.0	7.88e-05	163.344000101
1750.0	7.8e-05	163.391000032
1750.0	7.75e-05	163.421999931
1750.0	7.68e-05	163.469000101
1750.0	7.65e-05	163.516000032
1750.0	7.58e-05	163.546999931
1750.0	7.53e-05	163.594000101
1750.0	7.5e-05	163.625
1750.0	7.5e-05	163.671999931
1750.0	7.5e-05	163.719000101
1750.0	7.5e-05	163.766000032
1750.0	7.53e-05	163.796999931
1750.0	7.5e-05	163.844000101
1750.0	7.5e-05	163.875
1750.0	7.45e-05	163.921999931
1750.0	7.45e-05	163.969000101
1750.0	7.43e-05	164.0
1750.0	7.45e-05	164.046999931
1750.0	7.45e-05	164.094000101
1750.0	7.45e-05	164.125
1750.0	7.45e-05	164.171999931
1750.0	7.5e-05	164.219000101
1750.0	7.5e-05	164.25
1750.0	7.53e-05	164.296999931
1750.0	7.53e-05	164.328000069
1750.0	7.55e-05	164.375
1750.0	7.53e-05	164.421999931
1750.0	7.5e-05	164.453000069
1750.0	7.53e-05	164.5
1750.0	7.53e-05	164.546999931
1750.0	7.55e-05	164.578000069
1750.0	7.53e-05	164.625
1750.0	7.53e-05	164.657000065
1750.0	7.55e-05	164.703000069
1750.0	7.55e-05	164.75
1750.0	7.55e-05	164.782000065
1760.0	7.28e-05	165.078000069
1760.0	7.18e-05	165.109999895
1760.0	7.15e-05	165.157000065
1760.0	7.13e-05	165.203000069
1760.0	7.08e-05	165.234999895
1760.0	7.05e-05	165.282000065
1760.0	7.03e-05	165.328000069
1760.0	7e-05	165.359999895
1760.0	7e-05	165.407000065
1760.0	7e-05	165.437999964
1760.0	7e-05	165.484999895
1760.0	6.95e-05	165.532000065
1760.0	7e-05	165.562999964
1760.0	7e-05	165.609999895
1760.0	7e-05	165.657000065
1760.0	7e-05	165.687999964
1760.0	7.03e-05	165.734999895
1760.0	7.03e-05	165.766000032
1760.0	7.03e-05	165.812999964
1760.0	7.03e-05	165.859999895
1760.0	7.05e-05	165.907000065
1760.0	7.05e-05	165.937999964
1760.0	7.05e-05	165.984999895
1760.0	7.05e-05	166.016000032
1760.0	7.05e-05	166.062999964
1760.0	7.03e-05	166.109999895
1760.0	7.03e-05	166.141000032
1760.0	7.03e-05	166.187999964
1760.0	7e-05	166.234999895
1760.0	7e-05	166.266000032
1760.0	7e-05	166.312999964
1760.0	7e-05	166.359999895
1760.0	7e-05	166.391000032
1760.0	6.95e-05	166.437999964
1760.0	7e-05	166.469000101
1760.0	7e-05	166.516000032
1760.0	7e-05	166.562999964
1770.0	6.75e-05	166.844000101
1770.0	6.63e-05	166.891000032
1770.0	6.55e-05	166.937999964
1770.0	6.5e-05	166.969000101
1770.0	6.45e-05	167.016000032
1770.0	6.4e-05	167.046999931
1770.0	6.38e-05	167.094000101
1770.0	6.3e-05	167.141000032
1770.0	6.3e-05	167.171999931
1770.0	6.28e-05	167.219000101
1770.0	6.3e-05	167.266000032
1770.0	6.3e-05	167.296999931
1770.0	6.3e-05	167.344000101
1770.0	6.33e-05	167.375
1770.0	6.33e-05	167.421999931
1770.0	6.38e-05	167.469000101
1770.0	6.38e-05	167.5
1770.0	6.38e-05	167.546999931
1770.0	6.38e-05	167.594000101
1770.0	6.38e-05	167.625
1770.0	6.33e-05	167.671999931
1770.0	6.33e-05	167.703000069
1770.0	6.3e-05	167.75
1770.0	6.3e-05	167.796999931
1770.0	6.28e-05	167.828000069
1770.0	6.25e-05	167.875
1770.0	6.25e-05	167.921999931
1770.0	6.2e-05	167.953000069
1770.0	6.2e-05	168.0
1770.0	6.25e-05	168.046999931
1770.0	6.25e-05	168.078000069
1770.0	6.28e-05	168.125
1770.0	6.3e-05	168.171999931
1770.0	6.33e-05	168.203000069
1770.0	6.33e-05	168.25
1770.0	6.33e-05	168.296999931
1780.0	6e-05	168.578000069
1780.0	5.88e-05	168.625
1780.0	5.78e-05	168.671999931
1780.0	5.7e-05	168.703000069
1780.0	5.68e-05	168.75
1780.0	5.65e-05	168.796999931
1780.0	5.65e-05	168.828000069
1780.0	5.58e-05	168.875
1780.0	5.55e-05	168.907000065
1780.0	5.55e-05	168.953000069
1780.0	5.55e-05	169.0
1780.0	5.55e-05	169.032000065
1780.0	5.53e-05	169.078000069
1780.0	5.53e-05	169.125
1780.0	5.5e-05	169.157000065
1780.0	5.53e-05	169.203000069
1780.0	5.53e-05	169.25
1780.0	5.53e-05	169.282000065
1780.0	5.53e-05	169.328000069
1780.0	5.5e-05	169.359999895
1780.0	5.45e-05	169.407000065
1780.0	5.43e-05	169.453000069
1780.0	5.43e-05	169.5
1780.0	5.45e-05	169.532000065
1780.0	5.45e-05	169.578000069
1780.0	5.45e-05	169.625
1780.0	5.43e-05	169.657000065
1780.0	5.43e-05	169.703000069
1780.0	5.43e-05	169.75
1780.0	5.43e-05	169.782000065
1780.0	5.43e-05	169.828000069
1780.0	5.45e-05	169.859999895
1780.0	5.5e-05	169.907000065
1780.0	5.5e-05	169.953000069
1780.0	5.53e-05	169.984999895
1780.0	5.55e-05	170.032000065
1780.0	5.58e-05	170.078000069
1790.0	5.28e-05	170.359999895
1790.0	5.18e-05	170.407000065
1790.0	5.08e-05	170.453000069
1790.0	5.08e-05	170.484999895
1790.0	5.08e-05	170.532000065
1790.0	5.08e-05	170.562999964
1790.0	5.05e-05	170.609999895
1790.0	5.05e-05	170.657000065
1790.0	5.03e-05	170.687999964
1790.0	5e-05	170.734999895
1790.0	4.95e-05	170.782000065
1790.0	4.95e-05	170.812999964
1790.0	4.95e-05	170.859999895
1790.0	4.95e-05	170.907000065
1790.0	4.95e-05	170.937999964
1790.0	4.95e-05	170.984999895
1790.0	5e-05	171.016000032
1790.0	5e-05	171.062999964
1790.0	5e-05	171.109999895
1790.0	4.95e-05	171.141000032
1790.0	4.95e-05	171.187999964
1790.0	4.95e-05	171.234999895
1790.0	4.93e-05	171.266000032
1790.0	4.93e-05	171.312999964
1790.0	4.95e-05	171.344000101
1790.0	4.95e-05	171.391000032
1790.0	4.95e-05	171.437999964
1790.0	4.95e-05	171.469000101
1790.0	4.93e-05	171.516000032
1790.0	4.95e-05	171.546999931
1790.0	5.03e-05	171.594000101
1790.0	5.03e-05	171.641000032
1790.0	5.05e-05	171.671999931
1790.0	5.05e-05	171.719000101
1790.0	5.05e-05	171.766000032
1790.0	5.03e-05	171.796999931
1790.0	5.03e-05	171.844000101
1800.0	4.8e-05	172.141000032
1800.0	4.75e-05	172.171999931
1800.0	4.68e-05	172.219000101
1800.0	4.65e-05	172.266000032
1800.0	4.58e-05	172.296999931
1800.0	4.55e-05	172.344000101
1800.0	4.53e-05	172.391000032
1800.0	4.5e-05	172.421999931
1800.0	4.45e-05	172.469000101
1800.0	4.45e-05	172.5
1800.0	4.43e-05	172.546999931
1800.0	4.5e-05	172.594000101
1800.0	4.53e-05	172.625
1800.0	4.55e-05	172.671999931
1800.0	4.53e-05	172.719000101
1800.0	4.53e-05	172.75
1800.0	4.53e-05	172.796999931
1800.0	4.53e-05	172.844000101
1800.0	4.5e-05	172.875
1800.0	4.5e-05	172.921999931
1800.0	4.45e-05	172.953000069
1800.0	4.5e-05	173.0
1800.0	4.5e-05	173.046999931
1800.0	4.5e-05	173.078000069
1800.0	4.53e-05	173.125
1800.0	4.5e-05	173.171999931
1800.0	4.5e-05	173.203000069
1800.0	4.5e-05	173.25
1800.0	4.53e-05	173.282000065
1800.0	4.53e-05	173.328000069
1800.0	4.55e-05	173.375
1800.0	4.55e-05	173.407000065
1800.0	4.55e-05	173.453000069
1800.0	4.55e-05	173.5
1800.0	4.55e-05	173.532000065
1800.0	4.55e-05	173.578000069
1800.0	4.55e-05	173.609999895
