Your edit line - do NOT delete this line
Wavelength [nm], Voltage [V], Elapsed time [s]
900.0	0.0002088	0.125
900.0	0.0002088	0.171999931335
900.0	0.0002083	0.203000068665
900.0	0.0002083	0.25
900.0	0.0002078	0.296999931335
900.0	0.0002078	0.328000068665
900.0	0.0002075	0.375
900.0	0.0002075	0.405999898911
900.0	0.0002078	0.453000068665
900.0	0.000208	0.5
900.0	0.000208	0.530999898911
900.0	0.0002088	0.578000068665
900.0	0.0002088	0.625
900.0	0.000208	0.655999898911
900.0	0.0002078	0.703000068665
900.0	0.0002075	0.733999967575
900.0	0.0002075	0.780999898911
900.0	0.0002075	0.828000068665
900.0	0.000207	0.875
900.0	0.0002075	0.905999898911
900.0	0.0002078	0.953000068665
900.0	0.000208	0.983999967575
900.0	0.000208	1.03099989891
900.0	0.0002078	1.07800006866
900.0	0.0002078	1.10899996758
900.0	0.0002078	1.15599989891
900.0	0.0002075	1.20300006866
900.0	0.0002078	1.23399996758
900.0	0.0002078	1.28099989891
900.0	0.000207	1.32800006866
900.0	0.000207	1.35899996758
900.0	0.000207	1.40599989891
900.0	0.0002075	1.43700003624
900.0	0.0002078	1.48399996758
900.0	0.0002075	1.53099989891
900.0	0.000207	1.56200003624
900.0	0.0002068	1.60899996758
910.0	0.0002168	1.90599989891
910.0	0.00022	1.95300006866
910.0	0.000222	2.0
910.0	0.0002243	2.03099989891
910.0	0.0002258	2.07800006866
910.0	0.0002268	2.125
910.0	0.0002278	2.15599989891
910.0	0.0002283	2.20300006866
910.0	0.0002288	2.23399996758
910.0	0.0002293	2.28099989891
910.0	0.00023	2.32800006866
910.0	0.0002303	2.35899996758
910.0	0.0002303	2.40599989891
910.0	0.0002303	2.45300006866
910.0	0.0002303	2.48399996758
910.0	0.0002305	2.53099989891
910.0	0.0002305	2.56200003624
910.0	0.0002305	2.60899996758
910.0	0.0002303	2.65599989891
910.0	0.0002303	2.68700003624
910.0	0.00023	2.73399996758
910.0	0.00023	2.78099989891
910.0	0.0002303	2.81200003624
910.0	0.0002303	2.85899996758
910.0	0.0002303	2.89100003242
910.0	0.0002305	2.93700003624
910.0	0.0002305	2.98399996758
910.0	0.0002308	3.01600003242
910.0	0.0002313	3.06200003624
910.0	0.0002308	3.10899996758
910.0	0.0002308	3.14100003242
910.0	0.0002313	3.18700003624
910.0	0.0002308	3.23399996758
910.0	0.0002313	3.26600003242
910.0	0.0002313	3.31200003624
910.0	0.0002308	3.34399986267
910.0	0.0002308	3.39100003242
920.0	0.0002408	3.70300006866
920.0	0.0002443	3.73399996758
920.0	0.000247	3.78099989891
920.0	0.0002495	3.82800006866
920.0	0.0002515	3.85899996758
920.0	0.0002528	3.90599989891
920.0	0.0002538	3.95300006866
920.0	0.0002543	3.98399996758
920.0	0.0002545	4.03099989891
920.0	0.0002555	4.06200003624
920.0	0.0002555	4.10899996758
920.0	0.0002555	4.15599989891
920.0	0.0002555	4.18700003624
920.0	0.0002555	4.23399996758
920.0	0.0002555	4.28099989891
920.0	0.0002555	4.31200003624
920.0	0.0002558	4.35899996758
920.0	0.0002563	4.39100003242
920.0	0.0002563	4.43700003624
920.0	0.0002563	4.48399996758
920.0	0.0002565	4.51600003242
920.0	0.0002565	4.56200003624
920.0	0.0002565	4.60899996758
920.0	0.0002565	4.64100003242
920.0	0.0002563	4.68700003624
920.0	0.0002563	4.71899986267
920.0	0.0002563	4.76600003242
920.0	0.0002563	4.81200003624
920.0	0.0002558	4.84399986267
920.0	0.0002558	4.89100003242
920.0	0.0002558	4.93700003624
920.0	0.0002563	4.98399996758
920.0	0.0002563	5.01600003242
920.0	0.0002558	5.06200003624
920.0	0.0002555	5.09399986267
920.0	0.0002555	5.14100003242
920.0	0.0002558	5.18700003624
930.0	0.0002668	5.48399996758
930.0	0.0002703	5.53099989891
930.0	0.000273	5.56200003624
930.0	0.0002755	5.60899996758
930.0	0.0002778	5.65599989891
930.0	0.0002793	5.68700003624
930.0	0.0002805	5.73399996758
930.0	0.0002815	5.78099989891
930.0	0.0002825	5.81200003624
930.0	0.0002833	5.85899996758
930.0	0.0002838	5.89100003242
930.0	0.000284	5.93700003624
930.0	0.0002845	5.98399996758
930.0	0.0002845	6.01600003242
930.0	0.0002845	6.06200003624
930.0	0.000285	6.10899996758
930.0	0.000285	6.14100003242
930.0	0.0002845	6.18700003624
930.0	0.0002845	6.21899986267
930.0	0.0002845	6.26600003242
930.0	0.0002845	6.31200003624
930.0	0.0002845	6.34399986267
930.0	0.0002845	6.39100003242
930.0	0.000285	6.43700003624
930.0	0.000285	6.46899986267
930.0	0.000285	6.51600003242
930.0	0.000285	6.54699993134
930.0	0.0002853	6.59399986267
930.0	0.0002855	6.64100003242
930.0	0.0002855	6.67199993134
930.0	0.0002855	6.71899986267
930.0	0.0002855	6.76600003242
930.0	0.0002853	6.79699993134
930.0	0.000285	6.84399986267
930.0	0.0002853	6.89100003242
930.0	0.000285	6.93700003624
940.0	0.0002963	7.23399996758
940.0	0.0002993	7.26600003242
940.0	0.000302	7.31200003624
940.0	0.0003043	7.35899996758
940.0	0.0003058	7.39100003242
940.0	0.0003075	7.43700003624
940.0	0.0003088	7.48399996758
940.0	0.0003095	7.51600003242
940.0	0.0003103	7.56200003624
940.0	0.0003105	7.59399986267
940.0	0.0003108	7.64100003242
940.0	0.0003115	7.68700003624
940.0	0.0003115	7.71899986267
940.0	0.0003118	7.76600003242
940.0	0.0003125	7.81200003624
940.0	0.0003125	7.84399986267
940.0	0.0003125	7.89100003242
940.0	0.000312	7.93700003624
940.0	0.0003118	7.96899986267
940.0	0.0003118	8.01600003242
940.0	0.0003113	8.04699993134
940.0	0.0003115	8.09399986267
940.0	0.0003118	8.14100003242
940.0	0.0003118	8.17199993134
940.0	0.0003118	8.21899986267
940.0	0.0003118	8.26600003242
940.0	0.0003115	8.29699993134
940.0	0.0003115	8.34399986267
940.0	0.0003115	8.375
940.0	0.0003115	8.42199993134
940.0	0.0003118	8.46899986267
940.0	0.000312	8.5
940.0	0.0003125	8.54699993134
940.0	0.0003125	8.59399986267
940.0	0.0003125	8.625
940.0	0.0003125	8.67199993134
940.0	0.000312	8.70300006866
950.0	0.0003238	9.0
950.0	0.000327	9.04699993134
950.0	0.0003305	9.07800006866
950.0	0.000333	9.125
950.0	0.0003353	9.17199993134
950.0	0.0003368	9.20300006866
950.0	0.0003383	9.25
950.0	0.0003393	9.28099989891
950.0	0.0003395	9.32800006866
950.0	0.0003403	9.375
950.0	0.0003405	9.40599989891
950.0	0.0003408	9.45300006866
950.0	0.0003413	9.5
950.0	0.0003408	9.53099989891
950.0	0.0003413	9.57800006866
950.0	0.0003408	9.625
950.0	0.0003408	9.65599989891
950.0	0.0003413	9.70300006866
950.0	0.0003408	9.73399996758
950.0	0.0003413	9.78099989891
950.0	0.0003408	9.82800006866
950.0	0.0003405	9.875
950.0	0.0003405	9.90599989891
950.0	0.0003403	9.95300006866
950.0	0.00034	9.98399996758
950.0	0.00034	10.0309998989
950.0	0.0003393	10.0780000687
950.0	0.0003395	10.1089999676
950.0	0.00034	10.1559998989
950.0	0.00034	10.2030000687
950.0	0.00034	10.2339999676
950.0	0.00034	10.2809998989
950.0	0.00034	10.3120000362
950.0	0.00034	10.3589999676
950.0	0.0003395	10.4059998989
950.0	0.0003395	10.4370000362
950.0	0.00034	10.4839999676
960.0	0.0003513	10.7660000324
960.0	0.0003555	10.8120000362
960.0	0.0003588	10.8589999676
960.0	0.0003608	10.8910000324
960.0	0.000363	10.9370000362
960.0	0.0003645	10.9839999676
960.0	0.0003663	11.0160000324
960.0	0.0003668	11.0620000362
960.0	0.0003675	11.0939998627
960.0	0.0003678	11.1410000324
960.0	0.000368	11.1870000362
960.0	0.0003683	11.2189998627
960.0	0.0003688	11.2660000324
960.0	0.000369	11.3120000362
960.0	0.000369	11.3439998627
960.0	0.000369	11.3910000324
960.0	0.000369	11.4219999313
960.0	0.0003688	11.4689998627
960.0	0.0003683	11.5160000324
960.0	0.000368	11.5469999313
960.0	0.0003688	11.5939998627
960.0	0.0003688	11.6410000324
960.0	0.0003683	11.6719999313
960.0	0.0003688	11.7189998627
960.0	0.000369	11.7660000324
960.0	0.000369	11.7969999313
960.0	0.000369	11.8439998627
960.0	0.000369	11.875
960.0	0.0003693	11.9219999313
960.0	0.0003693	11.9689998627
960.0	0.0003693	12.0
960.0	0.000369	12.0469999313
960.0	0.0003688	12.0939998627
960.0	0.000369	12.125
960.0	0.000369	12.1719999313
960.0	0.000369	12.2189998627
960.0	0.0003693	12.25
970.0	0.0003813	12.5309998989
970.0	0.000385	12.5780000687
970.0	0.000388	12.625
970.0	0.0003905	12.6559998989
970.0	0.0003928	12.7030000687
970.0	0.0003943	12.75
970.0	0.0003953	12.7809998989
970.0	0.0003963	12.8280000687
970.0	0.0003965	12.8589999676
970.0	0.000397	12.9059998989
970.0	0.0003978	12.9530000687
970.0	0.0003978	12.9839999676
970.0	0.0003975	13.0309998989
970.0	0.0003978	13.0780000687
970.0	0.0003975	13.1089999676
970.0	0.0003975	13.1559998989
970.0	0.0003975	13.1870000362
970.0	0.000397	13.2339999676
970.0	0.000397	13.2809998989
970.0	0.0003968	13.3120000362
970.0	0.0003968	13.3589999676
970.0	0.0003968	13.4059998989
970.0	0.0003965	13.4370000362
970.0	0.0003965	13.4839999676
970.0	0.0003965	13.5160000324
970.0	0.0003965	13.5620000362
970.0	0.0003968	13.6089999676
970.0	0.000397	13.6410000324
970.0	0.000397	13.6870000362
970.0	0.0003975	13.7339999676
970.0	0.0003975	13.7660000324
970.0	0.0003975	13.8120000362
970.0	0.0003978	13.8589999676
970.0	0.0003975	13.8910000324
970.0	0.000397	13.9370000362
970.0	0.0003968	13.9839999676
970.0	0.0003965	14.0160000324
980.0	0.0004083	14.2969999313
980.0	0.0004118	14.3439998627
980.0	0.000415	14.375
980.0	0.0004175	14.4219999313
980.0	0.0004193	14.4689998627
980.0	0.0004208	14.5
980.0	0.000422	14.5469999313
980.0	0.000423	14.5939998627
980.0	0.0004238	14.625
980.0	0.0004245	14.6719999313
980.0	0.000425	14.7189998627
980.0	0.0004255	14.75
980.0	0.0004255	14.7969999313
980.0	0.0004258	14.8280000687
980.0	0.0004258	14.875
980.0	0.0004263	14.9219999313
980.0	0.0004263	14.9530000687
980.0	0.0004263	15.0
980.0	0.0004263	15.0469999313
980.0	0.0004258	15.0780000687
980.0	0.0004258	15.125
980.0	0.0004263	15.1559998989
980.0	0.0004265	15.2030000687
980.0	0.0004265	15.25
980.0	0.0004265	15.2809998989
980.0	0.0004265	15.3280000687
980.0	0.0004263	15.375
980.0	0.0004263	15.4059998989
980.0	0.0004263	15.4530000687
980.0	0.0004263	15.4839999676
980.0	0.0004268	15.5309998989
980.0	0.0004268	15.5780000687
980.0	0.000427	15.6089999676
980.0	0.000427	15.6559998989
980.0	0.000427	15.7030000687
980.0	0.0004268	15.7339999676
980.0	0.0004268	15.7809998989
990.0	0.0004375	16.0620000362
990.0	0.0004413	16.0939998627
990.0	0.0004443	16.1410000324
990.0	0.0004465	16.1870000362
990.0	0.0004488	16.2189998627
990.0	0.00045	16.2660000324
990.0	0.0004513	16.2969999313
990.0	0.000452	16.3439998627
990.0	0.000453	16.3910000324
990.0	0.0004538	16.4219999313
990.0	0.0004538	16.4689998627
990.0	0.0004538	16.5160000324
990.0	0.000454	16.5469999313
990.0	0.000454	16.5939998627
990.0	0.000454	16.6410000324
990.0	0.000454	16.6719999313
990.0	0.0004538	16.7189998627
990.0	0.000454	16.75
990.0	0.0004538	16.7969999313
990.0	0.0004538	16.8439998627
990.0	0.000454	16.8910000324
990.0	0.000454	16.9219999313
990.0	0.0004543	16.9689998627
990.0	0.0004543	17.0
990.0	0.0004543	17.0469999313
990.0	0.000454	17.0939998627
990.0	0.0004538	17.125
990.0	0.0004538	17.1719999313
990.0	0.0004538	17.2189998627
990.0	0.0004533	17.25
990.0	0.000453	17.2969999313
990.0	0.000453	17.3280000687
990.0	0.000453	17.375
990.0	0.000453	17.4219999313
990.0	0.0004533	17.4530000687
990.0	0.000453	17.5
990.0	0.000453	17.5469999313
1000.0	0.000464	17.8120000362
1000.0	0.0004678	17.8589999676
1000.0	0.0004708	17.8910000324
1000.0	0.0004738	17.9370000362
1000.0	0.0004758	17.9839999676
1000.0	0.0004778	18.0160000324
1000.0	0.0004793	18.0620000362
1000.0	0.0004805	18.1089999676
1000.0	0.0004815	18.1410000324
1000.0	0.000482	18.1870000362
1000.0	0.0004828	18.2189998627
1000.0	0.000483	18.2660000324
1000.0	0.000483	18.3120000362
1000.0	0.000483	18.3439998627
1000.0	0.000483	18.3910000324
1000.0	0.000483	18.4370000362
1000.0	0.000483	18.4689998627
1000.0	0.0004833	18.5160000324
1000.0	0.0004838	18.5620000362
1000.0	0.0004843	18.5939998627
1000.0	0.0004843	18.6410000324
1000.0	0.0004845	18.6719999313
1000.0	0.0004845	18.7189998627
1000.0	0.0004845	18.7660000324
1000.0	0.0004845	18.7969999313
1000.0	0.0004845	18.8439998627
1000.0	0.0004845	18.8910000324
1000.0	0.0004845	18.9219999313
1000.0	0.0004843	18.9689998627
1000.0	0.0004845	19.0
1000.0	0.0004845	19.0469999313
1000.0	0.0004845	19.0939998627
1000.0	0.0004843	19.125
1000.0	0.000484	19.1719999313
1000.0	0.000484	19.2189998627
1000.0	0.000484	19.25
1000.0	0.000484	19.2969999313
1010.0	0.0004945	19.5780000687
1010.0	0.0004983	19.6089999676
1010.0	0.0005013	19.6559998989
1010.0	0.0005038	19.7030000687
1010.0	0.0005055	19.7339999676
1010.0	0.000507	19.7809998989
1010.0	0.000508	19.8120000362
1010.0	0.0005088	19.8589999676
1010.0	0.0005095	19.9059998989
1010.0	0.00051	19.9370000362
1010.0	0.0005103	19.9839999676
1010.0	0.0005105	20.0309998989
1010.0	0.0005108	20.0620000362
1010.0	0.0005108	20.1089999676
1010.0	0.0005113	20.1410000324
1010.0	0.0005113	20.1870000362
1010.0	0.0005105	20.2339999676
1010.0	0.0005105	20.2660000324
1010.0	0.0005105	20.3120000362
1010.0	0.0005103	20.3589999676
1010.0	0.0005103	20.3910000324
1010.0	0.00051	20.4370000362
1010.0	0.00051	20.4839999676
1010.0	0.0005095	20.5160000324
1010.0	0.0005095	20.5620000362
1010.0	0.00051	20.6089999676
1010.0	0.0005095	20.6410000324
1010.0	0.00051	20.6870000362
1010.0	0.00051	20.7339999676
1010.0	0.0005103	20.7660000324
1010.0	0.0005105	20.8120000362
1010.0	0.0005105	20.8439998627
1010.0	0.0005105	20.8910000324
1010.0	0.0005108	20.9370000362
1010.0	0.0005108	20.9689998627
1010.0	0.0005113	21.0160000324
1010.0	0.0005113	21.0620000362
1020.0	0.000522	21.3439998627
1020.0	0.0005263	21.375
1020.0	0.0005288	21.4219999313
1020.0	0.0005315	21.4689998627
1020.0	0.0005338	21.5
1020.0	0.000535	21.5469999313
1020.0	0.0005363	21.5939998627
1020.0	0.0005375	21.625
1020.0	0.000538	21.6719999313
1020.0	0.0005393	21.7030000687
1020.0	0.0005395	21.75
1020.0	0.00054	21.7969999313
1020.0	0.0005403	21.8280000687
1020.0	0.0005403	21.875
1020.0	0.0005403	21.9219999313
1020.0	0.00054	21.9530000687
1020.0	0.0005395	22.0
1020.0	0.00054	22.0469999313
1020.0	0.0005403	22.0780000687
1020.0	0.0005405	22.125
1020.0	0.0005413	22.1719999313
1020.0	0.0005413	22.2030000687
1020.0	0.0005413	22.25
1020.0	0.0005415	22.2809998989
1020.0	0.0005415	22.3280000687
1020.0	0.0005415	22.375
1020.0	0.0005415	22.4059998989
1020.0	0.0005413	22.4530000687
1020.0	0.0005415	22.5
1020.0	0.0005415	22.5309998989
1020.0	0.0005413	22.5780000687
1020.0	0.0005415	22.6089999676
1020.0	0.0005413	22.6559998989
1020.0	0.0005413	22.7030000687
1020.0	0.0005413	22.7339999676
1020.0	0.0005408	22.7809998989
1020.0	0.0005413	22.8280000687
1030.0	0.0005525	23.1089999676
1030.0	0.0005563	23.1410000324
1030.0	0.0005593	23.1870000362
1030.0	0.0005618	23.2339999676
1030.0	0.0005638	23.2809998989
1030.0	0.000565	23.3120000362
1030.0	0.0005663	23.3589999676
1030.0	0.000567	23.3910000324
1030.0	0.0005678	23.4370000362
1030.0	0.000568	23.4839999676
1030.0	0.0005683	23.5160000324
1030.0	0.0005688	23.5620000362
1030.0	0.0005688	23.6089999676
1030.0	0.000569	23.6410000324
1030.0	0.000569	23.6870000362
1030.0	0.000569	23.7189998627
1030.0	0.000569	23.7660000324
1030.0	0.000569	23.8120000362
1030.0	0.000569	23.8439998627
1030.0	0.000569	23.8910000324
1030.0	0.0005693	23.9370000362
1030.0	0.0005695	23.9689998627
1030.0	0.0005695	24.0160000324
1030.0	0.0005693	24.0620000362
1030.0	0.000569	24.0939998627
1030.0	0.0005688	24.1410000324
1030.0	0.0005688	24.1719999313
1030.0	0.0005683	24.2189998627
1030.0	0.000568	24.2660000324
1030.0	0.0005683	24.2969999313
1030.0	0.0005688	24.3439998627
1030.0	0.0005688	24.3910000324
1030.0	0.0005683	24.4219999313
1030.0	0.000568	24.4689998627
1030.0	0.0005678	24.5
1030.0	0.0005678	24.5469999313
1030.0	0.0005675	24.5939998627
1040.0	0.00058	24.875
1040.0	0.000584	24.9059998989
1040.0	0.0005875	24.9530000687
1040.0	0.00059	25.0
1040.0	0.000592	25.0309998989
1040.0	0.0005938	25.0780000687
1040.0	0.000595	25.125
1040.0	0.0005958	25.1559998989
1040.0	0.0005968	25.2030000687
1040.0	0.000597	25.2339999676
1040.0	0.0005975	25.2809998989
1040.0	0.0005978	25.3280000687
1040.0	0.0005975	25.3589999676
1040.0	0.0005978	25.4059998989
1040.0	0.000598	25.4530000687
1040.0	0.0005983	25.4839999676
1040.0	0.0005988	25.5309998989
1040.0	0.0005988	25.5620000362
1040.0	0.0005988	25.6089999676
1040.0	0.0005988	25.6559998989
1040.0	0.0005988	25.6870000362
1040.0	0.0005983	25.7339999676
1040.0	0.0005988	25.7809998989
1040.0	0.0005988	25.8120000362
1040.0	0.000599	25.8589999676
1040.0	0.000599	25.9059998989
1040.0	0.000599	25.9370000362
1040.0	0.0005993	25.9839999676
1040.0	0.0005993	26.0160000324
1040.0	0.0005993	26.0620000362
1040.0	0.0005995	26.1089999676
1040.0	0.0005995	26.1410000324
1040.0	0.0005993	26.1870000362
1040.0	0.0005995	26.2339999676
1040.0	0.0005995	26.2660000324
1040.0	0.0005995	26.3120000362
1040.0	0.0005993	26.3439998627
1050.0	0.0006108	26.6410000324
1050.0	0.000615	26.6719999313
1050.0	0.0006178	26.7189998627
1050.0	0.00062	26.7660000324
1050.0	0.0006218	26.7969999313
1050.0	0.000623	26.8439998627
1050.0	0.0006245	26.875
1050.0	0.0006253	26.9219999313
1050.0	0.0006258	26.9689998627
1050.0	0.0006258	27.0
1050.0	0.0006263	27.0469999313
1050.0	0.0006265	27.0939998627
1050.0	0.0006268	27.125
1050.0	0.0006268	27.1719999313
1050.0	0.0006268	27.2030000687
1050.0	0.0006268	27.25
1050.0	0.0006268	27.2969999313
1050.0	0.000627	27.3280000687
1050.0	0.0006268	27.375
1050.0	0.0006268	27.4219999313
1050.0	0.0006268	27.4530000687
1050.0	0.0006268	27.5
1050.0	0.0006268	27.5309998989
1050.0	0.0006268	27.5780000687
1050.0	0.0006265	27.625
1050.0	0.0006268	27.6719999313
1050.0	0.0006265	27.7030000687
1050.0	0.0006265	27.75
1050.0	0.0006265	27.7809998989
1050.0	0.0006263	27.8280000687
1050.0	0.0006263	27.875
1050.0	0.0006263	27.9059998989
1050.0	0.0006263	27.9530000687
1050.0	0.0006265	28.0
1050.0	0.0006265	28.0309998989
1050.0	0.0006263	28.0780000687
1050.0	0.0006263	28.1089999676
1060.0	0.0006375	28.4059998989
1060.0	0.000641	28.4370000362
1060.0	0.000644	28.4839999676
1060.0	0.0006468	28.5160000324
1060.0	0.000649	28.5620000362
1060.0	0.0006505	28.6089999676
1060.0	0.0006515	28.6410000324
1060.0	0.0006525	28.6870000362
1060.0	0.0006528	28.7339999676
1060.0	0.0006535	28.7660000324
1060.0	0.0006538	28.8120000362
1060.0	0.000654	28.8589999676
1060.0	0.0006543	28.8910000324
1060.0	0.0006543	28.9370000362
1060.0	0.0006548	28.9689998627
1060.0	0.0006553	29.0160000324
1060.0	0.000656	29.0620000362
1060.0	0.0006563	29.0939998627
1060.0	0.0006565	29.1410000324
1060.0	0.0006565	29.1870000362
1060.0	0.0006565	29.2189998627
1060.0	0.0006565	29.2660000324
1060.0	0.0006563	29.3120000362
1060.0	0.0006565	29.3439998627
1060.0	0.0006565	29.3910000324
1060.0	0.0006565	29.4370000362
1060.0	0.0006565	29.4689998627
1060.0	0.0006565	29.5160000324
1060.0	0.0006565	29.5469999313
1060.0	0.0006565	29.5939998627
1060.0	0.0006563	29.6410000324
1060.0	0.0006563	29.6719999313
1060.0	0.0006563	29.7189998627
1060.0	0.0006563	29.7660000324
1060.0	0.0006563	29.7969999313
1060.0	0.000656	29.8439998627
1060.0	0.000656	29.8910000324
1070.0	0.0006653	30.1719999313
1070.0	0.0006685	30.2030000687
1070.0	0.0006718	30.25
1070.0	0.000674	30.2969999313
1070.0	0.0006755	30.3280000687
1070.0	0.0006773	30.375
1070.0	0.0006785	30.4219999313
1070.0	0.000679	30.4530000687
1070.0	0.0006798	30.5
1070.0	0.00068	30.5469999313
1070.0	0.0006803	30.5780000687
1070.0	0.0006805	30.625
1070.0	0.0006805	30.6559998989
1070.0	0.0006803	30.7030000687
1070.0	0.0006803	30.75
1070.0	0.0006805	30.7809998989
1070.0	0.000681	30.8280000687
1070.0	0.0006805	30.875
1070.0	0.0006803	30.9059998989
1070.0	0.0006803	30.9530000687
1070.0	0.0006803	30.9839999676
1070.0	0.00068	31.0309998989
1070.0	0.0006803	31.0780000687
1070.0	0.0006803	31.125
1070.0	0.0006805	31.1559998989
1070.0	0.0006803	31.2030000687
1070.0	0.0006805	31.25
1070.0	0.0006805	31.2809998989
1070.0	0.0006803	31.3280000687
1070.0	0.0006803	31.3589999676
1070.0	0.000681	31.4059998989
1070.0	0.000681	31.4530000687
1070.0	0.000681	31.4839999676
1070.0	0.000681	31.5309998989
1070.0	0.000681	31.5780000687
1070.0	0.000681	31.6089999676
1070.0	0.0006813	31.6559998989
1080.0	0.0006913	31.9370000362
1080.0	0.0006948	31.9839999676
1080.0	0.0006975	32.0160000324
1080.0	0.0007	32.0620000362
1080.0	0.0007023	32.0939998627
1080.0	0.0007035	32.1410000324
1080.0	0.0007048	32.1870000362
1080.0	0.0007053	32.2189998627
1080.0	0.000706	32.2660000324
1080.0	0.0007063	32.3120000362
1080.0	0.0007065	32.3439998627
1080.0	0.0007073	32.3910000324
1080.0	0.0007075	32.4370000362
1080.0	0.0007075	32.4689998627
1080.0	0.000708	32.5160000324
1080.0	0.0007085	32.5469999313
1080.0	0.0007085	32.5939998627
1080.0	0.0007085	32.6410000324
1080.0	0.0007078	32.6719999313
1080.0	0.0007078	32.7189998627
1080.0	0.0007078	32.7660000324
1080.0	0.0007078	32.7969999313
1080.0	0.0007078	32.8439998627
1080.0	0.0007078	32.875
1080.0	0.0007078	32.9219999313
1080.0	0.000708	32.9689998627
1080.0	0.0007078	33.0
1080.0	0.0007078	33.0469999313
1080.0	0.000708	33.0939998627
1080.0	0.000708	33.125
1080.0	0.0007085	33.1719999313
1080.0	0.0007078	33.2030000687
1080.0	0.0007075	33.25
1080.0	0.0007075	33.2969999313
1080.0	0.0007068	33.3280000687
1080.0	0.0007068	33.375
1080.0	0.0007065	33.4219999313
1090.0	0.0007143	33.7030000687
1090.0	0.0007178	33.7339999676
1090.0	0.0007203	33.7809998989
1090.0	0.0007225	33.8280000687
1090.0	0.000724	33.8589999676
1090.0	0.000725	33.9059998989
1090.0	0.000726	33.9370000362
1090.0	0.0007265	33.9839999676
1090.0	0.0007268	34.0309998989
1090.0	0.0007275	34.0620000362
1090.0	0.0007278	34.1089999676
1090.0	0.0007278	34.1559998989
1090.0	0.0007285	34.1870000362
1090.0	0.0007285	34.2339999676
1090.0	0.0007285	34.2809998989
1090.0	0.0007285	34.3120000362
1090.0	0.000728	34.3589999676
1090.0	0.0007278	34.3910000324
1090.0	0.0007278	34.4370000362
1090.0	0.0007278	34.4839999676
1090.0	0.0007278	34.5160000324
1090.0	0.0007278	34.5620000362
1090.0	0.000728	34.6089999676
1090.0	0.0007285	34.6410000324
1090.0	0.0007288	34.6870000362
1090.0	0.0007288	34.7189998627
1090.0	0.0007288	34.7660000324
1090.0	0.000729	34.8120000362
1090.0	0.0007288	34.8439998627
1090.0	0.0007288	34.8910000324
1090.0	0.0007285	34.9370000362
1090.0	0.0007285	34.9689998627
1090.0	0.0007285	35.0160000324
1090.0	0.000729	35.0469999313
1090.0	0.000729	35.0939998627
1090.0	0.000729	35.1410000324
1090.0	0.0007293	35.1719999313
1100.0	0.00074	35.4530000687
1100.0	0.0007428	35.5
1100.0	0.000745	35.5469999313
1100.0	0.0007463	35.5780000687
1100.0	0.0007475	35.625
1100.0	0.0007488	35.6719999313
1100.0	0.0007498	35.7030000687
1100.0	0.0007503	35.75
1100.0	0.0007503	35.7809998989
1100.0	0.0007503	35.8280000687
1100.0	0.0007503	35.875
1100.0	0.0007505	35.9059998989
1100.0	0.000751	35.9530000687
1100.0	0.0007513	36.0
1100.0	0.0007513	36.0309998989
1100.0	0.0007515	36.0780000687
1100.0	0.0007515	36.1089999676
1100.0	0.0007515	36.1559998989
1100.0	0.0007515	36.2030000687
1100.0	0.0007515	36.2339999676
1100.0	0.0007515	36.2809998989
1100.0	0.0007515	36.3280000687
1100.0	0.0007513	36.3589999676
1100.0	0.0007513	36.4059998989
1100.0	0.0007513	36.4530000687
1100.0	0.000751	36.5
1100.0	0.000751	36.5309998989
1100.0	0.0007505	36.5780000687
1100.0	0.0007505	36.625
1100.0	0.0007505	36.6559998989
1100.0	0.0007503	36.7030000687
1100.0	0.0007505	36.7339999676
1100.0	0.0007503	36.7809998989
1100.0	0.00075	36.8280000687
1100.0	0.00075	36.8589999676
1100.0	0.00075	36.9059998989
1100.0	0.00075	36.9530000687
1110.0	0.000756	37.2339999676
1110.0	0.000758	37.2809998989
1110.0	0.00076	37.3120000362
1110.0	0.0007613	37.3589999676
1110.0	0.0007618	37.4059998989
1110.0	0.000763	37.4370000362
1110.0	0.0007638	37.4839999676
1110.0	0.0007643	37.5160000324
1110.0	0.0007653	37.5620000362
1110.0	0.0007655	37.6089999676
1110.0	0.000766	37.6410000324
1110.0	0.0007663	37.6870000362
1110.0	0.000766	37.7339999676
1110.0	0.000766	37.7660000324
1110.0	0.0007663	37.8120000362
1110.0	0.0007665	37.8439998627
1110.0	0.0007668	37.8910000324
1110.0	0.0007673	37.9370000362
1110.0	0.0007673	37.9689998627
1110.0	0.0007673	38.0160000324
1110.0	0.0007673	38.0620000362
1110.0	0.0007673	38.0939998627
1110.0	0.0007673	38.1410000324
1110.0	0.0007673	38.1719999313
1110.0	0.0007675	38.2189998627
1110.0	0.0007678	38.2660000324
1110.0	0.0007678	38.2969999313
1110.0	0.000768	38.3439998627
1110.0	0.000768	38.3910000324
1110.0	0.000768	38.4219999313
1110.0	0.0007685	38.4689998627
1110.0	0.000768	38.5160000324
1110.0	0.000768	38.5469999313
1110.0	0.000768	38.5939998627
1110.0	0.0007678	38.625
1110.0	0.000768	38.6719999313
1110.0	0.0007678	38.7189998627
1120.0	0.0007735	39.0
1120.0	0.000776	39.0309998989
1120.0	0.0007775	39.0780000687
1120.0	0.000779	39.1089999676
1120.0	0.0007805	39.1559998989
1120.0	0.0007815	39.2030000687
1120.0	0.0007823	39.2339999676
1120.0	0.0007825	39.2809998989
1120.0	0.0007828	39.3280000687
1120.0	0.000783	39.3589999676
1120.0	0.000783	39.4059998989
1120.0	0.0007835	39.4370000362
1120.0	0.0007838	39.4839999676
1120.0	0.0007835	39.5309998989
1120.0	0.0007835	39.5780000687
1120.0	0.0007835	39.6089999676
1120.0	0.0007835	39.6559998989
1120.0	0.0007835	39.6870000362
1120.0	0.0007835	39.7339999676
1120.0	0.0007838	39.7809998989
1120.0	0.0007835	39.8120000362
1120.0	0.0007835	39.8589999676
1120.0	0.0007835	39.9059998989
1120.0	0.000783	39.9370000362
1120.0	0.0007828	39.9839999676
1120.0	0.0007828	40.0160000324
1120.0	0.000783	40.0620000362
1120.0	0.000783	40.1089999676
1120.0	0.0007835	40.1410000324
1120.0	0.000783	40.1870000362
1120.0	0.000783	40.2339999676
1120.0	0.000783	40.2660000324
1120.0	0.000783	40.3120000362
1120.0	0.0007835	40.3589999676
1120.0	0.0007835	40.3910000324
1120.0	0.0007835	40.4370000362
1120.0	0.000783	40.4689998627
1130.0	0.0007873	40.75
1130.0	0.0007885	40.7969999313
1130.0	0.00079	40.8280000687
1130.0	0.0007915	40.875
1130.0	0.0007928	40.9219999313
1130.0	0.0007938	40.9530000687
1130.0	0.0007943	41.0
1130.0	0.0007948	41.0309998989
1130.0	0.0007948	41.0780000687
1130.0	0.0007948	41.125
1130.0	0.000795	41.1559998989
1130.0	0.0007953	41.2030000687
1130.0	0.0007953	41.25
1130.0	0.0007953	41.2809998989
1130.0	0.0007953	41.3280000687
1130.0	0.000795	41.375
1130.0	0.000795	41.4059998989
1130.0	0.000795	41.4530000687
1130.0	0.0007953	41.5
1130.0	0.000795	41.5309998989
1130.0	0.0007948	41.5780000687
1130.0	0.0007948	41.6089999676
1130.0	0.0007943	41.6559998989
1130.0	0.0007948	41.7030000687
1130.0	0.000795	41.7339999676
1130.0	0.0007953	41.7809998989
1130.0	0.0007953	41.8280000687
1130.0	0.0007953	41.8589999676
1130.0	0.0007948	41.9059998989
1130.0	0.000795	41.9530000687
1130.0	0.000795	41.9839999676
1130.0	0.000795	42.0309998989
1130.0	0.0007953	42.0620000362
1130.0	0.0007953	42.1089999676
1130.0	0.0007953	42.1559998989
1130.0	0.0007955	42.1870000362
1130.0	0.0007953	42.2339999676
1140.0	0.0008	42.5
1140.0	0.0008015	42.5469999313
1140.0	0.0008025	42.5939998627
1140.0	0.000804	42.625
1140.0	0.0008048	42.6719999313
1140.0	0.0008053	42.7030000687
1140.0	0.000806	42.75
1140.0	0.0008065	42.7969999313
1140.0	0.0008073	42.8280000687
1140.0	0.0008075	42.875
1140.0	0.0008078	42.9219999313
1140.0	0.0008085	42.9530000687
1140.0	0.0008085	43.0
1140.0	0.0008085	43.0309998989
1140.0	0.0008088	43.0780000687
1140.0	0.0008085	43.125
1140.0	0.0008088	43.1559998989
1140.0	0.000809	43.2030000687
1140.0	0.000809	43.25
1140.0	0.000809	43.2809998989
1140.0	0.000809	43.3280000687
1140.0	0.000809	43.3589999676
1140.0	0.0008093	43.4059998989
1140.0	0.0008093	43.4530000687
1140.0	0.0008093	43.4839999676
1140.0	0.0008098	43.5309998989
1140.0	0.0008098	43.5780000687
1140.0	0.0008093	43.6089999676
1140.0	0.0008093	43.6559998989
1140.0	0.000809	43.7030000687
1140.0	0.000809	43.7339999676
1140.0	0.0008088	43.7809998989
1140.0	0.000809	43.8120000362
1140.0	0.000809	43.8589999676
1140.0	0.000809	43.9059998989
1140.0	0.0008088	43.9370000362
1140.0	0.0008085	43.9839999676
1150.0	0.0008115	44.25
1150.0	0.000813	44.2969999313
1150.0	0.000814	44.3280000687
1150.0	0.000815	44.375
1150.0	0.0008155	44.4059998989
1150.0	0.000816	44.4530000687
1150.0	0.0008163	44.5
1150.0	0.0008165	44.5469999313
1150.0	0.0008168	44.5780000687
1150.0	0.0008173	44.625
1150.0	0.0008173	44.6719999313
1150.0	0.0008173	44.7030000687
1150.0	0.0008173	44.75
1150.0	0.0008173	44.7809998989
1150.0	0.0008168	44.8280000687
1150.0	0.0008168	44.875
1150.0	0.0008165	44.9059998989
1150.0	0.0008163	44.9530000687
1150.0	0.0008163	45.0
1150.0	0.000816	45.0309998989
1150.0	0.000816	45.0780000687
1150.0	0.000816	45.1089999676
1150.0	0.0008155	45.1559998989
1150.0	0.000816	45.2030000687
1150.0	0.0008155	45.2339999676
1150.0	0.0008155	45.2809998989
1150.0	0.000816	45.3280000687
1150.0	0.0008163	45.3589999676
1150.0	0.0008163	45.4059998989
1150.0	0.0008163	45.4370000362
1150.0	0.0008163	45.4839999676
1150.0	0.0008163	45.5309998989
1150.0	0.0008163	45.5620000362
1150.0	0.0008163	45.6089999676
1150.0	0.0008163	45.6559998989
1150.0	0.0008163	45.6870000362
1150.0	0.0008163	45.7339999676
1160.0	0.00082	46.0
1160.0	0.000821	46.0309998989
1160.0	0.0008218	46.0780000687
1160.0	0.000823	46.125
1160.0	0.0008235	46.1559998989
1160.0	0.000824	46.2030000687
1160.0	0.0008248	46.2339999676
1160.0	0.000825	46.2809998989
1160.0	0.0008253	46.3280000687
1160.0	0.0008253	46.3589999676
1160.0	0.0008255	46.4059998989
1160.0	0.000826	46.4530000687
1160.0	0.000826	46.4839999676
1160.0	0.0008265	46.5309998989
1160.0	0.0008268	46.5780000687
1160.0	0.0008268	46.6089999676
1160.0	0.0008273	46.6559998989
1160.0	0.0008273	46.6870000362
1160.0	0.0008275	46.7339999676
1160.0	0.0008278	46.7809998989
1160.0	0.0008278	46.8120000362
1160.0	0.000828	46.8589999676
1160.0	0.0008285	46.9059998989
1160.0	0.000828	46.9370000362
1160.0	0.000828	46.9839999676
1160.0	0.0008285	47.0309998989
1160.0	0.0008285	47.0780000687
1160.0	0.0008285	47.1089999676
1160.0	0.000828	47.1559998989
1160.0	0.0008278	47.2030000687
1160.0	0.000828	47.2339999676
1160.0	0.0008278	47.2809998989
1160.0	0.0008278	47.3280000687
1160.0	0.0008278	47.3589999676
1160.0	0.0008278	47.4059998989
1160.0	0.0008278	47.4370000362
1170.0	0.00083	47.7030000687
1170.0	0.000831	47.75
1170.0	0.0008318	47.7809998989
1170.0	0.0008328	47.8280000687
1170.0	0.0008335	47.875
1170.0	0.0008343	47.9059998989
1170.0	0.0008348	47.9530000687
1170.0	0.0008353	47.9839999676
1170.0	0.0008355	48.0309998989
1170.0	0.000836	48.0780000687
1170.0	0.000836	48.1089999676
1170.0	0.000836	48.1559998989
1170.0	0.000836	48.2030000687
1170.0	0.000836	48.2339999676
1170.0	0.000836	48.2809998989
1170.0	0.0008353	48.3120000362
1170.0	0.0008355	48.3589999676
1170.0	0.0008355	48.4059998989
1170.0	0.000836	48.4370000362
1170.0	0.000836	48.4839999676
1170.0	0.0008355	48.5309998989
1170.0	0.0008353	48.5620000362
1170.0	0.000835	48.6089999676
1170.0	0.0008343	48.6410000324
1170.0	0.0008348	48.6870000362
1170.0	0.000834	48.7339999676
1170.0	0.000834	48.7660000324
1170.0	0.0008343	48.8120000362
1170.0	0.0008343	48.8589999676
1170.0	0.000834	48.8910000324
1170.0	0.0008343	48.9370000362
1170.0	0.0008343	48.9839999676
1170.0	0.0008348	49.0160000324
1170.0	0.0008343	49.0620000362
1170.0	0.000834	49.0939998627
1170.0	0.000834	49.1410000324
1170.0	0.0008338	49.1870000362
1180.0	0.0008378	49.4370000362
1180.0	0.0008388	49.4839999676
1180.0	0.0008398	49.5160000324
1180.0	0.0008405	49.5620000362
1180.0	0.0008415	49.6089999676
1180.0	0.0008425	49.6410000324
1180.0	0.0008435	49.6870000362
1180.0	0.0008438	49.7339999676
1180.0	0.0008438	49.7660000324
1180.0	0.000844	49.8120000362
1180.0	0.0008438	49.8589999676
1180.0	0.0008438	49.8910000324
1180.0	0.000844	49.9370000362
1180.0	0.000844	49.9689998627
1180.0	0.0008443	50.0160000324
1180.0	0.0008443	50.0620000362
1180.0	0.0008443	50.0939998627
1180.0	0.0008448	50.1410000324
1180.0	0.000845	50.1870000362
1180.0	0.000845	50.2189998627
1180.0	0.0008453	50.2660000324
1180.0	0.000845	50.2969999313
1180.0	0.0008453	50.3439998627
1180.0	0.000846	50.3910000324
1180.0	0.0008455	50.4219999313
1180.0	0.000846	50.4689998627
1180.0	0.000846	50.5160000324
1180.0	0.0008455	50.5469999313
1180.0	0.000846	50.5939998627
1180.0	0.000846	50.625
1180.0	0.0008455	50.6719999313
1180.0	0.000846	50.7189998627
1180.0	0.0008455	50.75
1180.0	0.000846	50.7969999313
1180.0	0.0008455	50.8439998627
1180.0	0.0008455	50.875
1180.0	0.000846	50.9219999313
1190.0	0.0008498	51.1719999313
1190.0	0.000851	51.2189998627
1190.0	0.0008523	51.2660000324
1190.0	0.0008528	51.2969999313
1190.0	0.000853	51.3439998627
1190.0	0.0008535	51.3910000324
1190.0	0.0008535	51.4219999313
1190.0	0.0008538	51.4689998627
1190.0	0.000854	51.5
1190.0	0.000854	51.5469999313
1190.0	0.0008543	51.5939998627
1190.0	0.000854	51.625
1190.0	0.000854	51.6719999313
1190.0	0.000854	51.7189998627
1190.0	0.0008538	51.75
1190.0	0.0008538	51.7969999313
1190.0	0.0008538	51.8439998627
1190.0	0.000854	51.875
1190.0	0.000854	51.9219999313
1190.0	0.000854	51.9530000687
1190.0	0.0008535	52.0
1190.0	0.0008535	52.0469999313
1190.0	0.0008535	52.0780000687
1190.0	0.0008535	52.125
1190.0	0.0008535	52.1559998989
1190.0	0.000853	52.2030000687
1190.0	0.0008528	52.25
1190.0	0.0008528	52.2809998989
1190.0	0.0008528	52.3280000687
1190.0	0.0008528	52.375
1190.0	0.0008525	52.4219999313
1190.0	0.0008525	52.4530000687
1190.0	0.0008525	52.5
1190.0	0.0008525	52.5309998989
1190.0	0.0008523	52.5780000687
1190.0	0.0008525	52.625
1190.0	0.0008525	52.6559998989
1200.0	0.000856	52.9219999313
1200.0	0.0008573	52.9689998627
1200.0	0.000858	53.0
1200.0	0.0008588	53.0469999313
1200.0	0.0008593	53.0939998627
1200.0	0.00086	53.125
1200.0	0.0008605	53.1719999313
1200.0	0.0008613	53.2189998627
1200.0	0.0008615	53.25
1200.0	0.0008623	53.2969999313
1200.0	0.0008625	53.3280000687
1200.0	0.0008628	53.375
1200.0	0.0008628	53.4219999313
1200.0	0.0008628	53.4530000687
1200.0	0.000863	53.5
1200.0	0.0008635	53.5469999313
1200.0	0.0008638	53.5780000687
1200.0	0.0008638	53.625
1200.0	0.0008638	53.6559998989
1200.0	0.0008635	53.7030000687
1200.0	0.0008635	53.75
1200.0	0.0008635	53.7809998989
1200.0	0.0008635	53.8280000687
1200.0	0.0008635	53.875
1200.0	0.000864	53.9059998989
1200.0	0.0008648	53.9530000687
1200.0	0.0008653	54.0
1200.0	0.0008653	54.0309998989
1200.0	0.0008653	54.0780000687
1200.0	0.000865	54.1089999676
1200.0	0.000865	54.1559998989
1200.0	0.000865	54.2030000687
1200.0	0.0008648	54.25
1200.0	0.000865	54.2809998989
1200.0	0.000865	54.3280000687
1200.0	0.000865	54.3589999676
1200.0	0.000865	54.4059998989
1210.0	0.0008685	54.6719999313
1210.0	0.0008698	54.7189998627
1210.0	0.0008705	54.75
1210.0	0.0008713	54.7969999313
1210.0	0.0008718	54.8439998627
1210.0	0.0008723	54.875
1210.0	0.0008723	54.9219999313
1210.0	0.0008725	54.9689998627
1210.0	0.0008725	55.0
1210.0	0.000873	55.0469999313
1210.0	0.0008728	55.0780000687
1210.0	0.0008728	55.125
1210.0	0.0008728	55.1719999313
1210.0	0.0008728	55.2030000687
1210.0	0.0008723	55.25
1210.0	0.0008723	55.2969999313
1210.0	0.0008723	55.3280000687
1210.0	0.0008718	55.375
1210.0	0.0008723	55.4059998989
1210.0	0.0008723	55.4530000687
1210.0	0.0008723	55.5
1210.0	0.0008725	55.5309998989
1210.0	0.0008725	55.5780000687
1210.0	0.0008725	55.625
1210.0	0.0008725	55.6559998989
1210.0	0.0008723	55.7030000687
1210.0	0.0008725	55.7339999676
1210.0	0.0008725	55.7809998989
1210.0	0.0008723	55.8280000687
1210.0	0.0008723	55.8589999676
1210.0	0.0008723	55.9059998989
1210.0	0.0008723	55.9530000687
1210.0	0.0008725	55.9839999676
1210.0	0.0008725	56.0309998989
1210.0	0.0008725	56.0780000687
1210.0	0.0008723	56.1089999676
1210.0	0.0008723	56.1559998989
1220.0	0.0008755	56.4219999313
1220.0	0.0008775	56.4689998627
1220.0	0.000879	56.5
1220.0	0.0008803	56.5469999313
1220.0	0.0008813	56.5780000687
1220.0	0.0008818	56.625
1220.0	0.0008825	56.6719999313
1220.0	0.0008828	56.7030000687
1220.0	0.0008828	56.75
1220.0	0.0008828	56.7809998989
1220.0	0.0008828	56.8280000687
1220.0	0.000883	56.875
1220.0	0.0008835	56.9059998989
1220.0	0.0008835	56.9530000687
1220.0	0.0008835	57.0
1220.0	0.000883	57.0309998989
1220.0	0.0008835	57.0780000687
1220.0	0.0008838	57.1089999676
1220.0	0.0008838	57.1559998989
1220.0	0.000884	57.2030000687
1220.0	0.0008838	57.2339999676
1220.0	0.0008838	57.2809998989
1220.0	0.000884	57.3280000687
1220.0	0.0008843	57.3589999676
1220.0	0.0008843	57.4059998989
1220.0	0.0008848	57.4530000687
1220.0	0.0008853	57.4839999676
1220.0	0.0008853	57.5309998989
1220.0	0.000885	57.5620000362
1220.0	0.000885	57.6089999676
1220.0	0.000885	57.6559998989
1220.0	0.0008853	57.6870000362
1220.0	0.0008853	57.7339999676
1220.0	0.0008853	57.7809998989
1220.0	0.0008853	57.8120000362
1220.0	0.0008855	57.8589999676
1220.0	0.000886	57.9059998989
1230.0	0.000889	58.1719999313
1230.0	0.0008903	58.2189998627
1230.0	0.0008913	58.2660000324
1230.0	0.0008918	58.2969999313
1230.0	0.0008928	58.3439998627
1230.0	0.0008935	58.3910000324
1230.0	0.000894	58.4219999313
1230.0	0.0008948	58.4689998627
1230.0	0.000895	58.5
1230.0	0.0008953	58.5469999313
1230.0	0.0008953	58.5939998627
1230.0	0.000895	58.625
1230.0	0.000895	58.6719999313
1230.0	0.000895	58.7189998627
1230.0	0.000895	58.75
1230.0	0.000895	58.7969999313
1230.0	0.0008948	58.8280000687
1230.0	0.0008943	58.875
1230.0	0.0008948	58.9219999313
1230.0	0.0008948	58.9530000687
1230.0	0.0008948	59.0
1230.0	0.0008948	59.0469999313
1230.0	0.0008948	59.0780000687
1230.0	0.0008943	59.125
1230.0	0.0008943	59.1559998989
1230.0	0.0008938	59.2030000687
1230.0	0.0008938	59.25
1230.0	0.0008935	59.2809998989
1230.0	0.0008935	59.3280000687
1230.0	0.0008935	59.375
1230.0	0.000893	59.4059998989
1230.0	0.000893	59.4530000687
1230.0	0.0008935	59.4839999676
1230.0	0.000893	59.5309998989
1230.0	0.0008928	59.5780000687
1230.0	0.0008928	59.6089999676
1230.0	0.0008928	59.6559998989
1240.0	0.0008975	59.9219999313
1240.0	0.0008993	59.9689998627
1240.0	0.0009005	60.0160000324
1240.0	0.0009015	60.0469999313
1240.0	0.0009023	60.0939998627
1240.0	0.000903	60.1410000324
1240.0	0.0009038	60.1719999313
1240.0	0.000904	60.2189998627
1240.0	0.0009043	60.2660000324
1240.0	0.0009048	60.2969999313
1240.0	0.000905	60.3439998627
1240.0	0.0009053	60.3910000324
1240.0	0.0009053	60.4219999313
1240.0	0.0009055	60.4689998627
1240.0	0.000906	60.5
1240.0	0.000906	60.5469999313
1240.0	0.0009063	60.5939998627
1240.0	0.0009065	60.625
1240.0	0.0009065	60.6719999313
1240.0	0.0009068	60.7189998627
1240.0	0.0009073	60.75
1240.0	0.0009073	60.7969999313
1240.0	0.0009075	60.8280000687
1240.0	0.0009075	60.875
1240.0	0.0009073	60.9219999313
1240.0	0.0009073	60.9530000687
1240.0	0.0009073	61.0
1240.0	0.000908	61.0469999313
1240.0	0.0009085	61.0780000687
1240.0	0.0009085	61.125
1240.0	0.0009085	61.1559998989
1240.0	0.000908	61.2030000687
1240.0	0.0009078	61.25
1240.0	0.0009075	61.2809998989
1240.0	0.0009073	61.3280000687
1240.0	0.0009073	61.375
1240.0	0.0009075	61.4059998989
1250.0	0.000911	61.6870000362
1250.0	0.0009123	61.7189998627
1250.0	0.0009128	61.7660000324
1250.0	0.0009135	61.7969999313
1250.0	0.0009143	61.8439998627
1250.0	0.000915	61.8910000324
1250.0	0.0009153	61.9219999313
1250.0	0.000916	61.9689998627
1250.0	0.000916	62.0160000324
1250.0	0.0009163	62.0469999313
1250.0	0.0009165	62.0939998627
1250.0	0.0009165	62.1410000324
1250.0	0.0009168	62.1719999313
1250.0	0.0009165	62.2189998627
1250.0	0.0009163	62.2660000324
1250.0	0.0009165	62.2969999313
1250.0	0.0009163	62.3439998627
1250.0	0.000916	62.3910000324
1250.0	0.000916	62.4219999313
1250.0	0.000916	62.4689998627
1250.0	0.000916	62.5
1250.0	0.0009155	62.5469999313
1250.0	0.0009153	62.5939998627
1250.0	0.0009153	62.625
1250.0	0.000915	62.6719999313
1250.0	0.000915	62.7189998627
1250.0	0.000915	62.75
1250.0	0.0009148	62.7969999313
1250.0	0.0009148	62.8439998627
1250.0	0.0009143	62.875
1250.0	0.0009143	62.9219999313
1250.0	0.0009143	62.9689998627
1250.0	0.000914	63.0
1250.0	0.000914	63.0469999313
1250.0	0.0009143	63.0939998627
1250.0	0.000914	63.125
1250.0	0.000914	63.1719999313
1260.0	0.000918	63.4370000362
1260.0	0.000919	63.4839999676
1260.0	0.0009205	63.5160000324
1260.0	0.0009215	63.5620000362
1260.0	0.0009225	63.6089999676
1260.0	0.000923	63.6410000324
1260.0	0.0009228	63.6870000362
1260.0	0.0009235	63.7339999676
1260.0	0.0009235	63.7660000324
1260.0	0.0009235	63.8120000362
1260.0	0.0009235	63.8439998627
1260.0	0.0009238	63.8910000324
1260.0	0.0009238	63.9370000362
1260.0	0.000924	63.9839999676
1260.0	0.000924	64.0160000324
1260.0	0.0009243	64.0620000362
1260.0	0.000924	64.0939998627
1260.0	0.0009243	64.1410000324
1260.0	0.0009243	64.1870000362
1260.0	0.0009248	64.2339999676
1260.0	0.0009248	64.2660000324
1260.0	0.0009248	64.3120000362
1260.0	0.0009248	64.3439998627
1260.0	0.0009248	64.3910000324
1260.0	0.0009253	64.4370000362
1260.0	0.0009255	64.4689998627
1260.0	0.0009255	64.5160000324
1260.0	0.0009255	64.5620000362
1260.0	0.0009253	64.5939998627
1260.0	0.0009255	64.6410000324
1260.0	0.0009255	64.6719999313
1260.0	0.0009253	64.7189998627
1260.0	0.0009253	64.7660000324
1260.0	0.0009255	64.7969999313
1260.0	0.000926	64.8439998627
1260.0	0.000926	64.8910000324
1270.0	0.0009278	65.1559998989
1270.0	0.0009288	65.1870000362
1270.0	0.000929	65.2339999676
1270.0	0.0009293	65.2809998989
1270.0	0.00093	65.3120000362
1270.0	0.00093	65.3589999676
1270.0	0.00093	65.3910000324
1270.0	0.00093	65.4370000362
1270.0	0.0009303	65.4839999676
1270.0	0.0009303	65.5160000324
1270.0	0.0009305	65.5620000362
1270.0	0.00093	65.6089999676
1270.0	0.0009298	65.6410000324
1270.0	0.0009298	65.6870000362
1270.0	0.0009298	65.7189998627
1270.0	0.0009303	65.7660000324
1270.0	0.00093	65.8120000362
1270.0	0.0009298	65.8439998627
1270.0	0.0009303	65.8910000324
1270.0	0.0009305	65.9370000362
1270.0	0.0009305	65.9689998627
1270.0	0.000931	66.0160000324
1270.0	0.0009305	66.0620000362
1270.0	0.00093	66.0939998627
1270.0	0.0009298	66.1410000324
1270.0	0.0009298	66.1719999313
1270.0	0.00093	66.2189998627
1270.0	0.0009293	66.2660000324
1270.0	0.000929	66.2969999313
1270.0	0.000929	66.3439998627
1270.0	0.000929	66.3910000324
1270.0	0.0009288	66.4219999313
1270.0	0.000929	66.4689998627
1270.0	0.000929	66.5
1270.0	0.000929	66.5469999313
1270.0	0.000929	66.5939998627
1270.0	0.0009285	66.625
1280.0	0.0009293	66.8910000324
1280.0	0.0009293	66.9370000362
1280.0	0.0009298	66.9839999676
1280.0	0.00093	67.0160000324
1280.0	0.00093	67.0620000362
1280.0	0.0009303	67.1089999676
1280.0	0.000931	67.1410000324
1280.0	0.000931	67.1870000362
1280.0	0.0009313	67.2189998627
1280.0	0.0009315	67.2660000324
1280.0	0.0009318	67.3120000362
1280.0	0.0009323	67.3589999676
1280.0	0.0009323	67.3910000324
1280.0	0.0009323	67.4370000362
1280.0	0.0009323	67.4839999676
1280.0	0.0009323	67.5160000324
1280.0	0.0009323	67.5620000362
1280.0	0.0009325	67.5939998627
1280.0	0.0009325	67.6410000324
1280.0	0.0009325	67.6870000362
1280.0	0.0009323	67.7189998627
1280.0	0.0009325	67.7660000324
1280.0	0.0009328	67.8120000362
1280.0	0.0009328	67.8439998627
1280.0	0.000933	67.8910000324
1280.0	0.0009335	67.9219999313
1280.0	0.0009335	67.9689998627
1280.0	0.0009335	68.0160000324
1280.0	0.0009338	68.0469999313
1280.0	0.0009338	68.0939998627
1280.0	0.0009338	68.1410000324
1280.0	0.0009338	68.1719999313
1280.0	0.0009338	68.2189998627
1280.0	0.000934	68.25
1280.0	0.000934	68.2969999313
1280.0	0.0009343	68.3439998627
1280.0	0.0009343	68.375
1290.0	0.0009335	68.6410000324
1290.0	0.0009338	68.6870000362
1290.0	0.0009338	68.7339999676
1290.0	0.0009335	68.7660000324
1290.0	0.0009335	68.8120000362
1290.0	0.000933	68.8589999676
1290.0	0.0009335	68.8910000324
1290.0	0.000934	68.9370000362
1290.0	0.000934	68.9689998627
1290.0	0.0009343	69.0160000324
1290.0	0.000934	69.0620000362
1290.0	0.0009343	69.0939998627
1290.0	0.0009343	69.1410000324
1290.0	0.0009348	69.1870000362
1290.0	0.0009348	69.2189998627
1290.0	0.0009348	69.2660000324
1290.0	0.000934	69.2969999313
1290.0	0.0009338	69.3439998627
1290.0	0.0009335	69.3910000324
1290.0	0.0009335	69.4219999313
1290.0	0.0009338	69.4689998627
1290.0	0.0009338	69.5160000324
1290.0	0.000933	69.5469999313
1290.0	0.000933	69.5939998627
1290.0	0.0009328	69.6410000324
1290.0	0.0009325	69.6719999313
1290.0	0.0009325	69.7189998627
1290.0	0.0009325	69.75
1290.0	0.0009323	69.7969999313
1290.0	0.0009323	69.8439998627
1290.0	0.0009318	69.875
1290.0	0.0009318	69.9219999313
1290.0	0.0009318	69.9689998627
1290.0	0.0009323	70.0
1290.0	0.0009328	70.0469999313
1290.0	0.0009328	70.0780000687
1290.0	0.000933	70.125
1300.0	0.0009313	70.3910000324
1300.0	0.0009305	70.4219999313
1300.0	0.0009298	70.4689998627
1300.0	0.000929	70.5160000324
1300.0	0.000928	70.5469999313
1300.0	0.0009278	70.5939998627
1300.0	0.0009273	70.6410000324
1300.0	0.0009273	70.6719999313
1300.0	0.0009273	70.7189998627
1300.0	0.0009268	70.7660000324
1300.0	0.0009268	70.7969999313
1300.0	0.0009263	70.8439998627
1300.0	0.000926	70.875
1300.0	0.000926	70.9219999313
1300.0	0.000926	70.9689998627
1300.0	0.000926	71.0
1300.0	0.000926	71.0469999313
1300.0	0.0009255	71.0939998627
1300.0	0.0009253	71.125
1300.0	0.0009253	71.1719999313
1300.0	0.0009255	71.2030000687
1300.0	0.0009255	71.25
1300.0	0.000926	71.2969999313
1300.0	0.000926	71.3280000687
1300.0	0.0009265	71.375
1300.0	0.0009268	71.4219999313
1300.0	0.0009265	71.4530000687
1300.0	0.0009265	71.5
1300.0	0.0009265	71.5309998989
1300.0	0.0009265	71.5780000687
1300.0	0.0009265	71.625
1300.0	0.0009265	71.6559998989
1300.0	0.0009263	71.7030000687
1300.0	0.0009263	71.75
1300.0	0.000926	71.7809998989
1300.0	0.000926	71.8280000687
1300.0	0.0009263	71.8589999676
1310.0	0.0009238	72.125
1310.0	0.000923	72.1719999313
1310.0	0.0009223	72.2189998627
1310.0	0.0009213	72.25
1310.0	0.000921	72.2969999313
1310.0	0.0009203	72.3280000687
1310.0	0.00092	72.375
1310.0	0.0009198	72.4219999313
1310.0	0.0009193	72.4530000687
1310.0	0.0009193	72.5
1310.0	0.000919	72.5469999313
1310.0	0.000919	72.5780000687
1310.0	0.000919	72.625
1310.0	0.000919	72.6559998989
1310.0	0.000919	72.7030000687
1310.0	0.0009193	72.75
1310.0	0.000919	72.7809998989
1310.0	0.000919	72.8280000687
1310.0	0.000919	72.875
1310.0	0.0009188	72.9059998989
1310.0	0.0009185	72.9530000687
1310.0	0.000919	73.0
1310.0	0.000919	73.0309998989
1310.0	0.000919	73.0780000687
1310.0	0.000919	73.1089999676
1310.0	0.000919	73.1559998989
1310.0	0.0009193	73.2030000687
1310.0	0.0009193	73.2339999676
1310.0	0.0009193	73.2809998989
1310.0	0.0009198	73.3280000687
1310.0	0.000919	73.3589999676
1310.0	0.000919	73.4059998989
1310.0	0.000919	73.4370000362
1310.0	0.000919	73.4839999676
1310.0	0.000919	73.5309998989
1310.0	0.000919	73.5620000362
1310.0	0.000919	73.6089999676
1320.0	0.0009135	73.875
1320.0	0.0009113	73.9059998989
1320.0	0.0009093	73.9530000687
1320.0	0.000908	74.0
1320.0	0.0009063	74.0309998989
1320.0	0.000905	74.0780000687
1320.0	0.000904	74.1089999676
1320.0	0.000903	74.1559998989
1320.0	0.000903	74.2030000687
1320.0	0.000903	74.2339999676
1320.0	0.000903	74.2809998989
1320.0	0.0009035	74.3280000687
1320.0	0.0009028	74.3589999676
1320.0	0.0009025	74.4059998989
1320.0	0.0009023	74.4530000687
1320.0	0.0009015	74.4839999676
1320.0	0.0009015	74.5309998989
1320.0	0.0009015	74.5620000362
1320.0	0.0009015	74.6089999676
1320.0	0.0009018	74.6559998989
1320.0	0.0009015	74.6870000362
1320.0	0.0009015	74.7339999676
1320.0	0.0009013	74.7809998989
1320.0	0.000901	74.8120000362
1320.0	0.0009013	74.8589999676
1320.0	0.0009005	74.8910000324
1320.0	0.0009003	74.9370000362
1320.0	0.0009003	74.9839999676
1320.0	0.0009005	75.0160000324
1320.0	0.0009003	75.0620000362
1320.0	0.0009005	75.1089999676
1320.0	0.0009005	75.1410000324
1320.0	0.0009003	75.1870000362
1320.0	0.0009003	75.2339999676
1320.0	0.0009	75.2660000324
1320.0	0.0009005	75.3120000362
1320.0	0.000901	75.3439998627
1330.0	0.0008935	75.6089999676
1330.0	0.0008905	75.6559998989
1330.0	0.0008885	75.6870000362
1330.0	0.000886	75.7339999676
1330.0	0.0008843	75.7660000324
1330.0	0.0008835	75.8120000362
1330.0	0.0008825	75.8589999676
1330.0	0.0008823	75.9059998989
1330.0	0.0008818	75.9370000362
1330.0	0.0008815	75.9839999676
1330.0	0.0008813	76.0160000324
1330.0	0.000881	76.0620000362
1330.0	0.000881	76.1089999676
1330.0	0.000881	76.1410000324
1330.0	0.0008805	76.1870000362
1330.0	0.000881	76.2339999676
1330.0	0.0008805	76.2660000324
1330.0	0.000881	76.3120000362
1330.0	0.0008813	76.3589999676
1330.0	0.000881	76.3910000324
1330.0	0.000881	76.4370000362
1330.0	0.0008813	76.4839999676
1330.0	0.0008813	76.5160000324
1330.0	0.0008815	76.5620000362
1330.0	0.0008818	76.6089999676
1330.0	0.0008818	76.6410000324
1330.0	0.0008823	76.6870000362
1330.0	0.0008823	76.7189998627
1330.0	0.0008823	76.7660000324
1330.0	0.0008823	76.8120000362
1330.0	0.0008823	76.8439998627
1330.0	0.0008825	76.8910000324
1330.0	0.0008823	76.9370000362
1330.0	0.0008818	76.9689998627
1330.0	0.0008818	77.0160000324
1330.0	0.0008815	77.0469999313
1330.0	0.0008813	77.0939998627
1340.0	0.0008728	77.3589999676
1340.0	0.000869	77.4059998989
1340.0	0.000866	77.4370000362
1340.0	0.0008638	77.4839999676
1340.0	0.0008615	77.5160000324
1340.0	0.0008603	77.5620000362
1340.0	0.000859	77.6089999676
1340.0	0.000858	77.6410000324
1340.0	0.0008575	77.6870000362
1340.0	0.0008573	77.7339999676
1340.0	0.0008565	77.7660000324
1340.0	0.0008563	77.8120000362
1340.0	0.000856	77.8439998627
1340.0	0.0008555	77.8910000324
1340.0	0.0008555	77.9370000362
1340.0	0.0008553	77.9689998627
1340.0	0.0008553	78.0160000324
1340.0	0.000855	78.0620000362
1340.0	0.0008548	78.0939998627
1340.0	0.0008543	78.1410000324
1340.0	0.0008543	78.1870000362
1340.0	0.0008543	78.2189998627
1340.0	0.0008543	78.2660000324
1340.0	0.0008538	78.2969999313
1340.0	0.000854	78.3439998627
1340.0	0.000854	78.3910000324
1340.0	0.000854	78.4219999313
1340.0	0.000854	78.4689998627
1340.0	0.0008538	78.5160000324
1340.0	0.0008538	78.5469999313
1340.0	0.0008535	78.5939998627
1340.0	0.000853	78.625
1340.0	0.0008528	78.6719999313
1340.0	0.0008528	78.7189998627
1340.0	0.0008528	78.75
1340.0	0.000853	78.7969999313
1340.0	0.0008535	78.8439998627
1350.0	0.000844	79.0939998627
1350.0	0.0008403	79.1410000324
1350.0	0.0008365	79.1719999313
1350.0	0.0008335	79.2189998627
1350.0	0.000831	79.2660000324
1350.0	0.000829	79.2969999313
1350.0	0.0008278	79.3439998627
1350.0	0.0008273	79.3910000324
1350.0	0.0008263	79.4219999313
1350.0	0.0008255	79.4689998627
1350.0	0.0008253	79.5
1350.0	0.0008248	79.5469999313
1350.0	0.0008243	79.5939998627
1350.0	0.000824	79.625
1350.0	0.0008243	79.6719999313
1350.0	0.0008243	79.7189998627
1350.0	0.000824	79.75
1350.0	0.0008238	79.7969999313
1350.0	0.000824	79.8280000687
1350.0	0.000824	79.875
1350.0	0.0008243	79.9219999313
1350.0	0.0008248	79.9530000687
1350.0	0.0008243	80.0
1350.0	0.000824	80.0469999313
1350.0	0.0008238	80.0780000687
1350.0	0.0008235	80.125
1350.0	0.000823	80.1559998989
1350.0	0.000823	80.2030000687
1350.0	0.0008228	80.25
1350.0	0.0008228	80.2809998989
1350.0	0.000823	80.3280000687
1350.0	0.0008235	80.375
1350.0	0.0008238	80.4059998989
1350.0	0.0008238	80.4530000687
1350.0	0.000824	80.4839999676
1350.0	0.000824	80.5309998989
1350.0	0.000824	80.5780000687
1360.0	0.000815	80.8439998627
1360.0	0.000811	80.875
1360.0	0.0008075	80.9219999313
1360.0	0.0008043	80.9530000687
1360.0	0.0008023	81.0
1360.0	0.0008005	81.0469999313
1360.0	0.0007993	81.0780000687
1360.0	0.0007985	81.125
1360.0	0.0007975	81.1719999313
1360.0	0.0007968	81.2030000687
1360.0	0.000796	81.25
1360.0	0.000796	81.2809998989
1360.0	0.0007955	81.3280000687
1360.0	0.000796	81.375
1360.0	0.000796	81.4059998989
1360.0	0.0007963	81.4530000687
1360.0	0.0007965	81.5
1360.0	0.0007965	81.5309998989
1360.0	0.0007965	81.5780000687
1360.0	0.0007965	81.6089999676
1360.0	0.0007965	81.6559998989
1360.0	0.0007965	81.7030000687
1360.0	0.0007965	81.7339999676
1360.0	0.0007965	81.7809998989
1360.0	0.0007968	81.8280000687
1360.0	0.0007965	81.875
1360.0	0.0007963	81.9059998989
1360.0	0.000796	81.9530000687
1360.0	0.0007955	81.9839999676
1360.0	0.0007955	82.0309998989
1360.0	0.000796	82.0780000687
1360.0	0.000796	82.1089999676
1360.0	0.000796	82.1559998989
1360.0	0.000796	82.2030000687
1360.0	0.000796	82.2339999676
1360.0	0.0007963	82.2809998989
1360.0	0.000796	82.3120000362
1370.0	0.0007865	82.5780000687
1370.0	0.0007823	82.625
1370.0	0.0007785	82.6719999313
1370.0	0.0007753	82.7030000687
1370.0	0.000773	82.75
1370.0	0.0007713	82.7809998989
1370.0	0.0007698	82.8280000687
1370.0	0.0007688	82.875
1370.0	0.0007678	82.9059998989
1370.0	0.0007668	82.9530000687
1370.0	0.0007663	83.0
1370.0	0.000766	83.0309998989
1370.0	0.0007655	83.0780000687
1370.0	0.0007655	83.1089999676
1370.0	0.0007655	83.1559998989
1370.0	0.0007655	83.2030000687
1370.0	0.0007653	83.2339999676
1370.0	0.0007653	83.2809998989
1370.0	0.0007655	83.3280000687
1370.0	0.0007655	83.3589999676
1370.0	0.000766	83.4059998989
1370.0	0.0007653	83.4530000687
1370.0	0.0007653	83.4839999676
1370.0	0.0007653	83.5309998989
1370.0	0.0007653	83.5620000362
1370.0	0.000765	83.6089999676
1370.0	0.000765	83.6559998989
1370.0	0.0007643	83.6870000362
1370.0	0.0007638	83.7339999676
1370.0	0.000763	83.7809998989
1370.0	0.0007628	83.8120000362
1370.0	0.0007628	83.8589999676
1370.0	0.000763	83.8910000324
1370.0	0.0007635	83.9370000362
1370.0	0.0007635	83.9839999676
1370.0	0.0007635	84.0160000324
1370.0	0.0007638	84.0620000362
1380.0	0.0007548	84.3280000687
1380.0	0.000751	84.375
1380.0	0.0007475	84.4059998989
1380.0	0.000745	84.4530000687
1380.0	0.0007428	84.5
1380.0	0.0007413	84.5309998989
1380.0	0.00074	84.5780000687
1380.0	0.0007388	84.6089999676
1380.0	0.000738	84.6559998989
1380.0	0.000738	84.7030000687
1380.0	0.0007375	84.75
1380.0	0.0007375	84.7809998989
1380.0	0.0007368	84.8280000687
1380.0	0.0007368	84.8589999676
1380.0	0.0007368	84.9059998989
1380.0	0.0007365	84.9530000687
1380.0	0.0007368	84.9839999676
1380.0	0.0007373	85.0309998989
1380.0	0.0007373	85.0780000687
1380.0	0.0007373	85.1089999676
1380.0	0.0007373	85.1559998989
1380.0	0.0007365	85.1870000362
1380.0	0.0007368	85.2339999676
1380.0	0.0007368	85.2809998989
1380.0	0.0007368	85.3120000362
1380.0	0.0007373	85.3589999676
1380.0	0.0007368	85.4059998989
1380.0	0.0007368	85.4530000687
1380.0	0.0007368	85.4839999676
1380.0	0.0007365	85.5309998989
1380.0	0.0007368	85.5620000362
1380.0	0.0007368	85.6089999676
1380.0	0.0007368	85.6559998989
1380.0	0.0007365	85.6870000362
1380.0	0.0007365	85.7339999676
1380.0	0.0007368	85.7809998989
1390.0	0.00073	86.0309998989
1390.0	0.0007265	86.0780000687
1390.0	0.000724	86.125
1390.0	0.0007218	86.1559998989
1390.0	0.0007203	86.2030000687
1390.0	0.000719	86.25
1390.0	0.0007178	86.2809998989
1390.0	0.0007168	86.3280000687
1390.0	0.0007165	86.375
1390.0	0.0007163	86.4059998989
1390.0	0.000716	86.4530000687
1390.0	0.0007163	86.5
1390.0	0.0007163	86.5309998989
1390.0	0.0007165	86.5780000687
1390.0	0.0007165	86.6089999676
1390.0	0.0007165	86.6559998989
1390.0	0.0007165	86.7030000687
1390.0	0.000716	86.7339999676
1390.0	0.0007155	86.7809998989
1390.0	0.0007155	86.8280000687
1390.0	0.000716	86.8589999676
1390.0	0.0007163	86.9059998989
1390.0	0.0007163	86.9370000362
1390.0	0.0007163	86.9839999676
1390.0	0.0007165	87.0309998989
1390.0	0.0007165	87.0620000362
1390.0	0.0007165	87.1089999676
1390.0	0.0007163	87.1559998989
1390.0	0.000716	87.1870000362
1390.0	0.000716	87.2339999676
1390.0	0.000716	87.2660000324
1390.0	0.0007155	87.3120000362
1390.0	0.0007155	87.3589999676
1390.0	0.000716	87.3910000324
1390.0	0.000716	87.4370000362
1390.0	0.000716	87.4839999676
1390.0	0.0007155	87.5160000324
1400.0	0.0007088	87.7809998989
1400.0	0.0007065	87.8280000687
1400.0	0.0007043	87.875
1400.0	0.0007023	87.9059998989
1400.0	0.000701	87.9530000687
1400.0	0.0006998	87.9839999676
1400.0	0.000699	88.0309998989
1400.0	0.000698	88.0780000687
1400.0	0.0006975	88.1089999676
1400.0	0.0006973	88.1559998989
1400.0	0.0006968	88.2030000687
1400.0	0.0006965	88.2339999676
1400.0	0.0006963	88.2809998989
1400.0	0.000696	88.3120000362
1400.0	0.000696	88.3589999676
1400.0	0.000696	88.4059998989
1400.0	0.000696	88.4370000362
1400.0	0.0006963	88.4839999676
1400.0	0.0006968	88.5309998989
1400.0	0.0006965	88.5620000362
1400.0	0.0006968	88.6089999676
1400.0	0.0006965	88.6559998989
1400.0	0.0006963	88.6870000362
1400.0	0.000696	88.7339999676
1400.0	0.0006955	88.7660000324
1400.0	0.0006955	88.8120000362
1400.0	0.0006955	88.8589999676
1400.0	0.0006953	88.8910000324
1400.0	0.0006953	88.9370000362
1400.0	0.0006953	88.9839999676
1400.0	0.0006953	89.0160000324
1400.0	0.0006953	89.0620000362
1400.0	0.0006955	89.0939998627
1400.0	0.0006955	89.1410000324
1400.0	0.000696	89.1870000362
1400.0	0.000696	89.2189998627
1400.0	0.000696	89.2660000324
1410.0	0.0006905	89.5309998989
1410.0	0.000689	89.5780000687
1410.0	0.0006878	89.6089999676
1410.0	0.0006865	89.6559998989
1410.0	0.0006853	89.7030000687
1410.0	0.0006848	89.7339999676
1410.0	0.000684	89.7809998989
1410.0	0.0006838	89.8120000362
1410.0	0.0006838	89.8589999676
1410.0	0.0006835	89.9059998989
1410.0	0.000683	89.9370000362
1410.0	0.000683	89.9839999676
1410.0	0.0006825	90.0309998989
1410.0	0.0006828	90.0620000362
1410.0	0.0006825	90.1089999676
1410.0	0.0006825	90.1410000324
1410.0	0.0006825	90.1870000362
1410.0	0.0006825	90.2339999676
1410.0	0.0006828	90.2660000324
1410.0	0.0006835	90.3120000362
1410.0	0.0006835	90.3589999676
1410.0	0.0006838	90.3910000324
1410.0	0.000684	90.4370000362
1410.0	0.0006838	90.4839999676
1410.0	0.000684	90.5160000324
1410.0	0.0006838	90.5620000362
1410.0	0.0006835	90.5939998627
1410.0	0.0006835	90.6410000324
1410.0	0.0006835	90.6870000362
1410.0	0.0006835	90.7189998627
1410.0	0.0006838	90.7660000324
1410.0	0.0006835	90.8120000362
1410.0	0.0006835	90.8439998627
1410.0	0.0006838	90.8910000324
1410.0	0.0006838	90.9219999313
1410.0	0.000684	90.9689998627
1410.0	0.000684	91.0160000324
1420.0	0.0006803	91.2809998989
1420.0	0.0006798	91.3280000687
1420.0	0.000679	91.3589999676
1420.0	0.0006785	91.4059998989
1420.0	0.000678	91.4530000687
1420.0	0.000678	91.4839999676
1420.0	0.0006785	91.5309998989
1420.0	0.0006778	91.5780000687
1420.0	0.0006773	91.625
1420.0	0.0006773	91.6559998989
1420.0	0.0006768	91.7030000687
1420.0	0.0006768	91.7339999676
1420.0	0.0006775	91.7809998989
1420.0	0.0006775	91.8280000687
1420.0	0.0006775	91.8589999676
1420.0	0.0006775	91.9059998989
1420.0	0.0006775	91.9530000687
1420.0	0.0006778	91.9839999676
1420.0	0.0006778	92.0309998989
1420.0	0.0006778	92.0780000687
1420.0	0.000678	92.1089999676
1420.0	0.000678	92.1559998989
1420.0	0.0006778	92.1870000362
1420.0	0.0006775	92.2339999676
1420.0	0.0006773	92.2809998989
1420.0	0.0006773	92.3120000362
1420.0	0.0006773	92.3589999676
1420.0	0.0006773	92.4059998989
1420.0	0.0006773	92.4370000362
1420.0	0.0006768	92.4839999676
1420.0	0.0006765	92.5160000324
1420.0	0.0006768	92.5620000362
1420.0	0.0006768	92.6089999676
1420.0	0.0006773	92.6410000324
1420.0	0.0006773	92.6870000362
1420.0	0.0006773	92.7339999676
1430.0	0.0006775	93.0
1430.0	0.0006773	93.0309998989
1430.0	0.0006773	93.0780000687
1430.0	0.0006778	93.125
1430.0	0.0006778	93.1559998989
1430.0	0.000678	93.2030000687
1430.0	0.0006785	93.2339999676
1430.0	0.000678	93.2809998989
1430.0	0.000678	93.3280000687
1430.0	0.0006785	93.3589999676
1430.0	0.0006778	93.4059998989
1430.0	0.0006778	93.4530000687
1430.0	0.0006778	93.4839999676
1430.0	0.0006775	93.5309998989
1430.0	0.0006775	93.5620000362
1430.0	0.0006778	93.6089999676
1430.0	0.0006778	93.6559998989
1430.0	0.0006778	93.6870000362
1430.0	0.0006775	93.7339999676
1430.0	0.0006775	93.7809998989
1430.0	0.0006775	93.8120000362
1430.0	0.0006773	93.8589999676
1430.0	0.0006773	93.8910000324
1430.0	0.0006768	93.9370000362
1430.0	0.0006768	93.9839999676
1430.0	0.0006768	94.0160000324
1430.0	0.0006765	94.0620000362
1430.0	0.0006763	94.1089999676
1430.0	0.0006763	94.1410000324
1430.0	0.000676	94.1870000362
1430.0	0.000676	94.2339999676
1430.0	0.000676	94.2660000324
1430.0	0.0006755	94.3120000362
1430.0	0.000676	94.3439998627
1430.0	0.0006763	94.3910000324
1430.0	0.000676	94.4370000362
1430.0	0.0006763	94.4689998627
1440.0	0.0006785	94.7339999676
1440.0	0.0006798	94.7809998989
1440.0	0.0006805	94.8280000687
1440.0	0.0006813	94.8589999676
1440.0	0.0006823	94.9059998989
1440.0	0.0006825	94.9530000687
1440.0	0.0006825	94.9839999676
1440.0	0.000683	95.0309998989
1440.0	0.0006828	95.0620000362
1440.0	0.000683	95.1089999676
1440.0	0.000683	95.1559998989
1440.0	0.0006828	95.1870000362
1440.0	0.0006828	95.2339999676
1440.0	0.0006828	95.2809998989
1440.0	0.0006823	95.3120000362
1440.0	0.0006825	95.3589999676
1440.0	0.0006823	95.3910000324
1440.0	0.0006823	95.4370000362
1440.0	0.0006823	95.4839999676
1440.0	0.0006823	95.5309998989
1440.0	0.0006823	95.5620000362
1440.0	0.0006823	95.6089999676
1440.0	0.0006823	95.6410000324
1440.0	0.0006825	95.6870000362
1440.0	0.000683	95.7339999676
1440.0	0.000683	95.7660000324
1440.0	0.0006828	95.8120000362
1440.0	0.0006825	95.8589999676
1440.0	0.0006818	95.8910000324
1440.0	0.0006818	95.9370000362
1440.0	0.0006823	95.9689998627
1440.0	0.0006825	96.0160000324
1440.0	0.0006828	96.0620000362
1440.0	0.0006828	96.0939998627
1440.0	0.0006828	96.1410000324
1440.0	0.0006828	96.1870000362
1440.0	0.0006825	96.2189998627
1450.0	0.0006873	96.4839999676
1450.0	0.000689	96.5309998989
1450.0	0.0006903	96.5780000687
1450.0	0.0006915	96.6089999676
1450.0	0.0006923	96.6559998989
1450.0	0.0006925	96.6870000362
1450.0	0.0006928	96.7339999676
1450.0	0.000693	96.7809998989
1450.0	0.0006935	96.8280000687
1450.0	0.0006935	96.8589999676
1450.0	0.000693	96.9059998989
1450.0	0.000693	96.9530000687
1450.0	0.000693	96.9839999676
1450.0	0.0006935	97.0309998989
1450.0	0.0006935	97.0620000362
1450.0	0.0006935	97.1089999676
1450.0	0.0006938	97.1559998989
1450.0	0.0006938	97.1870000362
1450.0	0.0006938	97.2339999676
1450.0	0.000694	97.2809998989
1450.0	0.000694	97.3120000362
1450.0	0.0006943	97.3589999676
1450.0	0.000695	97.3910000324
1450.0	0.0006953	97.4370000362
1450.0	0.0006955	97.4839999676
1450.0	0.000696	97.5160000324
1450.0	0.000696	97.5620000362
1450.0	0.000696	97.6089999676
1450.0	0.0006955	97.6410000324
1450.0	0.0006953	97.6870000362
1450.0	0.0006953	97.7189998627
1450.0	0.0006953	97.7660000324
1450.0	0.0006953	97.8120000362
1450.0	0.000696	97.8439998627
1450.0	0.0006955	97.8910000324
1450.0	0.0006953	97.9370000362
1450.0	0.000696	97.9839999676
1460.0	0.0007013	98.25
1460.0	0.000703	98.2809998989
1460.0	0.0007043	98.3280000687
1460.0	0.0007053	98.3589999676
1460.0	0.0007065	98.4059998989
1460.0	0.0007073	98.4530000687
1460.0	0.0007078	98.4839999676
1460.0	0.0007085	98.5309998989
1460.0	0.0007085	98.5780000687
1460.0	0.000709	98.6089999676
1460.0	0.0007098	98.6559998989
1460.0	0.0007098	98.6870000362
1460.0	0.0007098	98.7339999676
1460.0	0.0007098	98.7809998989
1460.0	0.0007098	98.8120000362
1460.0	0.0007098	98.8589999676
1460.0	0.0007098	98.9059998989
1460.0	0.0007103	98.9370000362
1460.0	0.0007103	98.9839999676
1460.0	0.00071	99.0309998989
1460.0	0.00071	99.0620000362
1460.0	0.00071	99.1089999676
1460.0	0.0007098	99.1410000324
1460.0	0.0007098	99.1870000362
1460.0	0.0007098	99.2339999676
1460.0	0.0007098	99.2660000324
1460.0	0.0007098	99.3120000362
1460.0	0.0007093	99.3589999676
1460.0	0.0007093	99.3910000324
1460.0	0.0007093	99.4370000362
1460.0	0.0007093	99.4689998627
1460.0	0.0007093	99.5160000324
1460.0	0.000709	99.5620000362
1460.0	0.0007085	99.5939998627
1460.0	0.0007085	99.6410000324
1460.0	0.000708	99.6870000362
1460.0	0.000708	99.7189998627
1470.0	0.0007135	100.0
1470.0	0.000715	100.030999899
1470.0	0.0007165	100.078000069
1470.0	0.000718	100.108999968
1470.0	0.0007185	100.155999899
1470.0	0.000719	100.203000069
1470.0	0.0007198	100.233999968
1470.0	0.0007203	100.280999899
1470.0	0.0007213	100.328000069
1470.0	0.0007218	100.358999968
1470.0	0.0007223	100.405999899
1470.0	0.0007225	100.437000036
1470.0	0.0007225	100.483999968
1470.0	0.0007225	100.530999899
1470.0	0.0007225	100.562000036
1470.0	0.0007225	100.608999968
1470.0	0.0007223	100.655999899
1470.0	0.0007218	100.687000036
1470.0	0.0007218	100.733999968
1470.0	0.0007223	100.766000032
1470.0	0.0007223	100.812000036
1470.0	0.0007223	100.858999968
1470.0	0.0007228	100.891000032
1470.0	0.0007225	100.937000036
1470.0	0.0007225	100.983999968
1470.0	0.0007225	101.016000032
1470.0	0.0007225	101.062000036
1470.0	0.0007223	101.108999968
1470.0	0.0007218	101.141000032
1470.0	0.0007215	101.187000036
1470.0	0.0007215	101.218999863
1470.0	0.0007215	101.266000032
1470.0	0.0007215	101.312000036
1470.0	0.0007215	101.343999863
1470.0	0.0007215	101.391000032
1470.0	0.0007218	101.437000036
1470.0	0.0007218	101.468999863
1480.0	0.0007265	101.733999968
1480.0	0.000728	101.780999899
1480.0	0.000729	101.828000069
1480.0	0.0007303	101.858999968
1480.0	0.0007315	101.905999899
1480.0	0.0007325	101.937000036
1480.0	0.0007328	101.983999968
1480.0	0.000733	102.030999899
1480.0	0.0007328	102.062000036
1480.0	0.000733	102.108999968
1480.0	0.0007335	102.155999899
1480.0	0.0007338	102.187000036
1480.0	0.000734	102.233999968
1480.0	0.0007343	102.280999899
1480.0	0.0007348	102.312000036
1480.0	0.000735	102.358999968
1480.0	0.0007348	102.405999899
1480.0	0.0007348	102.437000036
1480.0	0.0007348	102.483999968
1480.0	0.0007348	102.516000032
1480.0	0.0007348	102.562000036
1480.0	0.0007343	102.608999968
1480.0	0.0007343	102.641000032
1480.0	0.0007348	102.687000036
1480.0	0.000734	102.733999968
1480.0	0.000734	102.766000032
1480.0	0.0007338	102.812000036
1480.0	0.0007335	102.858999968
1480.0	0.000734	102.891000032
1480.0	0.0007343	102.937000036
1480.0	0.0007348	102.968999863
1480.0	0.0007353	103.016000032
1480.0	0.0007355	103.062000036
1480.0	0.000736	103.093999863
1480.0	0.000736	103.141000032
1480.0	0.0007355	103.187000036
1490.0	0.000739	103.453000069
1490.0	0.0007403	103.5
1490.0	0.0007413	103.530999899
1490.0	0.0007425	103.578000069
1490.0	0.0007435	103.608999968
1490.0	0.000744	103.655999899
1490.0	0.0007448	103.703000069
1490.0	0.000745	103.733999968
1490.0	0.000745	103.780999899
1490.0	0.000745	103.828000069
1490.0	0.000745	103.858999968
1490.0	0.0007453	103.905999899
1490.0	0.0007453	103.937000036
1490.0	0.000745	103.983999968
1490.0	0.000745	104.030999899
1490.0	0.0007448	104.062000036
1490.0	0.0007448	104.108999968
1490.0	0.0007448	104.155999899
1490.0	0.000745	104.187000036
1490.0	0.0007453	104.233999968
1490.0	0.0007453	104.266000032
1490.0	0.000745	104.312000036
1490.0	0.0007453	104.358999968
1490.0	0.0007453	104.391000032
1490.0	0.0007453	104.437000036
1490.0	0.0007453	104.483999968
1490.0	0.0007455	104.516000032
1490.0	0.0007453	104.562000036
1490.0	0.0007453	104.593999863
1490.0	0.000745	104.641000032
1490.0	0.0007453	104.687000036
1490.0	0.0007455	104.718999863
1490.0	0.0007455	104.766000032
1490.0	0.0007455	104.812000036
1490.0	0.0007453	104.843999863
1490.0	0.0007453	104.891000032
1490.0	0.0007453	104.937000036
1500.0	0.0007478	105.203000069
1500.0	0.0007485	105.233999968
1500.0	0.000749	105.280999899
1500.0	0.0007493	105.328000069
1500.0	0.0007498	105.358999968
1500.0	0.00075	105.405999899
1500.0	0.00075	105.453000069
1500.0	0.00075	105.483999968
1500.0	0.00075	105.530999899
1500.0	0.00075	105.578000069
1500.0	0.0007505	105.608999968
1500.0	0.000751	105.655999899
1500.0	0.0007515	105.687000036
1500.0	0.0007518	105.733999968
1500.0	0.0007515	105.780999899
1500.0	0.0007515	105.812000036
1500.0	0.0007515	105.858999968
1500.0	0.0007513	105.905999899
1500.0	0.0007513	105.937000036
1500.0	0.000751	105.983999968
1500.0	0.0007505	106.016000032
1500.0	0.0007503	106.062000036
1500.0	0.0007498	106.108999968
1500.0	0.00075	106.141000032
1500.0	0.0007503	106.187000036
1500.0	0.00075	106.233999968
1500.0	0.00075	106.266000032
1500.0	0.0007498	106.312000036
1500.0	0.0007498	106.343999863
1500.0	0.00075	106.391000032
1500.0	0.0007498	106.437000036
1500.0	0.0007498	106.468999863
1500.0	0.0007503	106.516000032
1500.0	0.00075	106.562000036
1500.0	0.0007505	106.593999863
1500.0	0.0007505	106.641000032
1500.0	0.0007505	106.687000036
1510.0	0.0007503	106.953000069
1510.0	0.000751	106.983999968
1510.0	0.0007513	107.030999899
1510.0	0.0007513	107.078000069
1510.0	0.000751	107.108999968
1510.0	0.000751	107.155999899
1510.0	0.000751	107.203000069
1510.0	0.000751	107.233999968
1510.0	0.000751	107.280999899
1510.0	0.000751	107.312000036
1510.0	0.000751	107.358999968
1510.0	0.0007513	107.405999899
1510.0	0.000751	107.437000036
1510.0	0.0007513	107.483999968
1510.0	0.0007515	107.530999899
1510.0	0.0007515	107.562000036
1510.0	0.0007515	107.608999968
1510.0	0.0007515	107.655999899
1510.0	0.0007513	107.687000036
1510.0	0.0007513	107.733999968
1510.0	0.0007515	107.766000032
1510.0	0.0007515	107.812000036
1510.0	0.0007523	107.858999968
1510.0	0.0007518	107.891000032
1510.0	0.0007518	107.937000036
1510.0	0.0007523	107.983999968
1510.0	0.0007515	108.016000032
1510.0	0.0007515	108.062000036
1510.0	0.0007515	108.093999863
1510.0	0.0007513	108.141000032
1510.0	0.0007515	108.187000036
1510.0	0.0007515	108.218999863
1510.0	0.0007515	108.266000032
1510.0	0.0007518	108.312000036
1510.0	0.0007515	108.343999863
1510.0	0.0007518	108.391000032
1510.0	0.0007518	108.421999931
1520.0	0.0007503	108.703000069
1520.0	0.0007503	108.733999968
1520.0	0.0007498	108.780999899
1520.0	0.0007493	108.828000069
1520.0	0.0007498	108.858999968
1520.0	0.0007498	108.905999899
1520.0	0.0007498	108.953000069
1520.0	0.00075	108.983999968
1520.0	0.00075	109.030999899
1520.0	0.0007505	109.062000036
1520.0	0.000751	109.108999968
1520.0	0.0007505	109.155999899
1520.0	0.0007505	109.187000036
1520.0	0.0007503	109.233999968
1520.0	0.0007503	109.280999899
1520.0	0.0007503	109.312000036
1520.0	0.0007503	109.358999968
1520.0	0.0007505	109.405999899
1520.0	0.0007503	109.437000036
1520.0	0.0007503	109.483999968
1520.0	0.0007505	109.516000032
1520.0	0.000751	109.562000036
1520.0	0.000751	109.608999968
1520.0	0.0007513	109.641000032
1520.0	0.0007513	109.687000036
1520.0	0.000751	109.733999968
1520.0	0.000751	109.766000032
1520.0	0.000751	109.812000036
1520.0	0.000751	109.843999863
1520.0	0.0007505	109.891000032
1520.0	0.000751	109.937000036
1520.0	0.000751	109.983999968
1520.0	0.000751	110.016000032
1520.0	0.0007505	110.062000036
1520.0	0.000751	110.093999863
1520.0	0.000751	110.141000032
1520.0	0.000751	110.187000036
1530.0	0.0007503	110.453000069
1530.0	0.0007493	110.5
1530.0	0.000749	110.546999931
1530.0	0.0007485	110.578000069
1530.0	0.0007478	110.625
1530.0	0.0007475	110.655999899
1530.0	0.0007473	110.703000069
1530.0	0.0007473	110.75
1530.0	0.0007475	110.780999899
1530.0	0.0007468	110.828000069
1530.0	0.0007465	110.875
1530.0	0.0007463	110.905999899
1530.0	0.000746	110.953000069
1530.0	0.000746	110.983999968
1530.0	0.000746	111.030999899
1530.0	0.0007463	111.078000069
1530.0	0.0007465	111.108999968
1530.0	0.0007473	111.155999899
1530.0	0.0007473	111.203000069
1530.0	0.0007473	111.233999968
1530.0	0.0007468	111.280999899
1530.0	0.0007465	111.328000069
1530.0	0.0007465	111.358999968
1530.0	0.0007463	111.405999899
1530.0	0.000746	111.437000036
1530.0	0.0007453	111.483999968
1530.0	0.0007453	111.530999899
1530.0	0.0007455	111.562000036
1530.0	0.0007455	111.608999968
1530.0	0.000746	111.655999899
1530.0	0.000746	111.687000036
1530.0	0.000746	111.733999968
1530.0	0.0007463	111.766000032
1530.0	0.000746	111.812000036
1530.0	0.000746	111.858999968
1530.0	0.000746	111.891000032
1530.0	0.0007463	111.937000036
1540.0	0.0007423	112.218999863
1540.0	0.0007413	112.25
1540.0	0.00074	112.296999931
1540.0	0.0007393	112.343999863
1540.0	0.0007388	112.375
1540.0	0.000738	112.421999931
1540.0	0.000738	112.453000069
1540.0	0.0007378	112.5
1540.0	0.0007375	112.546999931
1540.0	0.0007373	112.578000069
1540.0	0.0007368	112.625
1540.0	0.0007368	112.655999899
1540.0	0.0007365	112.703000069
1540.0	0.0007365	112.75
1540.0	0.0007365	112.780999899
1540.0	0.0007365	112.828000069
1540.0	0.0007365	112.875
1540.0	0.0007363	112.905999899
1540.0	0.000736	112.953000069
1540.0	0.0007355	113.0
1540.0	0.0007353	113.030999899
1540.0	0.000735	113.078000069
1540.0	0.000735	113.108999968
1540.0	0.000735	113.155999899
1540.0	0.0007348	113.203000069
1540.0	0.000735	113.233999968
1540.0	0.0007353	113.280999899
1540.0	0.0007353	113.328000069
1540.0	0.0007355	113.358999968
1540.0	0.0007353	113.405999899
1540.0	0.0007353	113.437000036
1540.0	0.0007353	113.483999968
1540.0	0.0007353	113.530999899
1540.0	0.0007353	113.562000036
1540.0	0.0007355	113.608999968
1540.0	0.0007355	113.655999899
1540.0	0.0007355	113.687000036
1550.0	0.00073	113.968999863
1550.0	0.000728	114.0
1550.0	0.0007263	114.046999931
1550.0	0.000725	114.093999863
1550.0	0.0007238	114.125
1550.0	0.000723	114.171999931
1550.0	0.0007225	114.218999863
1550.0	0.0007218	114.25
1550.0	0.0007215	114.296999931
1550.0	0.0007215	114.328000069
1550.0	0.0007213	114.375
1550.0	0.000721	114.421999931
1550.0	0.000721	114.453000069
1550.0	0.0007205	114.5
1550.0	0.0007203	114.546999931
1550.0	0.0007203	114.578000069
1550.0	0.0007203	114.625
1550.0	0.0007203	114.655999899
1550.0	0.0007205	114.703000069
1550.0	0.0007205	114.75
1550.0	0.0007205	114.780999899
1550.0	0.000721	114.828000069
1550.0	0.0007205	114.875
1550.0	0.0007203	114.905999899
1550.0	0.0007203	114.953000069
1550.0	0.0007198	115.0
1550.0	0.0007198	115.030999899
1550.0	0.0007198	115.078000069
1550.0	0.0007198	115.108999968
1550.0	0.00072	115.155999899
1550.0	0.0007203	115.203000069
1550.0	0.00072	115.233999968
1550.0	0.0007203	115.280999899
1550.0	0.0007203	115.328000069
1550.0	0.0007205	115.358999968
1550.0	0.000721	115.405999899
1550.0	0.000721	115.437000036
1560.0	0.0007138	115.718999863
1560.0	0.000711	115.75
1560.0	0.0007088	115.796999931
1560.0	0.0007073	115.843999863
1560.0	0.000706	115.875
1560.0	0.0007053	115.921999931
1560.0	0.0007048	115.968999863
1560.0	0.000704	116.0
1560.0	0.0007035	116.046999931
1560.0	0.0007028	116.078000069
1560.0	0.0007025	116.125
1560.0	0.0007025	116.171999931
1560.0	0.0007025	116.203000069
1560.0	0.0007025	116.25
1560.0	0.0007028	116.296999931
1560.0	0.0007025	116.328000069
1560.0	0.0007023	116.375
1560.0	0.0007023	116.405999899
1560.0	0.0007023	116.453000069
1560.0	0.0007025	116.5
1560.0	0.0007025	116.530999899
1560.0	0.0007023	116.578000069
1560.0	0.0007025	116.625
1560.0	0.0007025	116.655999899
1560.0	0.0007025	116.703000069
1560.0	0.0007023	116.733999968
1560.0	0.0007023	116.780999899
1560.0	0.0007025	116.828000069
1560.0	0.0007025	116.858999968
1560.0	0.0007025	116.905999899
1560.0	0.0007028	116.953000069
1560.0	0.0007028	116.983999968
1560.0	0.0007025	117.030999899
1560.0	0.0007023	117.078000069
1560.0	0.0007025	117.108999968
1560.0	0.0007025	117.155999899
1560.0	0.0007025	117.187000036
1570.0	0.0006943	117.468999863
1570.0	0.0006913	117.5
1570.0	0.0006885	117.546999931
1570.0	0.0006863	117.593999863
1570.0	0.0006843	117.625
1570.0	0.000683	117.671999931
1570.0	0.0006823	117.718999863
1570.0	0.0006815	117.75
1570.0	0.0006805	117.796999931
1570.0	0.0006803	117.828000069
1570.0	0.00068	117.875
1570.0	0.0006793	117.921999931
1570.0	0.0006798	117.953000069
1570.0	0.0006793	118.0
1570.0	0.000679	118.046999931
1570.0	0.000679	118.078000069
1570.0	0.0006793	118.125
1570.0	0.0006793	118.155999899
1570.0	0.00068	118.203000069
1570.0	0.0006793	118.25
1570.0	0.0006793	118.280999899
1570.0	0.0006793	118.328000069
1570.0	0.000679	118.375
1570.0	0.000679	118.405999899
1570.0	0.000679	118.453000069
1570.0	0.000679	118.483999968
1570.0	0.0006788	118.530999899
1570.0	0.0006788	118.578000069
1570.0	0.0006788	118.608999968
1570.0	0.000679	118.655999899
1570.0	0.000679	118.703000069
1570.0	0.0006793	118.733999968
1570.0	0.0006793	118.780999899
1570.0	0.000679	118.828000069
1570.0	0.0006793	118.858999968
1570.0	0.0006793	118.905999899
1570.0	0.0006793	118.937000036
1580.0	0.0006688	119.218999863
1580.0	0.0006648	119.25
1580.0	0.0006615	119.296999931
1580.0	0.0006588	119.343999863
1580.0	0.0006565	119.391000032
1580.0	0.0006548	119.421999931
1580.0	0.0006535	119.468999863
1580.0	0.0006523	119.5
1580.0	0.0006515	119.546999931
1580.0	0.000651	119.593999863
1580.0	0.000651	119.625
1580.0	0.000651	119.671999931
1580.0	0.0006513	119.718999863
1580.0	0.0006513	119.75
1580.0	0.0006513	119.796999931
1580.0	0.000651	119.828000069
1580.0	0.000651	119.875
1580.0	0.0006505	119.921999931
1580.0	0.00065	119.953000069
1580.0	0.00065	120.0
1580.0	0.0006498	120.046999931
1580.0	0.0006498	120.078000069
1580.0	0.0006498	120.125
1580.0	0.0006498	120.155999899
1580.0	0.0006498	120.203000069
1580.0	0.00065	120.25
1580.0	0.0006498	120.280999899
1580.0	0.0006498	120.328000069
1580.0	0.0006493	120.375
1580.0	0.0006493	120.405999899
1580.0	0.0006493	120.453000069
1580.0	0.000649	120.483999968
1580.0	0.0006493	120.530999899
1580.0	0.000649	120.578000069
1580.0	0.000649	120.608999968
1580.0	0.000649	120.655999899
1580.0	0.000649	120.703000069
1590.0	0.0006378	120.968999863
1590.0	0.000633	121.016000032
1590.0	0.000629	121.062000036
1590.0	0.0006258	121.093999863
1590.0	0.0006238	121.141000032
1590.0	0.0006218	121.171999931
1590.0	0.0006205	121.218999863
1590.0	0.0006195	121.266000032
1590.0	0.0006188	121.296999931
1590.0	0.000618	121.343999863
1590.0	0.0006175	121.391000032
1590.0	0.000617	121.421999931
1590.0	0.0006168	121.468999863
1590.0	0.0006163	121.5
1590.0	0.0006158	121.546999931
1590.0	0.0006158	121.593999863
1590.0	0.0006155	121.625
1590.0	0.0006158	121.671999931
1590.0	0.0006158	121.718999863
1590.0	0.0006163	121.75
1590.0	0.0006163	121.796999931
1590.0	0.0006155	121.828000069
1590.0	0.0006153	121.875
1590.0	0.0006153	121.921999931
1590.0	0.000615	121.953000069
1590.0	0.000615	122.0
1590.0	0.000615	122.046999931
1590.0	0.0006153	122.078000069
1590.0	0.0006155	122.125
1590.0	0.0006155	122.155999899
1590.0	0.0006155	122.203000069
1590.0	0.0006155	122.25
1590.0	0.0006155	122.280999899
1590.0	0.0006155	122.328000069
1590.0	0.0006158	122.375
1590.0	0.0006155	122.405999899
1590.0	0.0006155	122.453000069
1600.0	0.0006005	122.733999968
1600.0	0.0005955	122.766000032
1600.0	0.0005918	122.812000036
1600.0	0.000588	122.843999863
1600.0	0.0005855	122.891000032
1600.0	0.0005833	122.937000036
1600.0	0.0005815	122.968999863
1600.0	0.0005803	123.016000032
1600.0	0.0005795	123.062000036
1600.0	0.000579	123.093999863
1600.0	0.0005788	123.141000032
1600.0	0.000578	123.171999931
1600.0	0.0005778	123.218999863
1600.0	0.0005778	123.266000032
1600.0	0.0005778	123.296999931
1600.0	0.0005778	123.343999863
1600.0	0.0005775	123.391000032
1600.0	0.0005775	123.421999931
1600.0	0.000578	123.468999863
1600.0	0.000578	123.5
1600.0	0.0005775	123.546999931
1600.0	0.0005775	123.593999863
1600.0	0.0005775	123.625
1600.0	0.0005778	123.671999931
1600.0	0.000578	123.718999863
1600.0	0.0005783	123.75
1600.0	0.0005783	123.796999931
1600.0	0.0005783	123.843999863
1600.0	0.000578	123.875
1600.0	0.0005775	123.921999931
1600.0	0.000577	123.953000069
1600.0	0.000577	124.0
1600.0	0.0005775	124.046999931
1600.0	0.000577	124.078000069
1600.0	0.0005768	124.125
1600.0	0.0005768	124.171999931
1600.0	0.0005768	124.203000069
1610.0	0.0005618	124.483999968
1610.0	0.0005563	124.530999899
1610.0	0.0005518	124.562000036
1610.0	0.0005483	124.608999968
1610.0	0.0005455	124.655999899
1610.0	0.000543	124.687000036
1610.0	0.0005415	124.733999968
1610.0	0.0005405	124.766000032
1610.0	0.00054	124.812000036
1610.0	0.0005393	124.858999968
1610.0	0.0005388	124.891000032
1610.0	0.0005388	124.937000036
1610.0	0.0005388	124.983999968
1610.0	0.0005383	125.016000032
1610.0	0.000538	125.062000036
1610.0	0.0005378	125.093999863
1610.0	0.0005375	125.141000032
1610.0	0.000537	125.187000036
1610.0	0.0005368	125.218999863
1610.0	0.0005368	125.266000032
1610.0	0.000537	125.312000036
1610.0	0.0005368	125.343999863
1610.0	0.000537	125.391000032
1610.0	0.0005368	125.421999931
1610.0	0.0005368	125.468999863
1610.0	0.000537	125.516000032
1610.0	0.000537	125.546999931
1610.0	0.000537	125.593999863
1610.0	0.0005375	125.641000032
1610.0	0.0005375	125.671999931
1610.0	0.0005375	125.718999863
1610.0	0.0005375	125.766000032
1610.0	0.0005375	125.796999931
1610.0	0.0005378	125.843999863
1610.0	0.0005375	125.875
1610.0	0.0005375	125.921999931
1610.0	0.000537	125.968999863
1620.0	0.0005205	126.25
1620.0	0.0005145	126.280999899
1620.0	0.00051	126.328000069
1620.0	0.0005063	126.358999968
1620.0	0.0005033	126.405999899
1620.0	0.0005008	126.453000069
1620.0	0.0004993	126.483999968
1620.0	0.000498	126.530999899
1620.0	0.000497	126.578000069
1620.0	0.0004963	126.608999968
1620.0	0.0004955	126.655999899
1620.0	0.0004955	126.687000036
1620.0	0.0004955	126.733999968
1620.0	0.0004955	126.780999899
1620.0	0.0004955	126.812000036
1620.0	0.0004955	126.858999968
1620.0	0.0004953	126.905999899
1620.0	0.0004945	126.937000036
1620.0	0.0004945	126.983999968
1620.0	0.0004943	127.030999899
1620.0	0.0004945	127.062000036
1620.0	0.0004945	127.108999968
1620.0	0.0004943	127.155999899
1620.0	0.0004945	127.187000036
1620.0	0.0004945	127.233999968
1620.0	0.000495	127.280999899
1620.0	0.0004953	127.312000036
1620.0	0.000495	127.358999968
1620.0	0.0004945	127.391000032
1620.0	0.0004945	127.437000036
1620.0	0.0004943	127.483999968
1620.0	0.0004943	127.516000032
1620.0	0.000494	127.562000036
1620.0	0.000494	127.608999968
1620.0	0.0004945	127.641000032
1620.0	0.0004945	127.687000036
1620.0	0.0004945	127.718999863
1630.0	0.0004783	128.0
1630.0	0.0004725	128.046999931
1630.0	0.000468	128.093999863
1630.0	0.0004643	128.125
1630.0	0.0004615	128.171999931
1630.0	0.0004593	128.203000069
1630.0	0.0004578	128.25
1630.0	0.0004565	128.296999931
1630.0	0.0004555	128.328000069
1630.0	0.0004545	128.375
1630.0	0.0004543	128.421999931
1630.0	0.0004538	128.453000069
1630.0	0.000453	128.5
1630.0	0.0004528	128.530999899
1630.0	0.000452	128.578000069
1630.0	0.0004518	128.625
1630.0	0.0004518	128.655999899
1630.0	0.0004515	128.703000069
1630.0	0.0004515	128.75
1630.0	0.0004513	128.780999899
1630.0	0.0004513	128.828000069
1630.0	0.0004513	128.858999968
1630.0	0.0004505	128.905999899
1630.0	0.0004505	128.953000069
1630.0	0.0004513	128.983999968
1630.0	0.0004515	129.030999899
1630.0	0.0004515	129.078000069
1630.0	0.0004515	129.108999968
1630.0	0.0004513	129.155999899
1630.0	0.0004513	129.203000069
1630.0	0.0004513	129.233999968
1630.0	0.0004513	129.280999899
1630.0	0.0004513	129.312000036
1630.0	0.0004513	129.358999968
1630.0	0.0004505	129.405999899
1630.0	0.0004503	129.437000036
1630.0	0.0004503	129.483999968
1640.0	0.0004333	129.766000032
1640.0	0.0004278	129.812000036
1640.0	0.000423	129.843999863
1640.0	0.000419	129.891000032
1640.0	0.0004158	129.937000036
1640.0	0.0004138	129.968999863
1640.0	0.0004125	130.016000032
1640.0	0.0004113	130.046999931
1640.0	0.0004103	130.093999863
1640.0	0.0004093	130.141000032
1640.0	0.0004088	130.171999931
1640.0	0.000408	130.218999863
1640.0	0.0004075	130.266000032
1640.0	0.0004075	130.296999931
1640.0	0.0004075	130.343999863
1640.0	0.0004075	130.391000032
1640.0	0.0004075	130.421999931
1640.0	0.0004075	130.468999863
1640.0	0.000407	130.5
1640.0	0.000407	130.546999931
1640.0	0.000407	130.593999863
1640.0	0.0004065	130.625
1640.0	0.0004065	130.671999931
1640.0	0.0004065	130.703000069
1640.0	0.0004065	130.75
1640.0	0.0004065	130.796999931
1640.0	0.0004065	130.828000069
1640.0	0.0004065	130.875
1640.0	0.0004065	130.921999931
1640.0	0.0004065	130.953000069
1640.0	0.0004063	131.0
1640.0	0.0004058	131.046999931
1640.0	0.0004058	131.078000069
1640.0	0.0004063	131.125
1640.0	0.0004063	131.155999899
1640.0	0.0004063	131.203000069
1640.0	0.0004063	131.25
1650.0	0.0003895	131.530999899
1650.0	0.0003838	131.562000036
1650.0	0.000379	131.608999968
1650.0	0.0003755	131.655999899
1650.0	0.0003728	131.687000036
1650.0	0.0003703	131.733999968
1650.0	0.0003688	131.780999899
1650.0	0.0003675	131.812000036
1650.0	0.0003665	131.858999968
1650.0	0.0003655	131.891000032
1650.0	0.000365	131.937000036
1650.0	0.0003643	131.983999968
1650.0	0.0003645	132.016000032
1650.0	0.0003645	132.062000036
1650.0	0.0003643	132.108999968
1650.0	0.000364	132.141000032
1650.0	0.0003638	132.187000036
1650.0	0.000364	132.233999968
1650.0	0.000364	132.266000032
1650.0	0.000364	132.312000036
1650.0	0.000364	132.343999863
1650.0	0.0003638	132.391000032
1650.0	0.0003638	132.437000036
1650.0	0.0003638	132.468999863
1650.0	0.0003633	132.516000032
1650.0	0.0003633	132.562000036
1650.0	0.0003638	132.593999863
1650.0	0.000364	132.641000032
1650.0	0.000364	132.671999931
1650.0	0.000364	132.718999863
1650.0	0.0003638	132.766000032
1650.0	0.0003638	132.796999931
1650.0	0.0003638	132.843999863
1650.0	0.0003633	132.891000032
1650.0	0.0003638	132.921999931
1650.0	0.0003638	132.968999863
1650.0	0.0003638	133.0
1660.0	0.000349	133.296999931
1660.0	0.000344	133.343999863
1660.0	0.00034	133.375
1660.0	0.0003365	133.421999931
1660.0	0.0003338	133.453000069
1660.0	0.0003313	133.5
1660.0	0.0003295	133.546999931
1660.0	0.0003288	133.578000069
1660.0	0.000328	133.625
1660.0	0.000327	133.655999899
1660.0	0.0003268	133.703000069
1660.0	0.0003263	133.75
1660.0	0.0003258	133.780999899
1660.0	0.0003263	133.828000069
1660.0	0.0003258	133.875
1660.0	0.0003263	133.905999899
1660.0	0.0003265	133.953000069
1660.0	0.0003258	134.0
1660.0	0.0003255	134.030999899
1660.0	0.0003253	134.078000069
1660.0	0.0003253	134.108999968
1660.0	0.0003255	134.155999899
1660.0	0.0003255	134.203000069
1660.0	0.0003258	134.25
1660.0	0.0003258	134.280999899
1660.0	0.0003258	134.328000069
1660.0	0.0003263	134.375
1660.0	0.0003263	134.405999899
1660.0	0.0003265	134.453000069
1660.0	0.0003265	134.5
1660.0	0.0003263	134.530999899
1660.0	0.0003263	134.578000069
1660.0	0.0003263	134.608999968
1660.0	0.0003258	134.655999899
1660.0	0.0003258	134.703000069
1660.0	0.0003255	134.733999968
1660.0	0.0003255	134.780999899
1670.0	0.000313	135.062000036
1670.0	0.0003078	135.108999968
1670.0	0.0003038	135.141000032
1670.0	0.0003	135.187000036
1670.0	0.000297	135.233999968
1670.0	0.0002953	135.266000032
1670.0	0.0002938	135.312000036
1670.0	0.0002925	135.358999968
1670.0	0.0002918	135.391000032
1670.0	0.0002913	135.437000036
1670.0	0.0002908	135.483999968
1670.0	0.0002908	135.516000032
1670.0	0.0002905	135.562000036
1670.0	0.0002903	135.608999968
1670.0	0.00029	135.641000032
1670.0	0.0002895	135.687000036
1670.0	0.0002895	135.718999863
1670.0	0.000289	135.766000032
1670.0	0.000289	135.812000036
1670.0	0.0002893	135.843999863
1670.0	0.0002895	135.891000032
1670.0	0.00029	135.937000036
1670.0	0.00029	135.968999863
1670.0	0.0002903	136.016000032
1670.0	0.0002903	136.062000036
1670.0	0.00029	136.093999863
1670.0	0.00029	136.141000032
1670.0	0.00029	136.171999931
1670.0	0.0002895	136.218999863
1670.0	0.00029	136.266000032
1670.0	0.0002903	136.296999931
1670.0	0.0002905	136.343999863
1670.0	0.0002905	136.391000032
1670.0	0.0002905	136.421999931
1670.0	0.0002903	136.468999863
1670.0	0.0002903	136.5
1670.0	0.00029	136.546999931
1680.0	0.0002768	136.828000069
1680.0	0.000273	136.875
1680.0	0.0002693	136.921999931
1680.0	0.0002668	136.953000069
1680.0	0.0002645	137.0
1680.0	0.0002628	137.046999931
1680.0	0.0002613	137.078000069
1680.0	0.00026	137.125
1680.0	0.0002593	137.155999899
1680.0	0.0002588	137.203000069
1680.0	0.0002583	137.25
1680.0	0.000258	137.280999899
1680.0	0.000258	137.328000069
1680.0	0.0002575	137.375
1680.0	0.0002578	137.405999899
1680.0	0.0002575	137.453000069
1680.0	0.0002575	137.483999968
1680.0	0.0002575	137.530999899
1680.0	0.000257	137.578000069
1680.0	0.000257	137.608999968
1680.0	0.0002575	137.655999899
1680.0	0.0002578	137.703000069
1680.0	0.000258	137.733999968
1680.0	0.000258	137.780999899
1680.0	0.000258	137.828000069
1680.0	0.0002578	137.858999968
1680.0	0.0002578	137.905999899
1680.0	0.0002578	137.937000036
1680.0	0.000258	137.983999968
1680.0	0.0002578	138.030999899
1680.0	0.0002578	138.062000036
1680.0	0.0002578	138.108999968
1680.0	0.0002575	138.155999899
1680.0	0.0002578	138.187000036
1680.0	0.0002578	138.233999968
1680.0	0.0002578	138.266000032
1680.0	0.000258	138.312000036
1690.0	0.0002475	138.593999863
1690.0	0.0002443	138.641000032
1690.0	0.0002413	138.687000036
1690.0	0.0002388	138.718999863
1690.0	0.0002368	138.766000032
1690.0	0.0002353	138.812000036
1690.0	0.0002343	138.843999863
1690.0	0.0002333	138.891000032
1690.0	0.0002328	138.937000036
1690.0	0.0002328	138.968999863
1690.0	0.0002325	139.016000032
1690.0	0.0002318	139.062000036
1690.0	0.0002318	139.093999863
1690.0	0.0002318	139.141000032
1690.0	0.0002318	139.187000036
1690.0	0.0002318	139.218999863
1690.0	0.0002315	139.266000032
1690.0	0.0002315	139.296999931
1690.0	0.0002315	139.343999863
1690.0	0.0002313	139.391000032
1690.0	0.0002315	139.421999931
1690.0	0.0002318	139.468999863
1690.0	0.0002315	139.516000032
1690.0	0.0002315	139.546999931
1690.0	0.0002313	139.593999863
1690.0	0.0002315	139.625
1690.0	0.0002315	139.671999931
1690.0	0.0002308	139.718999863
1690.0	0.0002313	139.75
1690.0	0.0002315	139.796999931
1690.0	0.0002313	139.843999863
1690.0	0.0002313	139.875
1690.0	0.0002305	139.921999931
1690.0	0.0002305	139.953000069
1690.0	0.0002305	140.0
1690.0	0.0002305	140.046999931
1690.0	0.0002305	140.078000069
1700.0	0.0002213	140.375
1700.0	0.000218	140.405999899
1700.0	0.0002153	140.453000069
1700.0	0.0002133	140.5
1700.0	0.0002118	140.530999899
1700.0	0.0002105	140.578000069
1700.0	0.0002093	140.625
1700.0	0.000208	140.655999899
1700.0	0.000207	140.703000069
1700.0	0.0002065	140.733999968
1700.0	0.0002063	140.780999899
1700.0	0.0002058	140.828000069
1700.0	0.0002055	140.858999968
1700.0	0.0002058	140.905999899
1700.0	0.0002058	140.953000069
1700.0	0.0002058	140.983999968
1700.0	0.0002058	141.030999899
1700.0	0.0002055	141.062000036
1700.0	0.0002055	141.108999968
1700.0	0.0002055	141.155999899
1700.0	0.0002055	141.187000036
1700.0	0.0002055	141.233999968
1700.0	0.0002055	141.280999899
1700.0	0.0002053	141.312000036
1700.0	0.0002055	141.358999968
1700.0	0.0002055	141.391000032
1700.0	0.0002055	141.437000036
1700.0	0.0002055	141.483999968
1700.0	0.0002055	141.516000032
1700.0	0.0002055	141.562000036
1700.0	0.0002055	141.608999968
1700.0	0.0002053	141.641000032
1700.0	0.0002055	141.687000036
1700.0	0.0002055	141.733999968
1700.0	0.0002055	141.766000032
1700.0	0.0002055	141.812000036
1700.0	0.0002055	141.843999863
1710.0	0.0001965	142.141000032
1710.0	0.0001938	142.171999931
1710.0	0.0001918	142.218999863
1710.0	0.00019	142.266000032
1710.0	0.000188	142.296999931
1710.0	0.0001868	142.343999863
1710.0	0.0001858	142.391000032
1710.0	0.0001853	142.421999931
1710.0	0.000185	142.468999863
1710.0	0.000185	142.5
1710.0	0.0001845	142.546999931
1710.0	0.0001845	142.593999863
1710.0	0.0001843	142.625
1710.0	0.0001843	142.671999931
1710.0	0.0001845	142.718999863
1710.0	0.000185	142.75
1710.0	0.000185	142.796999931
1710.0	0.0001853	142.828000069
1710.0	0.0001853	142.875
1710.0	0.0001855	142.921999931
1710.0	0.0001853	142.953000069
1710.0	0.0001853	143.0
1710.0	0.0001853	143.046999931
1710.0	0.000185	143.078000069
1710.0	0.000185	143.125
1710.0	0.000185	143.155999899
1710.0	0.0001845	143.203000069
1710.0	0.0001843	143.25
1710.0	0.0001843	143.280999899
1710.0	0.000184	143.328000069
1710.0	0.000184	143.375
1710.0	0.000184	143.405999899
1710.0	0.000184	143.453000069
1710.0	0.000184	143.5
1710.0	0.000184	143.530999899
1710.0	0.0001838	143.578000069
1710.0	0.0001838	143.608999968
1720.0	0.0001775	143.905999899
1720.0	0.0001753	143.937000036
1720.0	0.0001733	143.983999968
1720.0	0.0001718	144.030999899
1720.0	0.0001703	144.062000036
1720.0	0.0001693	144.108999968
1720.0	0.0001688	144.155999899
1720.0	0.0001678	144.187000036
1720.0	0.000167	144.233999968
1720.0	0.0001668	144.280999899
1720.0	0.0001668	144.312000036
1720.0	0.000167	144.358999968
1720.0	0.0001675	144.405999899
1720.0	0.000167	144.437000036
1720.0	0.000167	144.483999968
1720.0	0.0001668	144.530999899
1720.0	0.0001663	144.562000036
1720.0	0.0001663	144.608999968
1720.0	0.0001658	144.641000032
1720.0	0.0001655	144.687000036
1720.0	0.0001653	144.733999968
1720.0	0.0001653	144.766000032
1720.0	0.0001653	144.812000036
1720.0	0.0001655	144.858999968
1720.0	0.0001653	144.891000032
1720.0	0.0001655	144.937000036
1720.0	0.0001658	144.968999863
1720.0	0.0001655	145.016000032
1720.0	0.0001655	145.062000036
1720.0	0.0001655	145.093999863
1720.0	0.0001658	145.141000032
1720.0	0.0001658	145.187000036
1720.0	0.0001663	145.218999863
1720.0	0.0001665	145.266000032
1720.0	0.0001665	145.296999931
1720.0	0.0001668	145.343999863
1720.0	0.0001668	145.391000032
1730.0	0.00016	145.671999931
1730.0	0.0001575	145.718999863
1730.0	0.0001555	145.75
1730.0	0.0001543	145.796999931
1730.0	0.0001533	145.843999863
1730.0	0.0001525	145.875
1730.0	0.0001518	145.921999931
1730.0	0.0001515	145.968999863
1730.0	0.0001503	146.0
1730.0	0.0001495	146.046999931
1730.0	0.0001493	146.078000069
1730.0	0.000149	146.125
1730.0	0.000149	146.171999931
1730.0	0.000149	146.203000069
1730.0	0.000149	146.25
1730.0	0.0001488	146.296999931
1730.0	0.0001488	146.328000069
1730.0	0.0001488	146.375
1730.0	0.000149	146.405999899
1730.0	0.000149	146.453000069
1730.0	0.0001493	146.5
1730.0	0.0001493	146.530999899
1730.0	0.000149	146.578000069
1730.0	0.000149	146.625
1730.0	0.0001493	146.655999899
1730.0	0.0001493	146.703000069
1730.0	0.0001493	146.733999968
1730.0	0.0001493	146.780999899
1730.0	0.000149	146.828000069
1730.0	0.000149	146.858999968
1730.0	0.0001488	146.905999899
1730.0	0.0001488	146.953000069
1730.0	0.0001488	146.983999968
1730.0	0.0001488	147.030999899
1730.0	0.0001488	147.078000069
1730.0	0.0001488	147.108999968
1730.0	0.0001488	147.155999899
1740.0	0.0001433	147.437000036
1740.0	0.0001415	147.483999968
1740.0	0.00014	147.530999899
1740.0	0.0001383	147.578000069
1740.0	0.000137	147.608999968
1740.0	0.0001363	147.655999899
1740.0	0.0001353	147.687000036
1740.0	0.0001353	147.733999968
1740.0	0.000135	147.780999899
1740.0	0.000135	147.812000036
1740.0	0.0001353	147.858999968
1740.0	0.000135	147.905999899
1740.0	0.000135	147.937000036
1740.0	0.000135	147.983999968
1740.0	0.0001345	148.016000032
1740.0	0.0001343	148.062000036
1740.0	0.000134	148.108999968
1740.0	0.000134	148.141000032
1740.0	0.0001343	148.187000036
1740.0	0.000134	148.233999968
1740.0	0.0001338	148.266000032
1740.0	0.000134	148.312000036
1740.0	0.000134	148.358999968
1740.0	0.0001343	148.391000032
1740.0	0.0001345	148.437000036
1740.0	0.0001343	148.483999968
1740.0	0.000134	148.516000032
1740.0	0.000134	148.562000036
1740.0	0.000134	148.608999968
1740.0	0.0001343	148.641000032
1740.0	0.000135	148.687000036
1740.0	0.000135	148.718999863
1740.0	0.0001353	148.766000032
1740.0	0.000135	148.812000036
1740.0	0.000135	148.843999863
1740.0	0.000135	148.891000032
1740.0	0.0001345	148.937000036
1750.0	0.0001288	149.233999968
1750.0	0.000127	149.266000032
1750.0	0.0001255	149.312000036
1750.0	0.0001245	149.343999863
1750.0	0.000124	149.391000032
1750.0	0.0001238	149.437000036
1750.0	0.000123	149.468999863
1750.0	0.0001228	149.516000032
1750.0	0.0001225	149.562000036
1750.0	0.000122	149.593999863
1750.0	0.0001218	149.641000032
1750.0	0.0001218	149.671999931
1750.0	0.0001215	149.718999863
1750.0	0.0001215	149.766000032
1750.0	0.0001215	149.796999931
1750.0	0.0001215	149.843999863
1750.0	0.0001218	149.891000032
1750.0	0.0001218	149.921999931
1750.0	0.0001218	149.968999863
1750.0	0.0001218	150.0
1750.0	0.000122	150.046999931
1750.0	0.000122	150.093999863
1750.0	0.0001218	150.125
1750.0	0.0001218	150.171999931
1750.0	0.0001215	150.218999863
1750.0	0.0001215	150.25
1750.0	0.0001208	150.296999931
1750.0	0.0001205	150.328000069
1750.0	0.0001203	150.375
1750.0	0.0001203	150.421999931
1750.0	0.0001205	150.468999863
1750.0	0.0001203	150.5
1750.0	0.0001205	150.546999931
1750.0	0.0001208	150.578000069
1750.0	0.0001208	150.625
1750.0	0.0001208	150.671999931
1750.0	0.0001205	150.703000069
1760.0	0.0001158	151.016000032
1760.0	0.0001143	151.046999931
1760.0	0.000113	151.093999863
1760.0	0.000112	151.125
1760.0	0.0001113	151.171999931
1760.0	0.0001105	151.218999863
1760.0	0.00011	151.25
1760.0	0.00011	151.296999931
1760.0	0.0001093	151.343999863
1760.0	0.000109	151.375
1760.0	0.0001088	151.421999931
1760.0	0.0001088	151.453000069
1760.0	0.0001088	151.5
1760.0	0.0001083	151.546999931
1760.0	0.0001083	151.578000069
1760.0	0.0001083	151.625
1760.0	0.0001088	151.671999931
1760.0	0.0001088	151.703000069
1760.0	0.0001088	151.75
1760.0	0.000109	151.796999931
1760.0	0.0001088	151.828000069
1760.0	0.000109	151.875
1760.0	0.0001088	151.905999899
1760.0	0.0001083	151.953000069
1760.0	0.0001083	152.0
1760.0	0.0001083	152.030999899
1760.0	0.000108	152.078000069
1760.0	0.000108	152.125
1760.0	0.0001083	152.155999899
1760.0	0.0001083	152.203000069
1760.0	0.0001083	152.233999968
1760.0	0.0001083	152.280999899
1760.0	0.0001083	152.328000069
1760.0	0.0001083	152.358999968
1760.0	0.000108	152.405999899
1760.0	0.000108	152.453000069
1760.0	0.0001083	152.483999968
1770.0	0.0001038	152.796999931
1770.0	0.0001028	152.828000069
1770.0	0.0001015	152.875
1770.0	0.0001005	152.921999931
1770.0	9.9e-05	152.953000069
1770.0	9.78e-05	153.0
1770.0	9.7e-05	153.030999899
1770.0	9.68e-05	153.078000069
1770.0	9.68e-05	153.125
1770.0	9.68e-05	153.171999931
1770.0	9.68e-05	153.203000069
1770.0	9.68e-05	153.25
1770.0	9.68e-05	153.280999899
1770.0	9.68e-05	153.328000069
1770.0	9.7e-05	153.375
1770.0	9.68e-05	153.405999899
1770.0	9.68e-05	153.453000069
1770.0	9.65e-05	153.5
1770.0	9.68e-05	153.530999899
1770.0	9.68e-05	153.578000069
1770.0	9.68e-05	153.608999968
1770.0	9.68e-05	153.655999899
1770.0	9.7e-05	153.703000069
1770.0	9.75e-05	153.733999968
1770.0	9.78e-05	153.780999899
1770.0	9.78e-05	153.828000069
1770.0	9.78e-05	153.858999968
1770.0	9.75e-05	153.905999899
1770.0	9.75e-05	153.953000069
1770.0	9.75e-05	153.983999968
1770.0	9.75e-05	154.030999899
1770.0	9.75e-05	154.078000069
1770.0	9.75e-05	154.108999968
1770.0	9.78e-05	154.155999899
1770.0	9.75e-05	154.203000069
1770.0	9.75e-05	154.233999968
1770.0	9.75e-05	154.280999899
1780.0	9.18e-05	154.578000069
1780.0	9.08e-05	154.625
1780.0	8.93e-05	154.671999931
1780.0	8.88e-05	154.703000069
1780.0	8.83e-05	154.75
1780.0	8.8e-05	154.796999931
1780.0	8.8e-05	154.828000069
1780.0	8.78e-05	154.875
1780.0	8.78e-05	154.921999931
1780.0	8.75e-05	154.953000069
1780.0	8.68e-05	155.0
1780.0	8.68e-05	155.030999899
1780.0	8.65e-05	155.078000069
1780.0	8.58e-05	155.125
1780.0	8.63e-05	155.155999899
1780.0	8.58e-05	155.203000069
1780.0	8.55e-05	155.25
1780.0	8.55e-05	155.280999899
1780.0	8.53e-05	155.328000069
1780.0	8.53e-05	155.358999968
1780.0	8.53e-05	155.405999899
1780.0	8.5e-05	155.453000069
1780.0	8.5e-05	155.483999968
1780.0	8.53e-05	155.530999899
1780.0	8.53e-05	155.578000069
1780.0	8.53e-05	155.608999968
1780.0	8.53e-05	155.655999899
1780.0	8.53e-05	155.703000069
1780.0	8.55e-05	155.733999968
1780.0	8.58e-05	155.780999899
1780.0	8.58e-05	155.812000036
1780.0	8.55e-05	155.858999968
1780.0	8.53e-05	155.905999899
1780.0	8.53e-05	155.937000036
1780.0	8.53e-05	155.983999968
1780.0	8.5e-05	156.030999899
1780.0	8.53e-05	156.062000036
1790.0	8e-05	156.375
1790.0	7.88e-05	156.405999899
1790.0	7.75e-05	156.453000069
1790.0	7.68e-05	156.5
1790.0	7.65e-05	156.530999899
1790.0	7.55e-05	156.578000069
1790.0	7.53e-05	156.608999968
1790.0	7.53e-05	156.655999899
1790.0	7.53e-05	156.703000069
1790.0	7.55e-05	156.733999968
1790.0	7.53e-05	156.780999899
1790.0	7.5e-05	156.828000069
1790.0	7.5e-05	156.858999968
1790.0	7.45e-05	156.905999899
1790.0	7.43e-05	156.937000036
1790.0	7.45e-05	156.983999968
1790.0	7.45e-05	157.030999899
1790.0	7.53e-05	157.062000036
1790.0	7.53e-05	157.108999968
1790.0	7.55e-05	157.155999899
1790.0	7.55e-05	157.187000036
1790.0	7.55e-05	157.233999968
1790.0	7.53e-05	157.266000032
1790.0	7.5e-05	157.312000036
1790.0	7.5e-05	157.358999968
1790.0	7.53e-05	157.391000032
1790.0	7.55e-05	157.437000036
1790.0	7.55e-05	157.483999968
1790.0	7.55e-05	157.516000032
1790.0	7.55e-05	157.562000036
1790.0	7.53e-05	157.593999863
1790.0	7.53e-05	157.641000032
1790.0	7.5e-05	157.687000036
1790.0	7.5e-05	157.718999863
1790.0	7.45e-05	157.766000032
1790.0	7.5e-05	157.812000036
1790.0	7.5e-05	157.843999863
1800.0	7.13e-05	158.155999899
1800.0	7e-05	158.187000036
1800.0	6.93e-05	158.233999968
1800.0	6.88e-05	158.280999899
1800.0	6.8e-05	158.312000036
1800.0	6.78e-05	158.358999968
1800.0	6.75e-05	158.391000032
1800.0	6.68e-05	158.437000036
1800.0	6.65e-05	158.483999968
1800.0	6.65e-05	158.516000032
1800.0	6.68e-05	158.562000036
1800.0	6.68e-05	158.608999968
1800.0	6.68e-05	158.641000032
1800.0	6.68e-05	158.687000036
1800.0	6.68e-05	158.733999968
1800.0	6.65e-05	158.766000032
1800.0	6.63e-05	158.812000036
1800.0	6.63e-05	158.843999863
1800.0	6.65e-05	158.891000032
1800.0	6.63e-05	158.937000036
1800.0	6.63e-05	158.968999863
1800.0	6.58e-05	159.016000032
1800.0	6.55e-05	159.062000036
1800.0	6.55e-05	159.093999863
1800.0	6.55e-05	159.141000032
1800.0	6.5e-05	159.171999931
1800.0	6.53e-05	159.218999863
1800.0	6.45e-05	159.266000032
1800.0	6.45e-05	159.296999931
1800.0	6.5e-05	159.343999863
1800.0	6.45e-05	159.391000032
1800.0	6.45e-05	159.421999931
1800.0	6.45e-05	159.468999863
1800.0	6.45e-05	159.5
1800.0	6.53e-05	159.546999931
1800.0	6.55e-05	159.593999863
1800.0	6.55e-05	159.625
