Your edit line - do NOT delete this line
Wavelength [nm], Voltage [V], Elapsed time [s]
900.0	0.0001983	14.0940001011
900.0	0.0001945	14.1410000324
900.0	0.0001915	14.1870000362
900.0	0.000189	14.2190001011
900.0	0.000187	14.2660000324
900.0	0.0001858	14.3120000362
900.0	0.000185	14.3440001011
900.0	0.0001843	14.3910000324
900.0	0.0001838	14.4219999313
900.0	0.0001838	14.4690001011
900.0	0.000184	14.5160000324
900.0	0.000184	14.5469999313
900.0	0.0001843	14.5940001011
900.0	0.000184	14.6410000324
900.0	0.000184	14.6719999313
900.0	0.000184	14.7190001011
900.0	0.0001838	14.75
900.0	0.0001838	14.7969999313
900.0	0.0001833	14.8440001011
900.0	0.000183	14.875
900.0	0.000183	14.9219999313
900.0	0.0001828	14.9690001011
900.0	0.000183	15.0
900.0	0.0001833	15.0469999313
900.0	0.0001833	15.0780000687
900.0	0.0001833	15.125
900.0	0.0001833	15.1719999313
900.0	0.0001838	15.2030000687
900.0	0.000184	15.25
900.0	0.000184	15.2969999313
900.0	0.000184	15.3280000687
900.0	0.000184	15.375
900.0	0.0001843	15.4219999313
900.0	0.000184	15.4530000687
900.0	0.0001838	15.5
900.0	0.0001838	15.5309998989
900.0	0.0001833	15.5780000687
910.0	0.0001918	15.8910000324
910.0	0.000194	15.9219999313
910.0	0.0001958	15.9690001011
910.0	0.0001975	16.0160000324
910.0	0.0001988	16.0469999313
910.0	0.0001993	16.0940001011
910.0	0.0002003	16.1410000324
910.0	0.0002005	16.1719999313
910.0	0.0002008	16.2190001011
910.0	0.0002013	16.25
910.0	0.0002015	16.2969999313
910.0	0.0002015	16.3440001011
910.0	0.0002018	16.375
910.0	0.0002015	16.4219999313
910.0	0.0002015	16.4690001011
910.0	0.0002018	16.5
910.0	0.0002018	16.5469999313
910.0	0.0002018	16.5780000687
910.0	0.0002015	16.625
910.0	0.0002018	16.6719999313
910.0	0.000202	16.7190001011
910.0	0.0002025	16.75
910.0	0.0002028	16.7969999313
910.0	0.000203	16.8280000687
910.0	0.000203	16.875
910.0	0.000203	16.9219999313
910.0	0.000203	16.9530000687
910.0	0.0002028	17.0
910.0	0.0002028	17.0469999313
910.0	0.0002028	17.0780000687
910.0	0.0002025	17.125
910.0	0.0002025	17.1719999313
910.0	0.0002025	17.2030000687
910.0	0.0002025	17.25
910.0	0.000202	17.2969999313
910.0	0.000202	17.3280000687
910.0	0.000202	17.375
920.0	0.0002118	17.6719999313
920.0	0.000215	17.7190001011
920.0	0.0002175	17.7660000324
920.0	0.0002195	17.7969999313
920.0	0.0002213	17.8440001011
920.0	0.000222	17.8910000324
920.0	0.000223	17.9219999313
920.0	0.0002238	17.9690001011
920.0	0.000224	18.0
920.0	0.0002245	18.0469999313
920.0	0.000225	18.0940001011
920.0	0.0002253	18.125
920.0	0.0002255	18.1719999313
920.0	0.0002255	18.2190001011
920.0	0.0002255	18.25
920.0	0.0002253	18.2969999313
920.0	0.0002245	18.3280000687
920.0	0.000225	18.375
920.0	0.0002253	18.4219999313
920.0	0.0002253	18.4530000687
920.0	0.0002255	18.5
920.0	0.0002255	18.5469999313
920.0	0.0002255	18.5780000687
920.0	0.0002255	18.625
920.0	0.0002253	18.6559998989
920.0	0.0002253	18.7030000687
920.0	0.000225	18.75
920.0	0.0002245	18.7809998989
920.0	0.0002245	18.8280000687
920.0	0.0002245	18.875
920.0	0.000225	18.9059998989
920.0	0.000225	18.9530000687
920.0	0.000225	19.0
920.0	0.000225	19.0309998989
920.0	0.000225	19.0780000687
920.0	0.000225	19.1089999676
920.0	0.000225	19.1559998989
930.0	0.0002355	19.4530000687
930.0	0.0002388	19.5
930.0	0.0002408	19.5469999313
930.0	0.000243	19.5780000687
930.0	0.0002445	19.625
930.0	0.0002455	19.6719999313
930.0	0.0002465	19.7030000687
930.0	0.000247	19.75
930.0	0.0002475	19.7969999313
930.0	0.0002478	19.8280000687
930.0	0.000248	19.875
930.0	0.000248	19.9059998989
930.0	0.000248	19.9530000687
930.0	0.000248	20.0
930.0	0.000248	20.0309998989
930.0	0.0002483	20.0780000687
930.0	0.000248	20.125
930.0	0.0002483	20.1559998989
930.0	0.0002483	20.2030000687
930.0	0.0002483	20.2339999676
930.0	0.0002483	20.2809998989
930.0	0.0002483	20.3280000687
930.0	0.000248	20.3589999676
930.0	0.000248	20.4059998989
930.0	0.000248	20.4370000362
930.0	0.0002478	20.4839999676
930.0	0.0002478	20.5309998989
930.0	0.0002475	20.5620000362
930.0	0.0002478	20.6089999676
930.0	0.0002478	20.6559998989
930.0	0.000248	20.6870000362
930.0	0.000248	20.7339999676
930.0	0.000248	20.7809998989
930.0	0.000248	20.8120000362
930.0	0.0002483	20.8589999676
930.0	0.0002483	20.8910000324
930.0	0.000248	20.9370000362
940.0	0.000258	21.2339999676
940.0	0.0002615	21.2809998989
940.0	0.0002643	21.3120000362
940.0	0.0002663	21.3589999676
940.0	0.0002683	21.4059998989
940.0	0.0002693	21.4370000362
940.0	0.0002703	21.4839999676
940.0	0.0002708	21.5160000324
940.0	0.0002715	21.5620000362
940.0	0.0002718	21.6089999676
940.0	0.0002725	21.6410000324
940.0	0.0002725	21.6870000362
940.0	0.0002728	21.7339999676
940.0	0.0002728	21.7660000324
940.0	0.000273	21.8120000362
940.0	0.0002733	21.8440001011
940.0	0.0002733	21.8910000324
940.0	0.0002733	21.9370000362
940.0	0.0002733	21.9690001011
940.0	0.0002733	22.0160000324
940.0	0.000273	22.0620000362
940.0	0.0002728	22.0940001011
940.0	0.0002728	22.1410000324
940.0	0.000273	22.1719999313
940.0	0.000273	22.2190001011
940.0	0.000273	22.2660000324
940.0	0.000273	22.2969999313
940.0	0.000273	22.3440001011
940.0	0.0002733	22.3910000324
940.0	0.0002738	22.4219999313
940.0	0.0002743	22.4690001011
940.0	0.0002745	22.5
940.0	0.000275	22.5469999313
940.0	0.0002745	22.5940001011
940.0	0.0002745	22.625
940.0	0.0002745	22.6719999313
940.0	0.0002745	22.7190001011
950.0	0.0002843	23.0160000324
950.0	0.0002875	23.0469999313
950.0	0.0002903	23.0940001011
950.0	0.0002925	23.1410000324
950.0	0.000294	23.1719999313
950.0	0.000295	23.2190001011
950.0	0.0002955	23.2660000324
950.0	0.0002963	23.2969999313
950.0	0.0002968	23.3440001011
950.0	0.0002968	23.375
950.0	0.000297	23.4219999313
950.0	0.0002975	23.4690001011
950.0	0.0002975	23.5
950.0	0.0002978	23.5469999313
950.0	0.0002978	23.5940001011
950.0	0.0002978	23.625
950.0	0.000298	23.6719999313
950.0	0.000298	23.7190001011
950.0	0.000298	23.75
950.0	0.000298	23.7969999313
950.0	0.0002978	23.8280000687
950.0	0.0002978	23.875
950.0	0.0002978	23.9219999313
950.0	0.0002975	23.9530000687
950.0	0.0002978	24.0
950.0	0.0002975	24.0469999313
950.0	0.000297	24.0780000687
950.0	0.0002975	24.125
950.0	0.0002975	24.1719999313
950.0	0.0002978	24.2030000687
950.0	0.0002978	24.25
950.0	0.0002978	24.2969999313
950.0	0.0002978	24.3280000687
950.0	0.0002975	24.375
950.0	0.0002975	24.4059998989
950.0	0.0002975	24.4530000687
950.0	0.0002975	24.5
960.0	0.0003075	24.7809998989
960.0	0.0003108	24.8280000687
960.0	0.0003138	24.8589999676
960.0	0.0003158	24.9059998989
960.0	0.000317	24.9530000687
960.0	0.0003183	24.9839999676
960.0	0.0003193	25.0309998989
960.0	0.0003203	25.0780000687
960.0	0.0003213	25.1089999676
960.0	0.0003215	25.1559998989
960.0	0.0003218	25.2030000687
960.0	0.000322	25.2339999676
960.0	0.0003218	25.2809998989
960.0	0.0003218	25.3280000687
960.0	0.0003215	25.3589999676
960.0	0.0003215	25.4059998989
960.0	0.000322	25.4370000362
960.0	0.000322	25.4839999676
960.0	0.0003218	25.5309998989
960.0	0.0003218	25.5620000362
960.0	0.0003218	25.6089999676
960.0	0.0003215	25.6559998989
960.0	0.0003218	25.6870000362
960.0	0.000322	25.7339999676
960.0	0.0003225	25.7660000324
960.0	0.0003228	25.8120000362
960.0	0.000323	25.8589999676
960.0	0.000323	25.8910000324
960.0	0.0003228	25.9370000362
960.0	0.0003228	25.9839999676
960.0	0.000323	26.0160000324
960.0	0.0003233	26.0620000362
960.0	0.0003238	26.0940001011
960.0	0.0003238	26.1410000324
960.0	0.0003238	26.1870000362
960.0	0.0003238	26.2190001011
960.0	0.0003238	26.2660000324
970.0	0.0003325	26.5469999313
970.0	0.0003358	26.5940001011
970.0	0.0003388	26.6410000324
970.0	0.0003408	26.6719999313
970.0	0.0003425	26.7190001011
970.0	0.000344	26.7660000324
970.0	0.0003453	26.7969999313
970.0	0.0003458	26.8440001011
970.0	0.0003463	26.875
970.0	0.0003468	26.9219999313
970.0	0.000347	26.9690001011
970.0	0.0003478	27.0160000324
970.0	0.000348	27.0469999313
970.0	0.0003483	27.0940001011
970.0	0.0003483	27.125
970.0	0.000348	27.1719999313
970.0	0.000348	27.2190001011
970.0	0.000348	27.25
970.0	0.0003478	27.2969999313
970.0	0.0003475	27.3440001011
970.0	0.0003475	27.3910000324
970.0	0.0003475	27.4219999313
970.0	0.0003475	27.4690001011
970.0	0.0003475	27.5
970.0	0.000347	27.5469999313
970.0	0.0003475	27.5940001011
970.0	0.0003475	27.625
970.0	0.0003475	27.6719999313
970.0	0.0003478	27.7190001011
970.0	0.0003475	27.75
970.0	0.0003475	27.7969999313
970.0	0.0003475	27.8280000687
970.0	0.0003475	27.875
970.0	0.0003478	27.9219999313
970.0	0.0003478	27.9530000687
970.0	0.000348	28.0
980.0	0.0003565	28.2809998989
980.0	0.0003593	28.3120000362
980.0	0.000362	28.3589999676
980.0	0.0003643	28.3910000324
980.0	0.0003663	28.4370000362
980.0	0.0003675	28.4839999676
980.0	0.0003688	28.5160000324
980.0	0.0003693	28.5620000362
980.0	0.00037	28.6089999676
980.0	0.0003705	28.6410000324
980.0	0.0003708	28.6870000362
980.0	0.0003708	28.7190001011
980.0	0.0003705	28.7660000324
980.0	0.0003705	28.8120000362
980.0	0.0003705	28.8440001011
980.0	0.0003705	28.8910000324
980.0	0.0003703	28.9370000362
980.0	0.0003703	28.9690001011
980.0	0.0003703	29.0160000324
980.0	0.0003703	29.0469999313
980.0	0.0003705	29.0940001011
980.0	0.0003703	29.1410000324
980.0	0.0003703	29.1719999313
980.0	0.00037	29.2190001011
980.0	0.0003703	29.2660000324
980.0	0.0003705	29.2969999313
980.0	0.0003705	29.3440001011
980.0	0.0003708	29.3910000324
980.0	0.0003713	29.4219999313
980.0	0.0003708	29.4690001011
980.0	0.0003708	29.5160000324
980.0	0.0003705	29.5469999313
980.0	0.0003708	29.5940001011
980.0	0.0003708	29.6410000324
980.0	0.0003705	29.6719999313
980.0	0.0003708	29.7190001011
980.0	0.0003708	29.7660000324
990.0	0.0003808	30.0469999313
990.0	0.000384	30.0780000687
990.0	0.0003865	30.125
990.0	0.0003888	30.1719999313
990.0	0.0003905	30.2030000687
990.0	0.0003915	30.25
990.0	0.0003925	30.2969999313
990.0	0.000393	30.3280000687
990.0	0.0003938	30.375
990.0	0.0003943	30.4219999313
990.0	0.0003945	30.4530000687
990.0	0.000395	30.5
990.0	0.0003955	30.5309998989
990.0	0.0003955	30.5780000687
990.0	0.0003958	30.625
990.0	0.0003963	30.6559998989
990.0	0.0003963	30.7030000687
990.0	0.0003965	30.75
990.0	0.0003965	30.7809998989
990.0	0.0003968	30.8280000687
990.0	0.0003968	30.8589999676
990.0	0.0003963	30.9059998989
990.0	0.0003963	30.9530000687
990.0	0.0003963	30.9839999676
990.0	0.0003958	31.0309998989
990.0	0.0003958	31.0780000687
990.0	0.0003955	31.1089999676
990.0	0.0003955	31.1559998989
990.0	0.0003955	31.1870000362
990.0	0.0003955	31.2339999676
990.0	0.0003955	31.2809998989
990.0	0.0003955	31.3280000687
990.0	0.0003955	31.3589999676
990.0	0.0003955	31.4059998989
990.0	0.0003955	31.4370000362
990.0	0.0003963	31.4839999676
990.0	0.0003958	31.5309998989
1000.0	0.0004045	31.8120000362
1000.0	0.0004083	31.8440001011
1000.0	0.0004108	31.8910000324
1000.0	0.0004128	31.9370000362
1000.0	0.0004143	31.9690001011
1000.0	0.0004153	32.0160000324
1000.0	0.0004163	32.0469999313
1000.0	0.0004175	32.0940001011
1000.0	0.000418	32.1410000324
1000.0	0.0004183	32.1719999313
1000.0	0.0004183	32.2190001011
1000.0	0.000418	32.2660000324
1000.0	0.0004183	32.2969999313
1000.0	0.0004183	32.3440001011
1000.0	0.0004183	32.375
1000.0	0.0004183	32.4219999313
1000.0	0.0004183	32.4690001011
1000.0	0.0004183	32.5
1000.0	0.0004183	32.5469999313
1000.0	0.000418	32.5940001011
1000.0	0.0004183	32.625
1000.0	0.0004188	32.6719999313
1000.0	0.0004188	32.7030000687
1000.0	0.0004188	32.75
1000.0	0.000419	32.7969999313
1000.0	0.0004188	32.8280000687
1000.0	0.0004188	32.875
1000.0	0.000419	32.9219999313
1000.0	0.0004188	32.9530000687
1000.0	0.0004188	33.0
1000.0	0.000419	33.0309998989
1000.0	0.000419	33.0780000687
1000.0	0.000419	33.125
1000.0	0.000419	33.1559998989
1000.0	0.000419	33.2030000687
1000.0	0.0004188	33.25
1000.0	0.0004188	33.2809998989
1010.0	0.0004283	33.5620000362
1010.0	0.0004318	33.6089999676
1010.0	0.0004343	33.6410000324
1010.0	0.0004365	33.6870000362
1010.0	0.0004383	33.7339999676
1010.0	0.00044	33.7660000324
1010.0	0.0004405	33.8120000362
1010.0	0.0004413	33.8589999676
1010.0	0.0004418	33.8910000324
1010.0	0.000442	33.9370000362
1010.0	0.0004425	33.9839999676
1010.0	0.0004428	34.0160000324
1010.0	0.0004428	34.0620000362
1010.0	0.000443	34.1089999676
1010.0	0.0004433	34.1410000324
1010.0	0.0004438	34.1870000362
1010.0	0.0004438	34.2190001011
1010.0	0.000444	34.2660000324
1010.0	0.0004438	34.3120000362
1010.0	0.000444	34.3440001011
1010.0	0.000444	34.3910000324
1010.0	0.000444	34.4370000362
1010.0	0.000444	34.4690001011
1010.0	0.000444	34.5160000324
1010.0	0.0004443	34.5469999313
1010.0	0.000444	34.5940001011
1010.0	0.000444	34.6410000324
1010.0	0.000444	34.6719999313
1010.0	0.0004438	34.7190001011
1010.0	0.0004438	34.7660000324
1010.0	0.0004438	34.7969999313
1010.0	0.0004438	34.8440001011
1010.0	0.000444	34.875
1010.0	0.000444	34.9219999313
1010.0	0.0004438	34.9690001011
1010.0	0.0004433	35.0
1010.0	0.0004433	35.0469999313
1020.0	0.000453	35.3280000687
1020.0	0.0004563	35.375
1020.0	0.0004588	35.4059998989
1020.0	0.0004608	35.4530000687
1020.0	0.0004625	35.5
1020.0	0.0004638	35.5309998989
1020.0	0.0004645	35.5780000687
1020.0	0.0004653	35.625
1020.0	0.0004655	35.6559998989
1020.0	0.0004655	35.7030000687
1020.0	0.0004655	35.7339999676
1020.0	0.0004663	35.7809998989
1020.0	0.0004663	35.8280000687
1020.0	0.0004665	35.8589999676
1020.0	0.0004665	35.9059998989
1020.0	0.0004665	35.9530000687
1020.0	0.0004658	35.9839999676
1020.0	0.0004658	36.0309998989
1020.0	0.0004655	36.0620000362
1020.0	0.0004655	36.1089999676
1020.0	0.0004655	36.1559998989
1020.0	0.0004658	36.2030000687
1020.0	0.0004663	36.2339999676
1020.0	0.0004665	36.2809998989
1020.0	0.0004665	36.3120000362
1020.0	0.0004665	36.3589999676
1020.0	0.0004665	36.4059998989
1020.0	0.0004665	36.4370000362
1020.0	0.0004668	36.4839999676
1020.0	0.0004663	36.5309998989
1020.0	0.0004663	36.5620000362
1020.0	0.0004658	36.6089999676
1020.0	0.0004655	36.6559998989
1020.0	0.0004658	36.6870000362
1020.0	0.0004663	36.7339999676
1020.0	0.0004663	36.7660000324
1020.0	0.0004663	36.8120000362
1030.0	0.0004768	37.0940001011
1030.0	0.00048	37.1410000324
1030.0	0.0004825	37.1719999313
1030.0	0.0004845	37.2190001011
1030.0	0.0004863	37.2660000324
1030.0	0.000487	37.3120000362
1030.0	0.000488	37.3440001011
1030.0	0.000489	37.3910000324
1030.0	0.0004895	37.4219999313
1030.0	0.0004903	37.4690001011
1030.0	0.0004908	37.5160000324
1030.0	0.0004908	37.5469999313
1030.0	0.0004913	37.5940001011
1030.0	0.0004913	37.6410000324
1030.0	0.0004913	37.6719999313
1030.0	0.0004918	37.7190001011
1030.0	0.000492	37.7660000324
1030.0	0.0004925	37.7969999313
1030.0	0.0004925	37.8440001011
1030.0	0.000492	37.8910000324
1030.0	0.0004918	37.9219999313
1030.0	0.0004915	37.9690001011
1030.0	0.0004915	38.0160000324
1030.0	0.0004915	38.0469999313
1030.0	0.0004915	38.0940001011
1030.0	0.0004918	38.125
1030.0	0.0004918	38.1719999313
1030.0	0.0004918	38.2190001011
1030.0	0.000492	38.2660000324
1030.0	0.000492	38.2969999313
1030.0	0.000492	38.3440001011
1030.0	0.000492	38.375
1030.0	0.0004918	38.4219999313
1030.0	0.000492	38.4690001011
1030.0	0.0004925	38.5
1030.0	0.0004925	38.5469999313
1040.0	0.0005025	38.8280000687
1040.0	0.0005053	38.875
1040.0	0.0005078	38.9059998989
1040.0	0.0005095	38.9530000687
1040.0	0.0005115	39.0
1040.0	0.000513	39.0309998989
1040.0	0.000514	39.0780000687
1040.0	0.0005145	39.125
1040.0	0.0005153	39.1559998989
1040.0	0.0005155	39.2030000687
1040.0	0.0005163	39.2339999676
1040.0	0.0005163	39.2809998989
1040.0	0.0005165	39.3280000687
1040.0	0.0005165	39.3589999676
1040.0	0.0005168	39.4059998989
1040.0	0.0005168	39.4530000687
1040.0	0.0005168	39.4839999676
1040.0	0.000517	39.5309998989
1040.0	0.000517	39.5780000687
1040.0	0.0005168	39.6089999676
1040.0	0.0005168	39.6559998989
1040.0	0.0005168	39.7030000687
1040.0	0.0005168	39.7339999676
1040.0	0.0005165	39.7809998989
1040.0	0.0005165	39.8280000687
1040.0	0.0005165	39.875
1040.0	0.0005163	39.9059998989
1040.0	0.0005163	39.9530000687
1040.0	0.0005155	39.9839999676
1040.0	0.0005155	40.0309998989
1040.0	0.0005158	40.0780000687
1040.0	0.0005155	40.1089999676
1040.0	0.0005155	40.1559998989
1040.0	0.0005153	40.2030000687
1040.0	0.0005153	40.2339999676
1040.0	0.0005153	40.2809998989
1050.0	0.0005253	40.5620000362
1050.0	0.0005283	40.5940001011
1050.0	0.0005313	40.6410000324
1050.0	0.0005333	40.6870000362
1050.0	0.0005353	40.7190001011
1050.0	0.0005368	40.7660000324
1050.0	0.0005375	40.8120000362
1050.0	0.0005383	40.8440001011
1050.0	0.000539	40.8910000324
1050.0	0.0005393	40.9219999313
1050.0	0.0005393	40.9690001011
1050.0	0.000539	41.0160000324
1050.0	0.0005393	41.0469999313
1050.0	0.0005395	41.0940001011
1050.0	0.0005395	41.1410000324
1050.0	0.0005403	41.1719999313
1050.0	0.0005403	41.2190001011
1050.0	0.00054	41.25
1050.0	0.00054	41.2969999313
1050.0	0.00054	41.3440001011
1050.0	0.0005403	41.375
1050.0	0.0005403	41.4219999313
1050.0	0.0005403	41.4690001011
1050.0	0.0005403	41.5
1050.0	0.0005403	41.5469999313
1050.0	0.0005405	41.5780000687
1050.0	0.0005405	41.625
1050.0	0.0005408	41.6719999313
1050.0	0.0005408	41.7030000687
1050.0	0.0005408	41.75
1050.0	0.0005405	41.7969999313
1050.0	0.0005403	41.8280000687
1050.0	0.0005403	41.875
1050.0	0.0005403	41.9219999313
1050.0	0.0005408	41.9530000687
1050.0	0.0005408	42.0
1050.0	0.0005405	42.0309998989
1060.0	0.0005513	42.3280000687
1060.0	0.0005545	42.3589999676
1060.0	0.0005575	42.4059998989
1060.0	0.0005595	42.4370000362
1060.0	0.0005613	42.4839999676
1060.0	0.0005628	42.5309998989
1060.0	0.0005638	42.5620000362
1060.0	0.0005643	42.6089999676
1060.0	0.000565	42.6559998989
1060.0	0.0005655	42.6870000362
1060.0	0.0005655	42.7339999676
1060.0	0.0005655	42.7660000324
1060.0	0.0005658	42.8120000362
1060.0	0.0005658	42.8589999676
1060.0	0.0005658	42.8910000324
1060.0	0.0005655	42.9370000362
1060.0	0.0005655	42.9839999676
1060.0	0.0005658	43.0160000324
1060.0	0.0005658	43.0620000362
1060.0	0.0005658	43.0940001011
1060.0	0.0005658	43.1410000324
1060.0	0.0005658	43.1870000362
1060.0	0.0005655	43.2190001011
1060.0	0.0005653	43.2660000324
1060.0	0.0005653	43.3120000362
1060.0	0.000565	43.3440001011
1060.0	0.000565	43.3910000324
1060.0	0.000565	43.4219999313
1060.0	0.000565	43.4690001011
1060.0	0.0005653	43.5160000324
1060.0	0.0005653	43.5469999313
1060.0	0.0005653	43.5940001011
1060.0	0.0005653	43.6410000324
1060.0	0.000565	43.6719999313
1060.0	0.0005653	43.7190001011
1060.0	0.0005653	43.7660000324
1060.0	0.0005653	43.7969999313
1070.0	0.0005733	44.0780000687
1070.0	0.0005765	44.125
1070.0	0.0005788	44.1719999313
1070.0	0.0005813	44.2030000687
1070.0	0.0005828	44.25
1070.0	0.0005843	44.2809998989
1070.0	0.0005855	44.3280000687
1070.0	0.0005863	44.375
1070.0	0.0005863	44.4059998989
1070.0	0.0005863	44.4530000687
1070.0	0.0005863	44.5
1070.0	0.0005865	44.5309998989
1070.0	0.0005868	44.5780000687
1070.0	0.0005868	44.625
1070.0	0.0005868	44.6559998989
1070.0	0.0005865	44.7030000687
1070.0	0.0005865	44.7339999676
1070.0	0.0005868	44.7809998989
1070.0	0.0005868	44.8280000687
1070.0	0.000587	44.8589999676
1070.0	0.000587	44.9059998989
1070.0	0.0005868	44.9370000362
1070.0	0.0005865	44.9839999676
1070.0	0.0005865	45.0309998989
1070.0	0.0005865	45.0620000362
1070.0	0.0005865	45.1089999676
1070.0	0.0005868	45.1559998989
1070.0	0.0005868	45.1870000362
1070.0	0.000587	45.2339999676
1070.0	0.000587	45.2809998989
1070.0	0.0005868	45.3120000362
1070.0	0.0005868	45.3589999676
1070.0	0.0005868	45.3910000324
1070.0	0.0005868	45.4370000362
1070.0	0.0005868	45.4839999676
1070.0	0.0005868	45.5160000324
1070.0	0.0005868	45.5620000362
1080.0	0.000595	45.8440001011
1080.0	0.0005975	45.8910000324
1080.0	0.0005995	45.9370000362
1080.0	0.0006015	45.9690001011
1080.0	0.000603	46.0160000324
1080.0	0.0006045	46.0469999313
1080.0	0.0006053	46.0940001011
1080.0	0.0006055	46.1410000324
1080.0	0.0006058	46.1719999313
1080.0	0.0006065	46.2190001011
1080.0	0.000607	46.2660000324
1080.0	0.000607	46.3120000362
1080.0	0.0006075	46.3440001011
1080.0	0.0006078	46.3910000324
1080.0	0.0006078	46.4219999313
1080.0	0.000608	46.4690001011
1080.0	0.0006083	46.5160000324
1080.0	0.0006083	46.5469999313
1080.0	0.000608	46.5940001011
1080.0	0.0006078	46.6410000324
1080.0	0.000608	46.6719999313
1080.0	0.000608	46.7190001011
1080.0	0.0006078	46.75
1080.0	0.000608	46.7969999313
1080.0	0.000608	46.8440001011
1080.0	0.000608	46.875
1080.0	0.000608	46.9219999313
1080.0	0.000608	46.9690001011
1080.0	0.0006083	47.0
1080.0	0.0006088	47.0469999313
1080.0	0.0006088	47.0780000687
1080.0	0.0006088	47.125
1080.0	0.0006083	47.1719999313
1080.0	0.0006083	47.2030000687
1080.0	0.0006088	47.25
1080.0	0.0006088	47.2969999313
1080.0	0.000609	47.3280000687
1090.0	0.0006163	47.6089999676
1090.0	0.0006183	47.6559998989
1090.0	0.0006205	47.7030000687
1090.0	0.000622	47.75
1090.0	0.0006238	47.7809998989
1090.0	0.0006245	47.8280000687
1090.0	0.0006255	47.8589999676
1090.0	0.0006263	47.9059998989
1090.0	0.0006268	47.9530000687
1090.0	0.0006268	47.9839999676
1090.0	0.000627	48.0309998989
1090.0	0.000627	48.0780000687
1090.0	0.0006275	48.1089999676
1090.0	0.0006275	48.1559998989
1090.0	0.0006275	48.1870000362
1090.0	0.0006275	48.2339999676
1090.0	0.0006275	48.2809998989
1090.0	0.0006275	48.3120000362
1090.0	0.000627	48.3589999676
1090.0	0.0006268	48.4059998989
1090.0	0.0006268	48.4370000362
1090.0	0.0006268	48.4839999676
1090.0	0.0006268	48.5160000324
1090.0	0.0006268	48.5620000362
1090.0	0.0006268	48.6089999676
1090.0	0.0006265	48.6410000324
1090.0	0.0006265	48.6870000362
1090.0	0.0006263	48.7339999676
1090.0	0.0006265	48.7660000324
1090.0	0.0006268	48.8120000362
1090.0	0.0006265	48.8440001011
1090.0	0.0006265	48.8910000324
1090.0	0.0006265	48.9370000362
1090.0	0.0006265	48.9839999676
1090.0	0.0006268	49.0160000324
1090.0	0.0006268	49.0620000362
1090.0	0.0006265	49.1089999676
1100.0	0.0006318	49.3910000324
1100.0	0.0006338	49.4219999313
1100.0	0.0006353	49.4690001011
1100.0	0.0006365	49.5160000324
1100.0	0.000637	49.5469999313
1100.0	0.0006378	49.5940001011
1100.0	0.0006383	49.625
1100.0	0.000639	49.6719999313
1100.0	0.0006393	49.7190001011
1100.0	0.0006398	49.75
1100.0	0.00064	49.7969999313
1100.0	0.00064	49.8440001011
1100.0	0.00064	49.875
1100.0	0.00064	49.9219999313
1100.0	0.00064	49.9530000687
1100.0	0.0006398	50.0
1100.0	0.0006398	50.0469999313
1100.0	0.0006395	50.0780000687
1100.0	0.0006393	50.125
1100.0	0.0006393	50.1719999313
1100.0	0.0006393	50.2030000687
1100.0	0.0006393	50.25
1100.0	0.0006395	50.2969999313
1100.0	0.0006393	50.3280000687
1100.0	0.0006393	50.375
1100.0	0.0006393	50.4059998989
1100.0	0.0006398	50.4530000687
1100.0	0.0006398	50.5
1100.0	0.00064	50.5309998989
1100.0	0.00064	50.5780000687
1100.0	0.00064	50.625
1100.0	0.0006398	50.6559998989
1100.0	0.0006398	50.7030000687
1100.0	0.0006398	50.7339999676
1100.0	0.0006398	50.7809998989
1100.0	0.0006398	50.8280000687
1100.0	0.0006398	50.875
1110.0	0.0006443	51.1410000324
1110.0	0.000646	51.1870000362
1110.0	0.0006465	51.2339999676
1110.0	0.0006478	51.2660000324
1110.0	0.0006485	51.3120000362
1110.0	0.000649	51.3589999676
1110.0	0.0006493	51.3910000324
1110.0	0.00065	51.4370000362
1110.0	0.00065	51.4839999676
1110.0	0.0006505	51.5160000324
1110.0	0.000651	51.5620000362
1110.0	0.0006513	51.6089999676
1110.0	0.0006515	51.6410000324
1110.0	0.0006518	51.6870000362
1110.0	0.0006518	51.7339999676
1110.0	0.0006515	51.7660000324
1110.0	0.0006518	51.8120000362
1110.0	0.0006523	51.8589999676
1110.0	0.0006523	51.8910000324
1110.0	0.0006525	51.9370000362
1110.0	0.0006525	51.9839999676
1110.0	0.0006525	52.0160000324
1110.0	0.0006525	52.0620000362
1110.0	0.0006528	52.0940001011
1110.0	0.0006525	52.1410000324
1110.0	0.0006523	52.1870000362
1110.0	0.0006523	52.2190001011
1110.0	0.0006523	52.2660000324
1110.0	0.0006518	52.3120000362
1110.0	0.0006518	52.3440001011
1110.0	0.0006518	52.3910000324
1110.0	0.0006525	52.4219999313
1110.0	0.0006528	52.4690001011
1110.0	0.0006528	52.5160000324
1110.0	0.0006535	52.5469999313
1110.0	0.0006535	52.5940001011
1110.0	0.0006538	52.6410000324
1120.0	0.0006563	52.9059998989
1120.0	0.0006573	52.9530000687
1120.0	0.0006578	52.9839999676
1120.0	0.0006585	53.0309998989
1120.0	0.0006588	53.0780000687
1120.0	0.0006593	53.1089999676
1120.0	0.0006593	53.1559998989
1120.0	0.0006593	53.2030000687
1120.0	0.0006593	53.2339999676
1120.0	0.0006593	53.2809998989
1120.0	0.00066	53.3120000362
1120.0	0.00066	53.3589999676
1120.0	0.00066	53.4059998989
1120.0	0.0006603	53.4370000362
1120.0	0.0006603	53.4839999676
1120.0	0.0006603	53.5309998989
1120.0	0.00066	53.5620000362
1120.0	0.0006598	53.6089999676
1120.0	0.00066	53.6410000324
1120.0	0.0006598	53.6870000362
1120.0	0.0006593	53.7339999676
1120.0	0.0006598	53.7660000324
1120.0	0.0006598	53.8120000362
1120.0	0.00066	53.8589999676
1120.0	0.00066	53.8910000324
1120.0	0.0006603	53.9370000362
1120.0	0.0006603	53.9839999676
1120.0	0.0006605	54.0160000324
1120.0	0.0006603	54.0620000362
1120.0	0.00066	54.0940001011
1120.0	0.0006598	54.1410000324
1120.0	0.000659	54.1870000362
1120.0	0.000659	54.2190001011
1120.0	0.0006588	54.2660000324
1120.0	0.0006585	54.3120000362
1120.0	0.0006585	54.3440001011
1120.0	0.000658	54.3910000324
1130.0	0.00066	54.6559998989
1130.0	0.0006605	54.7030000687
1130.0	0.0006613	54.75
1130.0	0.0006615	54.7809998989
1130.0	0.0006618	54.8280000687
1130.0	0.0006625	54.875
1130.0	0.0006628	54.9059998989
1130.0	0.000663	54.9530000687
1130.0	0.0006635	54.9839999676
1130.0	0.0006635	55.0309998989
1130.0	0.000663	55.0780000687
1130.0	0.000663	55.1089999676
1130.0	0.000663	55.1559998989
1130.0	0.0006635	55.2030000687
1130.0	0.000663	55.2339999676
1130.0	0.000663	55.2809998989
1130.0	0.0006635	55.3120000362
1130.0	0.0006635	55.3589999676
1130.0	0.0006635	55.4059998989
1130.0	0.0006635	55.4370000362
1130.0	0.0006635	55.4839999676
1130.0	0.0006635	55.5309998989
1130.0	0.0006635	55.5620000362
1130.0	0.000663	55.6089999676
1130.0	0.0006628	55.6559998989
1130.0	0.0006628	55.6870000362
1130.0	0.0006628	55.7339999676
1130.0	0.0006628	55.7809998989
1130.0	0.0006628	55.8120000362
1130.0	0.0006628	55.8589999676
1130.0	0.000663	55.9059998989
1130.0	0.0006635	55.9370000362
1130.0	0.000663	55.9839999676
1130.0	0.000663	56.0160000324
1130.0	0.000663	56.0620000362
1130.0	0.000663	56.1089999676
1130.0	0.0006628	56.1410000324
1140.0	0.000664	56.4219999313
1140.0	0.0006648	56.4530000687
1140.0	0.000665	56.5
1140.0	0.0006655	56.5469999313
1140.0	0.000666	56.5780000687
1140.0	0.0006655	56.625
1140.0	0.0006655	56.6559998989
1140.0	0.000666	56.7030000687
1140.0	0.000666	56.75
1140.0	0.000666	56.7809998989
1140.0	0.000666	56.8280000687
1140.0	0.0006663	56.875
1140.0	0.0006663	56.9059998989
1140.0	0.0006663	56.9530000687
1140.0	0.0006665	57.0
1140.0	0.0006668	57.0309998989
1140.0	0.0006673	57.0780000687
1140.0	0.0006673	57.1089999676
1140.0	0.0006673	57.1559998989
1140.0	0.0006673	57.2030000687
1140.0	0.0006673	57.2339999676
1140.0	0.0006673	57.2809998989
1140.0	0.0006668	57.3120000362
1140.0	0.0006668	57.3589999676
1140.0	0.0006668	57.4059998989
1140.0	0.0006675	57.4370000362
1140.0	0.0006678	57.4839999676
1140.0	0.0006678	57.5309998989
1140.0	0.0006678	57.5620000362
1140.0	0.0006678	57.6089999676
1140.0	0.0006675	57.6559998989
1140.0	0.0006675	57.6870000362
1140.0	0.0006678	57.7339999676
1140.0	0.0006678	57.7660000324
1140.0	0.0006678	57.8120000362
1140.0	0.0006675	57.8589999676
1140.0	0.0006675	57.8910000324
1150.0	0.0006685	58.1559998989
1150.0	0.0006688	58.2030000687
1150.0	0.000669	58.25
1150.0	0.000669	58.2969999313
1150.0	0.000669	58.3280000687
1150.0	0.0006688	58.375
1150.0	0.0006685	58.4059998989
1150.0	0.000668	58.4530000687
1150.0	0.000668	58.5
1150.0	0.000668	58.5309998989
1150.0	0.000668	58.5780000687
1150.0	0.000668	58.625
1150.0	0.0006678	58.6559998989
1150.0	0.000668	58.7030000687
1150.0	0.000668	58.7339999676
1150.0	0.000668	58.7809998989
1150.0	0.0006685	58.8280000687
1150.0	0.0006685	58.8589999676
1150.0	0.0006685	58.9059998989
1150.0	0.000668	58.9530000687
1150.0	0.000668	58.9839999676
1150.0	0.0006685	59.0309998989
1150.0	0.000668	59.0620000362
1150.0	0.0006685	59.1089999676
1150.0	0.0006685	59.1559998989
1150.0	0.0006688	59.1870000362
1150.0	0.0006688	59.2339999676
1150.0	0.0006688	59.2809998989
1150.0	0.0006685	59.3120000362
1150.0	0.000668	59.3589999676
1150.0	0.000668	59.4059998989
1150.0	0.0006678	59.4370000362
1150.0	0.0006678	59.4839999676
1150.0	0.0006678	59.5160000324
1150.0	0.000668	59.5620000362
1150.0	0.000668	59.6089999676
1150.0	0.0006678	59.6410000324
1160.0	0.0006675	59.9059998989
1160.0	0.0006675	59.9530000687
1160.0	0.0006673	59.9839999676
1160.0	0.0006673	60.0309998989
1160.0	0.0006673	60.0780000687
1160.0	0.0006675	60.1089999676
1160.0	0.0006678	60.1559998989
1160.0	0.0006678	60.1870000362
1160.0	0.0006675	60.2339999676
1160.0	0.0006675	60.2809998989
1160.0	0.0006673	60.3120000362
1160.0	0.0006673	60.3589999676
1160.0	0.0006675	60.4059998989
1160.0	0.0006673	60.4370000362
1160.0	0.0006673	60.4839999676
1160.0	0.0006673	60.5309998989
1160.0	0.0006668	60.5620000362
1160.0	0.0006673	60.6089999676
1160.0	0.0006673	60.6410000324
1160.0	0.0006673	60.6870000362
1160.0	0.0006675	60.7339999676
1160.0	0.0006675	60.7660000324
1160.0	0.0006673	60.8120000362
1160.0	0.0006673	60.8589999676
1160.0	0.0006675	60.8910000324
1160.0	0.0006678	60.9370000362
1160.0	0.000668	60.9690001011
1160.0	0.0006678	61.0160000324
1160.0	0.000668	61.0620000362
1160.0	0.0006678	61.0940001011
1160.0	0.0006675	61.1410000324
1160.0	0.0006673	61.1870000362
1160.0	0.0006673	61.2190001011
1160.0	0.0006673	61.2660000324
1160.0	0.0006675	61.2969999313
1160.0	0.0006678	61.3440001011
1160.0	0.0006678	61.3910000324
1170.0	0.0006688	61.6410000324
1170.0	0.000669	61.6870000362
1170.0	0.000669	61.7339999676
1170.0	0.0006698	61.7660000324
1170.0	0.00067	61.8120000362
1170.0	0.0006703	61.8589999676
1170.0	0.0006705	61.8910000324
1170.0	0.0006705	61.9370000362
1170.0	0.0006705	61.9839999676
1170.0	0.000671	62.0160000324
1170.0	0.000671	62.0620000362
1170.0	0.0006713	62.0940001011
1170.0	0.0006713	62.1410000324
1170.0	0.0006713	62.1870000362
1170.0	0.000671	62.2190001011
1170.0	0.000671	62.2660000324
1170.0	0.0006705	62.3120000362
1170.0	0.0006705	62.3440001011
1170.0	0.0006705	62.3910000324
1170.0	0.0006705	62.4370000362
1170.0	0.0006703	62.4690001011
1170.0	0.00067	62.5160000324
1170.0	0.0006703	62.5469999313
1170.0	0.0006705	62.5940001011
1170.0	0.000671	62.6410000324
1170.0	0.0006713	62.6719999313
1170.0	0.0006715	62.7190001011
1170.0	0.0006715	62.7660000324
1170.0	0.0006715	62.7969999313
1170.0	0.0006715	62.8440001011
1170.0	0.0006713	62.875
1170.0	0.0006713	62.9219999313
1170.0	0.0006713	62.9690001011
1170.0	0.0006715	63.0
1170.0	0.0006715	63.0469999313
1170.0	0.0006718	63.0940001011
1170.0	0.0006718	63.125
1180.0	0.0006723	63.3910000324
1180.0	0.0006723	63.4370000362
1180.0	0.0006723	63.4690001011
1180.0	0.0006723	63.5160000324
1180.0	0.0006725	63.5620000362
1180.0	0.0006725	63.5940001011
1180.0	0.0006728	63.6410000324
1180.0	0.0006728	63.6719999313
1180.0	0.0006728	63.7190001011
1180.0	0.0006728	63.7660000324
1180.0	0.000673	63.7969999313
1180.0	0.0006728	63.8440001011
1180.0	0.0006728	63.8910000324
1180.0	0.0006723	63.9219999313
1180.0	0.0006723	63.9690001011
1180.0	0.0006723	64.0
1180.0	0.0006723	64.0469999313
1180.0	0.0006723	64.0940001011
1180.0	0.0006723	64.125
1180.0	0.0006718	64.1719999313
1180.0	0.0006723	64.2190001011
1180.0	0.0006723	64.25
1180.0	0.0006723	64.2969999313
1180.0	0.0006723	64.3280000687
1180.0	0.0006723	64.375
1180.0	0.0006718	64.4219999313
1180.0	0.0006718	64.4530000687
1180.0	0.0006718	64.5
1180.0	0.0006718	64.5469999313
1180.0	0.0006723	64.5780000687
1180.0	0.0006723	64.625
1180.0	0.0006723	64.6719999313
1180.0	0.0006718	64.7030000687
1180.0	0.0006715	64.75
1180.0	0.0006713	64.7809998989
1180.0	0.0006713	64.8280000687
1180.0	0.0006713	64.875
1190.0	0.0006723	65.125
1190.0	0.0006725	65.1719999313
1190.0	0.000673	65.2030000687
1190.0	0.0006735	65.25
1190.0	0.0006738	65.2969999313
1190.0	0.000674	65.3280000687
1190.0	0.000674	65.375
1190.0	0.0006743	65.4219999313
1190.0	0.0006748	65.4530000687
1190.0	0.0006748	65.5
1190.0	0.0006748	65.5309998989
1190.0	0.000675	65.5780000687
1190.0	0.0006748	65.625
1190.0	0.000675	65.6559998989
1190.0	0.000675	65.7030000687
1190.0	0.000675	65.75
1190.0	0.0006748	65.7809998989
1190.0	0.0006748	65.8280000687
1190.0	0.0006748	65.875
1190.0	0.000675	65.9059998989
1190.0	0.0006748	65.9530000687
1190.0	0.0006743	65.9839999676
1190.0	0.0006743	66.0309998989
1190.0	0.0006748	66.0780000687
1190.0	0.000675	66.1089999676
1190.0	0.0006753	66.1559998989
1190.0	0.0006755	66.2030000687
1190.0	0.0006755	66.2339999676
1190.0	0.000676	66.2809998989
1190.0	0.0006763	66.3120000362
1190.0	0.0006763	66.3589999676
1190.0	0.0006763	66.4059998989
1190.0	0.0006763	66.4370000362
1190.0	0.0006765	66.4839999676
1190.0	0.0006765	66.5309998989
1190.0	0.0006765	66.5620000362
1190.0	0.0006765	66.6089999676
1200.0	0.0006785	66.875
1200.0	0.0006788	66.9059998989
1200.0	0.000679	66.9530000687
1200.0	0.0006798	67.0
1200.0	0.0006803	67.0309998989
1200.0	0.000681	67.0780000687
1200.0	0.0006813	67.1089999676
1200.0	0.0006813	67.1559998989
1200.0	0.0006813	67.2030000687
1200.0	0.0006813	67.2339999676
1200.0	0.0006813	67.2809998989
1200.0	0.0006815	67.3280000687
1200.0	0.0006815	67.3589999676
1200.0	0.0006813	67.4059998989
1200.0	0.000681	67.4370000362
1200.0	0.000681	67.4839999676
1200.0	0.000681	67.5309998989
1200.0	0.000681	67.5620000362
1200.0	0.0006813	67.6089999676
1200.0	0.0006813	67.6559998989
1200.0	0.0006813	67.6870000362
1200.0	0.0006813	67.7339999676
1200.0	0.000681	67.7660000324
1200.0	0.000681	67.8120000362
1200.0	0.0006813	67.8589999676
1200.0	0.000681	67.9059998989
1200.0	0.000681	67.9370000362
1200.0	0.0006805	67.9839999676
1200.0	0.0006805	68.0309998989
1200.0	0.0006805	68.0620000362
1200.0	0.0006805	68.1089999676
1200.0	0.0006813	68.1410000324
1200.0	0.0006813	68.1870000362
1200.0	0.000681	68.2339999676
1200.0	0.0006813	68.2660000324
1200.0	0.000681	68.3120000362
1200.0	0.000681	68.3589999676
1210.0	0.000683	68.625
1210.0	0.000684	68.6559998989
1210.0	0.000685	68.7030000687
1210.0	0.0006855	68.75
1210.0	0.0006865	68.7809998989
1210.0	0.0006873	68.8280000687
1210.0	0.0006875	68.8589999676
1210.0	0.0006878	68.9059998989
1210.0	0.0006875	68.9530000687
1210.0	0.0006875	69.0
1210.0	0.0006875	69.0309998989
1210.0	0.0006873	69.0780000687
1210.0	0.0006873	69.1089999676
1210.0	0.0006873	69.1559998989
1210.0	0.0006868	69.2030000687
1210.0	0.0006865	69.2339999676
1210.0	0.0006865	69.2809998989
1210.0	0.0006868	69.3280000687
1210.0	0.0006873	69.3589999676
1210.0	0.0006868	69.4059998989
1210.0	0.0006868	69.4370000362
1210.0	0.0006868	69.4839999676
1210.0	0.0006868	69.5309998989
1210.0	0.0006868	69.5620000362
1210.0	0.0006868	69.6089999676
1210.0	0.0006873	69.6559998989
1210.0	0.0006873	69.6870000362
1210.0	0.0006875	69.7339999676
1210.0	0.0006875	69.7660000324
1210.0	0.0006875	69.8120000362
1210.0	0.0006878	69.8589999676
1210.0	0.0006878	69.8910000324
1210.0	0.0006878	69.9370000362
1210.0	0.0006875	69.9839999676
1210.0	0.0006875	70.0160000324
1210.0	0.0006873	70.0620000362
1210.0	0.0006875	70.1089999676
1220.0	0.0006918	70.375
1220.0	0.0006935	70.4059998989
1220.0	0.0006943	70.4530000687
1220.0	0.0006953	70.5
1220.0	0.000696	70.5309998989
1220.0	0.0006965	70.5780000687
1220.0	0.0006973	70.625
1220.0	0.0006978	70.6559998989
1220.0	0.0006985	70.7030000687
1220.0	0.0006985	70.75
1220.0	0.0006988	70.7809998989
1220.0	0.0006985	70.8280000687
1220.0	0.000698	70.8589999676
1220.0	0.000698	70.9059998989
1220.0	0.000698	70.9530000687
1220.0	0.0006985	70.9839999676
1220.0	0.0006985	71.0309998989
1220.0	0.0006985	71.0780000687
1220.0	0.0006988	71.125
1220.0	0.0006988	71.1559998989
1220.0	0.0006985	71.2030000687
1220.0	0.0006985	71.2339999676
1220.0	0.000698	71.2809998989
1220.0	0.000698	71.3280000687
1220.0	0.000698	71.3589999676
1220.0	0.0006978	71.4059998989
1220.0	0.0006975	71.4370000362
1220.0	0.0006975	71.4839999676
1220.0	0.0006978	71.5309998989
1220.0	0.0006978	71.5620000362
1220.0	0.000698	71.6089999676
1220.0	0.0006988	71.6559998989
1220.0	0.000699	71.6870000362
1220.0	0.000699	71.7339999676
1220.0	0.0006988	71.7809998989
1220.0	0.0006988	71.8120000362
1220.0	0.0006988	71.8589999676
1230.0	0.0007023	72.125
1230.0	0.0007038	72.1719999313
1230.0	0.000705	72.2030000687
1230.0	0.0007063	72.25
1230.0	0.0007068	72.2969999313
1230.0	0.0007075	72.3280000687
1230.0	0.0007078	72.375
1230.0	0.0007078	72.4219999313
1230.0	0.0007085	72.4530000687
1230.0	0.000708	72.5
1230.0	0.000708	72.5309998989
1230.0	0.0007085	72.5780000687
1230.0	0.0007085	72.625
1230.0	0.0007085	72.6559998989
1230.0	0.000708	72.7030000687
1230.0	0.000708	72.75
1230.0	0.0007085	72.7809998989
1230.0	0.0007085	72.8280000687
1230.0	0.0007085	72.8589999676
1230.0	0.000708	72.9059998989
1230.0	0.0007078	72.9530000687
1230.0	0.0007078	72.9839999676
1230.0	0.0007078	73.0309998989
1230.0	0.0007078	73.0780000687
1230.0	0.0007078	73.1089999676
1230.0	0.0007075	73.1559998989
1230.0	0.0007075	73.1870000362
1230.0	0.0007078	73.2339999676
1230.0	0.0007078	73.2809998989
1230.0	0.000708	73.3120000362
1230.0	0.000708	73.3589999676
1230.0	0.0007085	73.4059998989
1230.0	0.000708	73.4370000362
1230.0	0.000708	73.4839999676
1230.0	0.0007078	73.5160000324
1230.0	0.0007078	73.5620000362
1230.0	0.0007078	73.6089999676
1240.0	0.0007128	73.875
1240.0	0.0007143	73.9219999313
1240.0	0.0007155	73.9690001011
1240.0	0.0007168	74.0
1240.0	0.0007175	74.0469999313
1240.0	0.0007185	74.0940001011
1240.0	0.000719	74.125
1240.0	0.0007198	74.1719999313
1240.0	0.00072	74.2190001011
1240.0	0.0007205	74.25
1240.0	0.0007205	74.2969999313
1240.0	0.000721	74.3440001011
1240.0	0.0007213	74.375
1240.0	0.0007215	74.4219999313
1240.0	0.0007223	74.4530000687
1240.0	0.0007225	74.5
1240.0	0.0007228	74.5469999313
1240.0	0.000723	74.5780000687
1240.0	0.0007235	74.625
1240.0	0.0007238	74.6719999313
1240.0	0.0007235	74.7030000687
1240.0	0.000723	74.75
1240.0	0.0007235	74.7809998989
1240.0	0.0007235	74.8280000687
1240.0	0.0007235	74.875
1240.0	0.0007235	74.9059998989
1240.0	0.0007235	74.9530000687
1240.0	0.0007235	75.0
1240.0	0.0007235	75.0309998989
1240.0	0.0007235	75.0780000687
1240.0	0.0007238	75.125
1240.0	0.0007235	75.1559998989
1240.0	0.0007235	75.2030000687
1240.0	0.0007235	75.2339999676
1240.0	0.0007235	75.2809998989
1240.0	0.0007235	75.3280000687
1250.0	0.0007275	75.5940001011
1250.0	0.0007293	75.6410000324
1250.0	0.0007305	75.6870000362
1250.0	0.0007315	75.7190001011
1250.0	0.0007325	75.7660000324
1250.0	0.000733	75.7969999313
1250.0	0.0007335	75.8440001011
1250.0	0.000734	75.8910000324
1250.0	0.000734	75.9219999313
1250.0	0.000734	75.9690001011
1250.0	0.000734	76.0160000324
1250.0	0.000734	76.0469999313
1250.0	0.000734	76.0940001011
1250.0	0.000734	76.125
1250.0	0.0007338	76.1719999313
1250.0	0.0007335	76.2190001011
1250.0	0.0007335	76.25
1250.0	0.000734	76.2969999313
1250.0	0.000734	76.3440001011
1250.0	0.000734	76.375
1250.0	0.000734	76.4219999313
1250.0	0.0007338	76.4530000687
1250.0	0.0007335	76.5
1250.0	0.0007335	76.5469999313
1250.0	0.0007335	76.5780000687
1250.0	0.000733	76.625
1250.0	0.000733	76.6719999313
1250.0	0.0007328	76.7030000687
1250.0	0.0007328	76.75
1250.0	0.0007328	76.7809998989
1250.0	0.0007328	76.8280000687
1250.0	0.0007325	76.875
1250.0	0.0007325	76.9059998989
1250.0	0.0007325	76.9530000687
1250.0	0.0007325	77.0
1250.0	0.0007325	77.0309998989
1250.0	0.0007325	77.0780000687
1260.0	0.0007378	77.3440001011
1260.0	0.0007393	77.3910000324
1260.0	0.0007405	77.4219999313
1260.0	0.0007415	77.4690001011
1260.0	0.0007425	77.5
1260.0	0.0007435	77.5469999313
1260.0	0.000744	77.5940001011
1260.0	0.0007443	77.625
1260.0	0.0007448	77.6719999313
1260.0	0.000745	77.7190001011
1260.0	0.0007453	77.75
1260.0	0.0007455	77.7969999313
1260.0	0.000746	77.8440001011
1260.0	0.000746	77.875
1260.0	0.000746	77.9219999313
1260.0	0.000746	77.9530000687
1260.0	0.000746	78.0
1260.0	0.000746	78.0469999313
1260.0	0.0007463	78.0780000687
1260.0	0.0007465	78.125
1260.0	0.0007468	78.1719999313
1260.0	0.0007473	78.2030000687
1260.0	0.0007473	78.25
1260.0	0.0007478	78.2969999313
1260.0	0.0007478	78.3280000687
1260.0	0.0007478	78.375
1260.0	0.0007475	78.4219999313
1260.0	0.0007475	78.4530000687
1260.0	0.0007475	78.5
1260.0	0.0007478	78.5309998989
1260.0	0.0007478	78.5780000687
1260.0	0.0007478	78.625
1260.0	0.0007478	78.6559998989
1260.0	0.0007478	78.7030000687
1260.0	0.0007475	78.75
1260.0	0.0007475	78.7809998989
1260.0	0.0007475	78.8280000687
1270.0	0.0007513	79.0940001011
1270.0	0.0007528	79.1410000324
1270.0	0.0007538	79.1719999313
1270.0	0.0007548	79.2190001011
1270.0	0.000755	79.25
1270.0	0.0007555	79.2969999313
1270.0	0.000756	79.3440001011
1270.0	0.0007563	79.375
1270.0	0.0007565	79.4219999313
1270.0	0.0007563	79.4690001011
1270.0	0.0007565	79.5
1270.0	0.0007563	79.5469999313
1270.0	0.000756	79.5780000687
1270.0	0.0007555	79.625
1270.0	0.0007553	79.6719999313
1270.0	0.000755	79.7030000687
1270.0	0.0007548	79.75
1270.0	0.0007543	79.7969999313
1270.0	0.0007543	79.8280000687
1270.0	0.000754	79.875
1270.0	0.000754	79.9219999313
1270.0	0.0007543	79.9530000687
1270.0	0.0007543	80.0
1270.0	0.0007543	80.0309998989
1270.0	0.0007548	80.0780000687
1270.0	0.0007553	80.125
1270.0	0.0007555	80.1559998989
1270.0	0.000756	80.2030000687
1270.0	0.000756	80.25
1270.0	0.0007555	80.2809998989
1270.0	0.0007553	80.3280000687
1270.0	0.0007553	80.3589999676
1270.0	0.0007555	80.4059998989
1270.0	0.000756	80.4530000687
1270.0	0.000756	80.4839999676
1270.0	0.000756	80.5309998989
1270.0	0.0007555	80.5780000687
1280.0	0.0007578	80.8440001011
1280.0	0.0007588	80.8910000324
1280.0	0.0007593	80.9219999313
1280.0	0.00076	80.9690001011
1280.0	0.0007603	81.0
1280.0	0.0007605	81.0469999313
1280.0	0.000761	81.0940001011
1280.0	0.0007613	81.125
1280.0	0.0007615	81.1719999313
1280.0	0.0007615	81.2190001011
1280.0	0.0007618	81.25
1280.0	0.0007623	81.2969999313
1280.0	0.0007623	81.3280000687
1280.0	0.0007618	81.375
1280.0	0.0007618	81.4219999313
1280.0	0.0007618	81.4530000687
1280.0	0.0007623	81.5
1280.0	0.0007625	81.5469999313
1280.0	0.0007625	81.5780000687
1280.0	0.0007628	81.625
1280.0	0.0007628	81.6719999313
1280.0	0.0007628	81.7030000687
1280.0	0.000763	81.75
1280.0	0.0007638	81.7969999313
1280.0	0.0007638	81.8280000687
1280.0	0.0007638	81.875
1280.0	0.000764	81.9219999313
1280.0	0.000764	81.9530000687
1280.0	0.0007638	82.0
1280.0	0.0007635	82.0309998989
1280.0	0.0007635	82.0780000687
1280.0	0.0007635	82.125
1280.0	0.0007635	82.1559998989
1280.0	0.0007635	82.2030000687
1280.0	0.0007635	82.25
1280.0	0.0007635	82.2809998989
1280.0	0.0007638	82.3280000687
1290.0	0.000763	82.5940001011
1290.0	0.0007635	82.625
1290.0	0.0007635	82.6719999313
1290.0	0.0007638	82.7190001011
1290.0	0.000764	82.75
1290.0	0.0007638	82.7969999313
1290.0	0.000764	82.8280000687
1290.0	0.000764	82.875
1290.0	0.0007638	82.9219999313
1290.0	0.000764	82.9530000687
1290.0	0.0007638	83.0
1290.0	0.0007635	83.0469999313
1290.0	0.0007635	83.0780000687
1290.0	0.0007635	83.125
1290.0	0.0007635	83.1559998989
1290.0	0.0007635	83.2030000687
1290.0	0.000763	83.25
1290.0	0.000763	83.2809998989
1290.0	0.000763	83.3280000687
1290.0	0.000763	83.375
1290.0	0.0007628	83.4219999313
1290.0	0.0007628	83.4530000687
1290.0	0.0007628	83.5
1290.0	0.0007628	83.5309998989
1290.0	0.0007628	83.5780000687
1290.0	0.0007625	83.625
1290.0	0.0007623	83.6559998989
1290.0	0.0007623	83.7030000687
1290.0	0.0007625	83.75
1290.0	0.000763	83.7809998989
1290.0	0.0007635	83.8280000687
1290.0	0.000763	83.8589999676
1290.0	0.000763	83.9059998989
1290.0	0.0007635	83.9530000687
1290.0	0.0007638	83.9839999676
1290.0	0.000764	84.0309998989
1290.0	0.000764	84.0620000362
1300.0	0.0007638	84.3280000687
1300.0	0.0007638	84.375
1300.0	0.0007638	84.4219999313
1300.0	0.0007635	84.4690001011
1300.0	0.000763	84.5
1300.0	0.0007625	84.5469999313
1300.0	0.0007623	84.5780000687
1300.0	0.0007623	84.625
1300.0	0.0007623	84.6719999313
1300.0	0.0007625	84.7030000687
1300.0	0.0007623	84.75
1300.0	0.0007623	84.7969999313
1300.0	0.0007623	84.8280000687
1300.0	0.0007618	84.875
1300.0	0.0007618	84.9059998989
1300.0	0.0007615	84.9530000687
1300.0	0.0007615	85.0
1300.0	0.0007615	85.0309998989
1300.0	0.0007615	85.0780000687
1300.0	0.0007618	85.125
1300.0	0.0007618	85.1559998989
1300.0	0.0007623	85.2030000687
1300.0	0.0007623	85.25
1300.0	0.0007623	85.2809998989
1300.0	0.0007628	85.3280000687
1300.0	0.0007628	85.375
1300.0	0.0007625	85.4059998989
1300.0	0.0007623	85.4530000687
1300.0	0.0007618	85.5
1300.0	0.0007615	85.5309998989
1300.0	0.0007615	85.5780000687
1300.0	0.0007615	85.6089999676
1300.0	0.0007613	85.6559998989
1300.0	0.000761	85.7030000687
1300.0	0.000761	85.7339999676
1300.0	0.000761	85.7809998989
1300.0	0.000761	85.8120000362
1310.0	0.0007573	86.0780000687
1310.0	0.000756	86.125
1310.0	0.0007543	86.1719999313
1310.0	0.0007528	86.2030000687
1310.0	0.0007518	86.25
1310.0	0.000751	86.2969999313
1310.0	0.0007505	86.3280000687
1310.0	0.0007503	86.375
1310.0	0.0007503	86.4059998989
1310.0	0.00075	86.4530000687
1310.0	0.0007503	86.5
1310.0	0.0007503	86.5309998989
1310.0	0.000751	86.5780000687
1310.0	0.000751	86.625
1310.0	0.0007505	86.6559998989
1310.0	0.0007503	86.7030000687
1310.0	0.0007503	86.7339999676
1310.0	0.0007505	86.7809998989
1310.0	0.0007503	86.8280000687
1310.0	0.0007503	86.8589999676
1310.0	0.0007503	86.9059998989
1310.0	0.0007503	86.9530000687
1310.0	0.0007505	86.9839999676
1310.0	0.000751	87.0309998989
1310.0	0.000751	87.0620000362
1310.0	0.000751	87.1089999676
1310.0	0.0007505	87.1559998989
1310.0	0.0007505	87.1870000362
1310.0	0.0007505	87.2339999676
1310.0	0.000751	87.2809998989
1310.0	0.000751	87.3120000362
1310.0	0.000751	87.3589999676
1310.0	0.000751	87.3910000324
1310.0	0.000751	87.4370000362
1310.0	0.000751	87.4839999676
1310.0	0.000751	87.5160000324
1310.0	0.000751	87.5620000362
1320.0	0.0007468	87.8280000687
1320.0	0.0007448	87.8589999676
1320.0	0.0007428	87.9059998989
1320.0	0.0007413	87.9530000687
1320.0	0.00074	87.9839999676
1320.0	0.000739	88.0309998989
1320.0	0.0007388	88.0780000687
1320.0	0.0007385	88.1089999676
1320.0	0.0007388	88.1559998989
1320.0	0.0007385	88.1870000362
1320.0	0.0007385	88.2339999676
1320.0	0.000738	88.2809998989
1320.0	0.0007378	88.3120000362
1320.0	0.0007378	88.3589999676
1320.0	0.0007375	88.4059998989
1320.0	0.0007373	88.4370000362
1320.0	0.0007368	88.4839999676
1320.0	0.0007368	88.5309998989
1320.0	0.0007365	88.5620000362
1320.0	0.0007368	88.6089999676
1320.0	0.0007373	88.6559998989
1320.0	0.0007373	88.6870000362
1320.0	0.0007373	88.7339999676
1320.0	0.0007375	88.7660000324
1320.0	0.0007375	88.8120000362
1320.0	0.0007375	88.8589999676
1320.0	0.0007378	88.8910000324
1320.0	0.0007378	88.9370000362
1320.0	0.0007375	88.9839999676
1320.0	0.0007373	89.0160000324
1320.0	0.0007368	89.0620000362
1320.0	0.0007368	89.1089999676
1320.0	0.0007365	89.1410000324
1320.0	0.0007368	89.1870000362
1320.0	0.0007368	89.2190001011
1320.0	0.0007365	89.2660000324
1320.0	0.000736	89.3120000362
1330.0	0.0007278	89.5620000362
1330.0	0.0007243	89.6089999676
1330.0	0.0007215	89.6410000324
1330.0	0.0007193	89.6870000362
1330.0	0.0007178	89.7339999676
1330.0	0.0007165	89.7660000324
1330.0	0.000716	89.8120000362
1330.0	0.0007153	89.8589999676
1330.0	0.0007148	89.8910000324
1330.0	0.0007143	89.9370000362
1330.0	0.000714	89.9839999676
1330.0	0.000714	90.0160000324
1330.0	0.000714	90.0620000362
1330.0	0.000714	90.0940001011
1330.0	0.0007138	90.1410000324
1330.0	0.0007138	90.1870000362
1330.0	0.0007138	90.2190001011
1330.0	0.000714	90.2660000324
1330.0	0.0007138	90.3120000362
1330.0	0.0007135	90.3440001011
1330.0	0.000713	90.3910000324
1330.0	0.000713	90.4370000362
1330.0	0.0007128	90.4690001011
1330.0	0.000713	90.5160000324
1330.0	0.0007135	90.5620000362
1330.0	0.0007138	90.5940001011
1330.0	0.000714	90.6410000324
1330.0	0.000714	90.6719999313
1330.0	0.000714	90.7190001011
1330.0	0.000714	90.7660000324
1330.0	0.0007138	90.7969999313
1330.0	0.0007138	90.8440001011
1330.0	0.0007138	90.8910000324
1330.0	0.0007135	90.9219999313
1330.0	0.000713	90.9690001011
1330.0	0.0007135	91.0160000324
1330.0	0.0007135	91.0469999313
1340.0	0.0007048	91.3120000362
1340.0	0.000701	91.3589999676
1340.0	0.000698	91.3910000324
1340.0	0.0006955	91.4370000362
1340.0	0.0006935	91.4839999676
1340.0	0.0006923	91.5160000324
1340.0	0.0006913	91.5620000362
1340.0	0.0006905	91.6089999676
1340.0	0.0006903	91.6410000324
1340.0	0.00069	91.6870000362
1340.0	0.0006893	91.7339999676
1340.0	0.000689	91.7660000324
1340.0	0.000689	91.8120000362
1340.0	0.000689	91.8589999676
1340.0	0.000689	91.8910000324
1340.0	0.000689	91.9370000362
1340.0	0.0006888	91.9839999676
1340.0	0.0006888	92.0160000324
1340.0	0.0006888	92.0620000362
1340.0	0.000689	92.0940001011
1340.0	0.000689	92.1410000324
1340.0	0.000689	92.1870000362
1340.0	0.0006898	92.2190001011
1340.0	0.00069	92.2660000324
1340.0	0.0006903	92.3120000362
1340.0	0.0006905	92.3440001011
1340.0	0.000691	92.3910000324
1340.0	0.000691	92.4219999313
1340.0	0.000691	92.4690001011
1340.0	0.0006905	92.5160000324
1340.0	0.0006905	92.5469999313
1340.0	0.0006903	92.5940001011
1340.0	0.00069	92.6410000324
1340.0	0.0006898	92.6719999313
1340.0	0.0006893	92.7190001011
1340.0	0.000689	92.7660000324
1350.0	0.0006793	93.0160000324
1350.0	0.0006753	93.0620000362
1350.0	0.0006723	93.1089999676
1350.0	0.0006693	93.1410000324
1350.0	0.0006668	93.1870000362
1350.0	0.0006653	93.2190001011
1350.0	0.0006638	93.2660000324
1350.0	0.0006628	93.3120000362
1350.0	0.0006618	93.3440001011
1350.0	0.0006615	93.3910000324
1350.0	0.0006613	93.4370000362
1350.0	0.0006613	93.4690001011
1350.0	0.000661	93.5160000324
1350.0	0.0006613	93.5620000362
1350.0	0.000661	93.5940001011
1350.0	0.000661	93.6410000324
1350.0	0.0006605	93.6719999313
1350.0	0.0006603	93.7190001011
1350.0	0.00066	93.7660000324
1350.0	0.0006598	93.7969999313
1350.0	0.00066	93.8440001011
1350.0	0.0006603	93.8910000324
1350.0	0.00066	93.9219999313
1350.0	0.00066	93.9690001011
1350.0	0.0006598	94.0
1350.0	0.00066	94.0469999313
1350.0	0.0006603	94.0940001011
1350.0	0.0006605	94.125
1350.0	0.0006603	94.1719999313
1350.0	0.0006603	94.2190001011
1350.0	0.0006603	94.25
1350.0	0.00066	94.2969999313
1350.0	0.0006598	94.3280000687
1350.0	0.0006598	94.375
1350.0	0.0006593	94.4219999313
1350.0	0.000659	94.4530000687
1350.0	0.0006593	94.5
1360.0	0.0006485	94.7660000324
1360.0	0.0006443	94.7969999313
1360.0	0.0006405	94.8440001011
1360.0	0.0006383	94.8910000324
1360.0	0.0006363	94.9219999313
1360.0	0.0006345	94.9690001011
1360.0	0.0006338	95.0160000324
1360.0	0.000633	95.0469999313
1360.0	0.000632	95.0940001011
1360.0	0.0006315	95.125
1360.0	0.0006313	95.1719999313
1360.0	0.0006305	95.2190001011
1360.0	0.0006303	95.25
1360.0	0.0006293	95.2969999313
1360.0	0.0006293	95.3440001011
1360.0	0.000629	95.375
1360.0	0.000629	95.4219999313
1360.0	0.0006293	95.4530000687
1360.0	0.000629	95.5
1360.0	0.000629	95.5469999313
1360.0	0.0006293	95.5780000687
1360.0	0.0006295	95.625
1360.0	0.0006293	95.6719999313
1360.0	0.0006293	95.7030000687
1360.0	0.000629	95.75
1360.0	0.000629	95.7809998989
1360.0	0.0006288	95.8280000687
1360.0	0.0006288	95.875
1360.0	0.000629	95.9059998989
1360.0	0.000629	95.9530000687
1360.0	0.0006293	96.0
1360.0	0.000629	96.0309998989
1360.0	0.0006293	96.0780000687
1360.0	0.000629	96.125
1360.0	0.0006293	96.1559998989
1360.0	0.000629	96.2030000687
1360.0	0.0006293	96.2339999676
1370.0	0.0006188	96.5
1370.0	0.0006143	96.5469999313
1370.0	0.0006105	96.5780000687
1370.0	0.0006078	96.625
1370.0	0.0006055	96.6719999313
1370.0	0.0006043	96.7030000687
1370.0	0.000603	96.75
1370.0	0.0006025	96.7969999313
1370.0	0.0006018	96.8280000687
1370.0	0.0006015	96.875
1370.0	0.0006008	96.9219999313
1370.0	0.0006005	96.9530000687
1370.0	0.0006003	97.0
1370.0	0.0006005	97.0309998989
1370.0	0.0006005	97.0780000687
1370.0	0.0006005	97.125
1370.0	0.0006005	97.1559998989
1370.0	0.0006003	97.2030000687
1370.0	0.0006003	97.25
1370.0	0.0006005	97.2809998989
1370.0	0.0006005	97.3280000687
1370.0	0.0006003	97.3589999676
1370.0	0.0006	97.4059998989
1370.0	0.0006	97.4530000687
1370.0	0.0006003	97.4839999676
1370.0	0.0006005	97.5309998989
1370.0	0.0006003	97.5780000687
1370.0	0.0006005	97.6089999676
1370.0	0.0006	97.6559998989
1370.0	0.0006003	97.6870000362
1370.0	0.0006005	97.7339999676
1370.0	0.0006008	97.7809998989
1370.0	0.0006013	97.8120000362
1370.0	0.0006013	97.8589999676
1370.0	0.0006015	97.9059998989
1370.0	0.0006015	97.9370000362
1370.0	0.0006015	97.9839999676
1380.0	0.0005905	98.25
1380.0	0.0005865	98.2809998989
1380.0	0.000583	98.3280000687
1380.0	0.0005808	98.375
1380.0	0.0005793	98.4059998989
1380.0	0.0005778	98.4530000687
1380.0	0.0005765	98.4839999676
1380.0	0.0005753	98.5309998989
1380.0	0.0005743	98.5780000687
1380.0	0.000574	98.6089999676
1380.0	0.0005738	98.6559998989
1380.0	0.0005738	98.7030000687
1380.0	0.000574	98.7339999676
1380.0	0.0005743	98.7809998989
1380.0	0.0005743	98.8120000362
1380.0	0.0005743	98.8589999676
1380.0	0.0005743	98.9059998989
1380.0	0.0005743	98.9370000362
1380.0	0.0005743	98.9839999676
1380.0	0.0005743	99.0309998989
1380.0	0.0005743	99.0620000362
1380.0	0.000574	99.1089999676
1380.0	0.0005738	99.1410000324
1380.0	0.0005738	99.1870000362
1380.0	0.0005738	99.2339999676
1380.0	0.0005738	99.2660000324
1380.0	0.000574	99.3120000362
1380.0	0.0005738	99.3589999676
1380.0	0.0005738	99.3910000324
1380.0	0.0005738	99.4370000362
1380.0	0.000573	99.4839999676
1380.0	0.000573	99.5160000324
1380.0	0.000573	99.5620000362
1380.0	0.0005733	99.5940001011
1380.0	0.0005733	99.6410000324
1380.0	0.0005733	99.6870000362
1380.0	0.0005738	99.7190001011
1390.0	0.0005645	99.9839999676
1390.0	0.0005615	100.030999899
1390.0	0.0005588	100.062000036
1390.0	0.0005568	100.108999968
1390.0	0.000555	100.155999899
1390.0	0.0005533	100.187000036
1390.0	0.000552	100.233999968
1390.0	0.0005515	100.266000032
1390.0	0.0005505	100.312000036
1390.0	0.00055	100.358999968
1390.0	0.0005493	100.391000032
1390.0	0.0005493	100.437000036
1390.0	0.0005488	100.483999968
1390.0	0.0005488	100.516000032
1390.0	0.0005488	100.562000036
1390.0	0.0005488	100.608999968
1390.0	0.0005488	100.641000032
1390.0	0.0005488	100.687000036
1390.0	0.000549	100.719000101
1390.0	0.000549	100.766000032
1390.0	0.0005488	100.812000036
1390.0	0.000549	100.844000101
1390.0	0.0005488	100.891000032
1390.0	0.0005483	100.937000036
1390.0	0.000548	100.969000101
1390.0	0.0005483	101.016000032
1390.0	0.0005483	101.046999931
1390.0	0.0005483	101.094000101
1390.0	0.0005483	101.141000032
1390.0	0.0005488	101.171999931
1390.0	0.0005483	101.219000101
1390.0	0.0005483	101.266000032
1390.0	0.000548	101.296999931
1390.0	0.000548	101.344000101
1390.0	0.000548	101.391000032
1390.0	0.0005483	101.421999931
1390.0	0.0005483	101.469000101
1400.0	0.0005405	101.733999968
1400.0	0.000538	101.780999899
1400.0	0.0005363	101.812000036
1400.0	0.0005345	101.858999968
1400.0	0.0005333	101.905999899
1400.0	0.0005318	101.937000036
1400.0	0.0005313	101.983999968
1400.0	0.0005303	102.030999899
1400.0	0.0005295	102.062000036
1400.0	0.0005293	102.108999968
1400.0	0.000529	102.141000032
1400.0	0.0005288	102.187000036
1400.0	0.0005288	102.233999968
1400.0	0.000528	102.266000032
1400.0	0.000528	102.312000036
1400.0	0.000528	102.358999968
1400.0	0.0005283	102.391000032
1400.0	0.0005288	102.437000036
1400.0	0.000529	102.469000101
1400.0	0.000529	102.516000032
1400.0	0.0005288	102.562000036
1400.0	0.0005283	102.594000101
1400.0	0.0005283	102.641000032
1400.0	0.0005288	102.687000036
1400.0	0.0005288	102.719000101
1400.0	0.0005288	102.766000032
1400.0	0.0005288	102.796999931
1400.0	0.000529	102.844000101
1400.0	0.0005288	102.891000032
1400.0	0.0005288	102.921999931
1400.0	0.0005288	102.969000101
1400.0	0.0005288	103.016000032
1400.0	0.0005288	103.046999931
1400.0	0.0005283	103.094000101
1400.0	0.0005288	103.125
1400.0	0.0005283	103.171999931
1400.0	0.000528	103.219000101
1410.0	0.0005233	103.483999968
1410.0	0.0005218	103.516000032
1410.0	0.0005205	103.562000036
1410.0	0.0005193	103.608999968
1410.0	0.0005188	103.641000032
1410.0	0.0005178	103.687000036
1410.0	0.000517	103.733999968
1410.0	0.0005165	103.766000032
1410.0	0.0005163	103.812000036
1410.0	0.0005163	103.844000101
1410.0	0.0005163	103.891000032
1410.0	0.0005163	103.937000036
1410.0	0.0005158	103.983999968
1410.0	0.0005158	104.016000032
1410.0	0.0005155	104.062000036
1410.0	0.0005155	104.108999968
1410.0	0.0005158	104.141000032
1410.0	0.0005155	104.187000036
1410.0	0.0005155	104.219000101
1410.0	0.0005158	104.266000032
1410.0	0.0005158	104.312000036
1410.0	0.0005163	104.344000101
1410.0	0.0005165	104.391000032
1410.0	0.0005168	104.437000036
1410.0	0.0005168	104.469000101
1410.0	0.0005168	104.516000032
1410.0	0.0005165	104.546999931
1410.0	0.0005165	104.594000101
1410.0	0.0005163	104.641000032
1410.0	0.0005158	104.671999931
1410.0	0.0005158	104.719000101
1410.0	0.0005155	104.766000032
1410.0	0.0005158	104.796999931
1410.0	0.0005163	104.844000101
1410.0	0.0005163	104.875
1410.0	0.0005165	104.921999931
1410.0	0.0005168	104.969000101
1420.0	0.0005128	105.233999968
1420.0	0.0005115	105.266000032
1420.0	0.0005103	105.312000036
1420.0	0.000509	105.358999968
1420.0	0.0005083	105.391000032
1420.0	0.000508	105.437000036
1420.0	0.0005075	105.483999968
1420.0	0.000507	105.516000032
1420.0	0.0005068	105.562000036
1420.0	0.0005068	105.594000101
1420.0	0.0005065	105.641000032
1420.0	0.0005065	105.687000036
1420.0	0.0005063	105.719000101
1420.0	0.0005065	105.766000032
1420.0	0.0005063	105.812000036
1420.0	0.0005065	105.844000101
1420.0	0.0005065	105.891000032
1420.0	0.0005063	105.921999931
1420.0	0.0005058	105.969000101
1420.0	0.0005058	106.016000032
1420.0	0.0005058	106.046999931
1420.0	0.0005055	106.094000101
1420.0	0.0005055	106.141000032
1420.0	0.0005055	106.171999931
1420.0	0.0005053	106.219000101
1420.0	0.000505	106.266000032
1420.0	0.000505	106.296999931
1420.0	0.000505	106.344000101
1420.0	0.000505	106.375
1420.0	0.0005045	106.421999931
1420.0	0.0005045	106.469000101
1420.0	0.0005043	106.5
1420.0	0.0005038	106.546999931
1420.0	0.0005033	106.594000101
1420.0	0.0005038	106.625
1420.0	0.0005038	106.671999931
1420.0	0.000504	106.719000101
1430.0	0.0005018	106.983999968
1430.0	0.0005013	107.016000032
1430.0	0.0005005	107.062000036
1430.0	0.0005003	107.108999968
1430.0	0.0005003	107.141000032
1430.0	0.0004995	107.187000036
1430.0	0.0004995	107.233999968
1430.0	0.0004993	107.266000032
1430.0	0.0004993	107.312000036
1430.0	0.000499	107.344000101
1430.0	0.000499	107.391000032
1430.0	0.000499	107.437000036
1430.0	0.0004993	107.469000101
1430.0	0.0004993	107.516000032
1430.0	0.0004995	107.562000036
1430.0	0.0004995	107.594000101
1430.0	0.0004995	107.641000032
1430.0	0.0005	107.687000036
1430.0	0.0005	107.719000101
1430.0	0.0004995	107.766000032
1430.0	0.0004995	107.812000036
1430.0	0.0004995	107.844000101
1430.0	0.0005	107.891000032
1430.0	0.0005	107.921999931
1430.0	0.0005	107.969000101
1430.0	0.0005	108.016000032
1430.0	0.0005	108.046999931
1430.0	0.0005005	108.094000101
1430.0	0.0005003	108.141000032
1430.0	0.0005005	108.171999931
1430.0	0.0005005	108.219000101
1430.0	0.0005005	108.266000032
1430.0	0.0005005	108.296999931
1430.0	0.0005003	108.344000101
1430.0	0.0005003	108.391000032
1430.0	0.0005003	108.421999931
1430.0	0.0005003	108.469000101
1440.0	0.0005	108.733999968
1440.0	0.0005	108.780999899
1440.0	0.0005003	108.812000036
1440.0	0.0005005	108.858999968
1440.0	0.0005013	108.905999899
1440.0	0.0005015	108.937000036
1440.0	0.0005018	108.983999968
1440.0	0.0005018	109.016000032
1440.0	0.0005018	109.062000036
1440.0	0.0005018	109.108999968
1440.0	0.0005018	109.141000032
1440.0	0.000502	109.187000036
1440.0	0.000502	109.233999968
1440.0	0.0005025	109.266000032
1440.0	0.0005028	109.312000036
1440.0	0.000502	109.358999968
1440.0	0.0005018	109.391000032
1440.0	0.0005018	109.437000036
1440.0	0.0005018	109.483999968
1440.0	0.000502	109.516000032
1440.0	0.000502	109.562000036
1440.0	0.0005018	109.594000101
1440.0	0.0005018	109.641000032
1440.0	0.0005015	109.687000036
1440.0	0.0005015	109.719000101
1440.0	0.0005018	109.766000032
1440.0	0.0005018	109.812000036
1440.0	0.0005018	109.844000101
1440.0	0.0005018	109.891000032
1440.0	0.0005015	109.937000036
1440.0	0.0005015	109.969000101
1440.0	0.0005018	110.016000032
1440.0	0.0005015	110.046999931
1440.0	0.0005015	110.094000101
1440.0	0.0005015	110.141000032
1440.0	0.0005015	110.171999931
1440.0	0.0005013	110.219000101
1450.0	0.0005028	110.483999968
1450.0	0.0005033	110.530999899
1450.0	0.000504	110.562000036
1450.0	0.0005043	110.608999968
1450.0	0.0005045	110.641000032
1450.0	0.000505	110.687000036
1450.0	0.0005055	110.733999968
1450.0	0.0005055	110.766000032
1450.0	0.0005055	110.812000036
1450.0	0.0005058	110.858999968
1450.0	0.0005058	110.891000032
1450.0	0.0005058	110.937000036
1450.0	0.0005055	110.983999968
1450.0	0.0005055	111.016000032
1450.0	0.0005053	111.062000036
1450.0	0.0005053	111.108999968
1450.0	0.0005058	111.141000032
1450.0	0.0005063	111.187000036
1450.0	0.0005063	111.233999968
1450.0	0.0005058	111.266000032
1450.0	0.0005058	111.312000036
1450.0	0.0005058	111.358999968
1450.0	0.0005063	111.391000032
1450.0	0.0005063	111.437000036
1450.0	0.0005063	111.483999968
1450.0	0.0005063	111.516000032
1450.0	0.0005058	111.562000036
1450.0	0.0005058	111.608999968
1450.0	0.0005058	111.641000032
1450.0	0.0005058	111.687000036
1450.0	0.0005058	111.733999968
1450.0	0.0005063	111.766000032
1450.0	0.0005065	111.812000036
1450.0	0.0005065	111.858999968
1450.0	0.0005063	111.891000032
1450.0	0.0005063	111.937000036
1460.0	0.0005095	112.203000069
1460.0	0.0005105	112.25
1460.0	0.0005115	112.280999899
1460.0	0.0005125	112.328000069
1460.0	0.000513	112.358999968
1460.0	0.0005138	112.405999899
1460.0	0.0005143	112.453000069
1460.0	0.0005145	112.483999968
1460.0	0.0005153	112.530999899
1460.0	0.0005155	112.578000069
1460.0	0.0005153	112.608999968
1460.0	0.0005155	112.655999899
1460.0	0.0005153	112.687000036
1460.0	0.0005153	112.733999968
1460.0	0.0005153	112.780999899
1460.0	0.0005153	112.812000036
1460.0	0.0005153	112.858999968
1460.0	0.0005153	112.905999899
1460.0	0.0005153	112.937000036
1460.0	0.0005153	112.983999968
1460.0	0.0005155	113.016000032
1460.0	0.0005155	113.062000036
1460.0	0.0005155	113.108999968
1460.0	0.0005155	113.141000032
1460.0	0.0005158	113.187000036
1460.0	0.0005163	113.233999968
1460.0	0.0005163	113.266000032
1460.0	0.0005163	113.312000036
1460.0	0.0005163	113.344000101
1460.0	0.0005163	113.391000032
1460.0	0.0005163	113.437000036
1460.0	0.0005158	113.469000101
1460.0	0.0005158	113.516000032
1460.0	0.0005155	113.562000036
1460.0	0.0005153	113.608999968
1460.0	0.0005153	113.641000032
1460.0	0.0005153	113.687000036
1470.0	0.000519	113.953000069
1470.0	0.0005203	114.0
1470.0	0.0005213	114.030999899
1470.0	0.000522	114.078000069
1470.0	0.0005225	114.108999968
1470.0	0.0005228	114.155999899
1470.0	0.000523	114.203000069
1470.0	0.000523	114.233999968
1470.0	0.0005233	114.280999899
1470.0	0.0005238	114.312000036
1470.0	0.000524	114.358999968
1470.0	0.000524	114.405999899
1470.0	0.0005243	114.437000036
1470.0	0.0005245	114.483999968
1470.0	0.0005245	114.530999899
1470.0	0.000525	114.562000036
1470.0	0.000525	114.608999968
1470.0	0.000525	114.655999899
1470.0	0.0005253	114.687000036
1470.0	0.000525	114.733999968
1470.0	0.0005245	114.780999899
1470.0	0.0005245	114.812000036
1470.0	0.0005245	114.858999968
1470.0	0.000525	114.905999899
1470.0	0.0005253	114.937000036
1470.0	0.0005253	114.983999968
1470.0	0.0005255	115.016000032
1470.0	0.0005253	115.062000036
1470.0	0.0005253	115.108999968
1470.0	0.0005253	115.141000032
1470.0	0.0005253	115.187000036
1470.0	0.0005253	115.233999968
1470.0	0.0005255	115.266000032
1470.0	0.0005258	115.312000036
1470.0	0.0005263	115.344000101
1470.0	0.0005258	115.391000032
1470.0	0.0005255	115.437000036
1480.0	0.0005293	115.703000069
1480.0	0.0005308	115.733999968
1480.0	0.000532	115.780999899
1480.0	0.000533	115.828000069
1480.0	0.0005338	115.858999968
1480.0	0.0005343	115.905999899
1480.0	0.0005345	115.953000069
1480.0	0.0005353	115.983999968
1480.0	0.0005355	116.030999899
1480.0	0.0005358	116.062000036
1480.0	0.0005355	116.108999968
1480.0	0.0005358	116.155999899
1480.0	0.0005363	116.187000036
1480.0	0.0005363	116.233999968
1480.0	0.0005363	116.280999899
1480.0	0.0005363	116.312000036
1480.0	0.0005363	116.358999968
1480.0	0.0005363	116.405999899
1480.0	0.0005358	116.437000036
1480.0	0.0005358	116.483999968
1480.0	0.0005355	116.516000032
1480.0	0.0005355	116.562000036
1480.0	0.0005355	116.608999968
1480.0	0.0005355	116.641000032
1480.0	0.0005355	116.687000036
1480.0	0.0005358	116.733999968
1480.0	0.0005355	116.766000032
1480.0	0.0005353	116.812000036
1480.0	0.0005353	116.844000101
1480.0	0.000535	116.891000032
1480.0	0.0005345	116.937000036
1480.0	0.0005345	116.969000101
1480.0	0.0005343	117.016000032
1480.0	0.0005343	117.062000036
1480.0	0.0005343	117.094000101
1480.0	0.0005345	117.141000032
1480.0	0.0005343	117.171999931
1490.0	0.0005383	117.453000069
1490.0	0.0005395	117.483999968
1490.0	0.0005403	117.530999899
1490.0	0.0005413	117.578000069
1490.0	0.0005418	117.608999968
1490.0	0.000542	117.655999899
1490.0	0.0005425	117.703000069
1490.0	0.0005428	117.733999968
1490.0	0.000543	117.780999899
1490.0	0.0005433	117.812000036
1490.0	0.0005433	117.858999968
1490.0	0.000544	117.905999899
1490.0	0.0005443	117.937000036
1490.0	0.0005443	117.983999968
1490.0	0.0005443	118.030999899
1490.0	0.0005445	118.062000036
1490.0	0.0005445	118.108999968
1490.0	0.000545	118.155999899
1490.0	0.0005455	118.187000036
1490.0	0.0005455	118.233999968
1490.0	0.0005455	118.266000032
1490.0	0.0005455	118.312000036
1490.0	0.0005458	118.358999968
1490.0	0.0005458	118.391000032
1490.0	0.0005458	118.437000036
1490.0	0.0005458	118.483999968
1490.0	0.0005458	118.516000032
1490.0	0.0005458	118.562000036
1490.0	0.0005463	118.594000101
1490.0	0.0005465	118.641000032
1490.0	0.0005465	118.687000036
1490.0	0.0005465	118.719000101
1490.0	0.0005463	118.766000032
1490.0	0.0005463	118.812000036
1490.0	0.0005465	118.844000101
1490.0	0.0005468	118.891000032
1490.0	0.0005468	118.921999931
1500.0	0.000549	119.203000069
1500.0	0.0005495	119.233999968
1500.0	0.0005505	119.280999899
1500.0	0.0005505	119.328000069
1500.0	0.0005508	119.358999968
1500.0	0.0005515	119.405999899
1500.0	0.0005515	119.453000069
1500.0	0.0005518	119.483999968
1500.0	0.000552	119.530999899
1500.0	0.000552	119.562000036
1500.0	0.000552	119.608999968
1500.0	0.0005518	119.655999899
1500.0	0.0005518	119.687000036
1500.0	0.0005518	119.733999968
1500.0	0.0005518	119.780999899
1500.0	0.0005518	119.812000036
1500.0	0.0005515	119.858999968
1500.0	0.0005513	119.891000032
1500.0	0.0005505	119.937000036
1500.0	0.0005505	119.983999968
1500.0	0.0005505	120.016000032
1500.0	0.0005505	120.062000036
1500.0	0.0005505	120.108999968
1500.0	0.0005503	120.141000032
1500.0	0.00055	120.187000036
1500.0	0.0005503	120.219000101
1500.0	0.0005503	120.266000032
1500.0	0.0005505	120.312000036
1500.0	0.0005505	120.344000101
1500.0	0.0005505	120.391000032
1500.0	0.0005505	120.437000036
1500.0	0.0005503	120.469000101
1500.0	0.0005505	120.516000032
1500.0	0.0005513	120.562000036
1500.0	0.0005513	120.594000101
1500.0	0.0005513	120.641000032
1500.0	0.0005515	120.671999931
1510.0	0.0005538	120.953000069
1510.0	0.0005543	120.983999968
1510.0	0.000555	121.030999899
1510.0	0.0005553	121.078000069
1510.0	0.0005555	121.108999968
1510.0	0.0005558	121.155999899
1510.0	0.0005558	121.203000069
1510.0	0.0005558	121.233999968
1510.0	0.0005563	121.280999899
1510.0	0.0005565	121.312000036
1510.0	0.0005568	121.358999968
1510.0	0.0005568	121.405999899
1510.0	0.0005575	121.437000036
1510.0	0.0005575	121.483999968
1510.0	0.0005575	121.530999899
1510.0	0.0005575	121.562000036
1510.0	0.000557	121.608999968
1510.0	0.000557	121.641000032
1510.0	0.000557	121.687000036
1510.0	0.000557	121.733999968
1510.0	0.0005575	121.766000032
1510.0	0.0005575	121.812000036
1510.0	0.0005575	121.858999968
1510.0	0.000557	121.891000032
1510.0	0.000557	121.937000036
1510.0	0.0005568	121.969000101
1510.0	0.0005568	122.016000032
1510.0	0.0005568	122.062000036
1510.0	0.0005568	122.094000101
1510.0	0.0005565	122.141000032
1510.0	0.0005563	122.187000036
1510.0	0.0005565	122.219000101
1510.0	0.0005565	122.266000032
1510.0	0.0005565	122.312000036
1510.0	0.0005565	122.344000101
1510.0	0.0005563	122.391000032
1510.0	0.0005563	122.421999931
1520.0	0.0005563	122.703000069
1520.0	0.0005568	122.75
1520.0	0.000557	122.780999899
1520.0	0.0005575	122.828000069
1520.0	0.0005575	122.875
1520.0	0.0005575	122.905999899
1520.0	0.000557	122.953000069
1520.0	0.0005575	122.983999968
1520.0	0.0005575	123.030999899
1520.0	0.0005578	123.078000069
1520.0	0.0005578	123.108999968
1520.0	0.000558	123.155999899
1520.0	0.0005578	123.203000069
1520.0	0.000558	123.233999968
1520.0	0.0005578	123.280999899
1520.0	0.0005578	123.328000069
1520.0	0.0005575	123.358999968
1520.0	0.0005575	123.405999899
1520.0	0.0005575	123.453000069
1520.0	0.0005575	123.483999968
1520.0	0.0005575	123.530999899
1520.0	0.0005575	123.562000036
1520.0	0.0005578	123.608999968
1520.0	0.000558	123.655999899
1520.0	0.0005578	123.687000036
1520.0	0.000558	123.733999968
1520.0	0.0005583	123.780999899
1520.0	0.000559	123.812000036
1520.0	0.000559	123.858999968
1520.0	0.0005588	123.905999899
1520.0	0.0005588	123.937000036
1520.0	0.0005588	123.983999968
1520.0	0.000559	124.030999899
1520.0	0.0005593	124.062000036
1520.0	0.0005593	124.108999968
1520.0	0.0005593	124.155999899
1530.0	0.0005593	124.421999931
1530.0	0.0005593	124.469000101
1530.0	0.000559	124.5
1530.0	0.0005588	124.546999931
1530.0	0.000559	124.594000101
1530.0	0.0005593	124.625
1530.0	0.0005593	124.671999931
1530.0	0.000559	124.719000101
1530.0	0.0005588	124.75
1530.0	0.0005583	124.796999931
1530.0	0.0005588	124.828000069
1530.0	0.0005588	124.875
1530.0	0.0005588	124.921999931
1530.0	0.000558	124.953000069
1530.0	0.000558	125.0
1530.0	0.000558	125.046999931
1530.0	0.0005578	125.078000069
1530.0	0.000558	125.125
1530.0	0.000558	125.171999931
1530.0	0.000558	125.203000069
1530.0	0.000558	125.25
1530.0	0.0005583	125.280999899
1530.0	0.000558	125.328000069
1530.0	0.000558	125.375
1530.0	0.000558	125.405999899
1530.0	0.000558	125.453000069
1530.0	0.000558	125.483999968
1530.0	0.0005575	125.530999899
1530.0	0.000557	125.578000069
1530.0	0.000557	125.608999968
1530.0	0.000557	125.655999899
1530.0	0.0005568	125.703000069
1530.0	0.0005568	125.733999968
1530.0	0.0005565	125.780999899
1530.0	0.0005565	125.828000069
1530.0	0.0005565	125.858999968
1530.0	0.0005565	125.905999899
1540.0	0.000555	126.171999931
1540.0	0.0005543	126.219000101
1540.0	0.000554	126.266000032
1540.0	0.0005538	126.296999931
1540.0	0.0005538	126.344000101
1540.0	0.0005538	126.391000032
1540.0	0.0005533	126.421999931
1540.0	0.0005533	126.469000101
1540.0	0.000553	126.516000032
1540.0	0.0005528	126.546999931
1540.0	0.000553	126.594000101
1540.0	0.000553	126.641000032
1540.0	0.0005528	126.671999931
1540.0	0.0005528	126.719000101
1540.0	0.0005525	126.75
1540.0	0.0005525	126.796999931
1540.0	0.0005528	126.844000101
1540.0	0.000553	126.891000032
1540.0	0.000553	126.921999931
1540.0	0.0005533	126.969000101
1540.0	0.0005538	127.0
1540.0	0.0005538	127.046999931
1540.0	0.0005538	127.094000101
1540.0	0.0005538	127.125
1540.0	0.0005538	127.171999931
1540.0	0.0005533	127.219000101
1540.0	0.0005538	127.25
1540.0	0.0005533	127.296999931
1540.0	0.0005533	127.344000101
1540.0	0.0005538	127.375
1540.0	0.0005538	127.421999931
1540.0	0.000554	127.453000069
1540.0	0.000554	127.5
1540.0	0.0005543	127.546999931
1540.0	0.0005545	127.578000069
1540.0	0.0005545	127.625
1540.0	0.0005545	127.671999931
1550.0	0.000552	127.937000036
1550.0	0.0005513	127.983999968
1550.0	0.0005503	128.016000032
1550.0	0.00055	128.062000036
1550.0	0.0005495	128.094000101
1550.0	0.000549	128.141000032
1550.0	0.0005488	128.187000036
1550.0	0.0005488	128.219000101
1550.0	0.0005483	128.266000032
1550.0	0.000548	128.312000036
1550.0	0.000548	128.344000101
1550.0	0.0005478	128.391000032
1550.0	0.0005478	128.421999931
1550.0	0.0005475	128.469000101
1550.0	0.0005468	128.516000032
1550.0	0.0005468	128.546999931
1550.0	0.000547	128.594000101
1550.0	0.000547	128.641000032
1550.0	0.000547	128.671999931
1550.0	0.000547	128.719000101
1550.0	0.000547	128.75
1550.0	0.0005468	128.796999931
1550.0	0.0005468	128.844000101
1550.0	0.0005465	128.875
1550.0	0.0005465	128.921999931
1550.0	0.0005465	128.969000101
1550.0	0.0005465	129.0
1550.0	0.0005468	129.046999931
1550.0	0.0005468	129.094000101
1550.0	0.0005468	129.125
1550.0	0.0005468	129.171999931
1550.0	0.0005468	129.203000069
1550.0	0.0005468	129.25
1550.0	0.0005465	129.296999931
1550.0	0.0005463	129.328000069
1550.0	0.0005463	129.375
1550.0	0.0005465	129.421999931
1560.0	0.0005415	129.687000036
1560.0	0.0005393	129.733999968
1560.0	0.000538	129.766000032
1560.0	0.000537	129.812000036
1560.0	0.0005365	129.858999968
1560.0	0.0005358	129.905999899
1560.0	0.0005355	129.937000036
1560.0	0.0005353	129.983999968
1560.0	0.0005345	130.016000032
1560.0	0.000534	130.062000036
1560.0	0.000534	130.108999968
1560.0	0.0005343	130.141000032
1560.0	0.000534	130.187000036
1560.0	0.0005338	130.233999968
1560.0	0.0005333	130.266000032
1560.0	0.0005338	130.312000036
1560.0	0.0005338	130.344000101
1560.0	0.000534	130.391000032
1560.0	0.0005343	130.437000036
1560.0	0.0005343	130.469000101
1560.0	0.0005343	130.516000032
1560.0	0.0005343	130.562000036
1560.0	0.0005343	130.594000101
1560.0	0.000534	130.641000032
1560.0	0.000534	130.687000036
1560.0	0.0005338	130.719000101
1560.0	0.000534	130.766000032
1560.0	0.0005343	130.796999931
1560.0	0.0005343	130.844000101
1560.0	0.0005345	130.891000032
1560.0	0.0005345	130.921999931
1560.0	0.0005345	130.969000101
1560.0	0.0005345	131.016000032
1560.0	0.0005345	131.046999931
1560.0	0.000535	131.094000101
1560.0	0.000535	131.125
1560.0	0.0005353	131.171999931
1570.0	0.0005295	131.437000036
1570.0	0.0005275	131.483999968
1570.0	0.0005255	131.530999899
1570.0	0.0005243	131.562000036
1570.0	0.0005228	131.608999968
1570.0	0.000522	131.655999899
1570.0	0.0005215	131.687000036
1570.0	0.0005205	131.733999968
1570.0	0.0005203	131.766000032
1570.0	0.00052	131.812000036
1570.0	0.00052	131.858999968
1570.0	0.00052	131.891000032
1570.0	0.00052	131.937000036
1570.0	0.0005195	131.983999968
1570.0	0.00052	132.016000032
1570.0	0.00052	132.062000036
1570.0	0.00052	132.094000101
1570.0	0.00052	132.141000032
1570.0	0.0005193	132.187000036
1570.0	0.0005193	132.219000101
1570.0	0.0005193	132.266000032
1570.0	0.000519	132.312000036
1570.0	0.0005193	132.344000101
1570.0	0.0005195	132.391000032
1570.0	0.0005193	132.421999931
1570.0	0.0005195	132.469000101
1570.0	0.0005193	132.516000032
1570.0	0.0005193	132.546999931
1570.0	0.0005193	132.594000101
1570.0	0.0005193	132.641000032
1570.0	0.0005193	132.671999931
1570.0	0.000519	132.719000101
1570.0	0.000519	132.766000032
1570.0	0.000519	132.796999931
1570.0	0.0005188	132.844000101
1570.0	0.0005188	132.875
1570.0	0.0005188	132.921999931
1580.0	0.0005105	133.203000069
1580.0	0.0005078	133.233999968
1580.0	0.0005055	133.280999899
1580.0	0.0005038	133.312000036
1580.0	0.0005025	133.358999968
1580.0	0.0005013	133.405999899
1580.0	0.0005005	133.437000036
1580.0	0.0005	133.483999968
1580.0	0.000499	133.530999899
1580.0	0.0004988	133.562000036
1580.0	0.0004988	133.608999968
1580.0	0.0004983	133.655999899
1580.0	0.0004988	133.687000036
1580.0	0.0004988	133.733999968
1580.0	0.000499	133.766000032
1580.0	0.0004993	133.812000036
1580.0	0.000499	133.858999968
1580.0	0.000499	133.891000032
1580.0	0.000499	133.937000036
1580.0	0.0004988	133.983999968
1580.0	0.0004988	134.016000032
1580.0	0.0004988	134.062000036
1580.0	0.000498	134.108999968
1580.0	0.000498	134.141000032
1580.0	0.0004983	134.187000036
1580.0	0.0004988	134.233999968
1580.0	0.0004988	134.266000032
1580.0	0.0004988	134.312000036
1580.0	0.0004988	134.344000101
1580.0	0.0004988	134.391000032
1580.0	0.0004988	134.437000036
1580.0	0.0004988	134.469000101
1580.0	0.0004993	134.516000032
1580.0	0.0004993	134.562000036
1580.0	0.0004993	134.594000101
1580.0	0.000499	134.641000032
1580.0	0.000499	134.687000036
1590.0	0.0004905	134.953000069
1590.0	0.000487	135.0
1590.0	0.0004843	135.030999899
1590.0	0.0004825	135.078000069
1590.0	0.0004805	135.125
1590.0	0.0004793	135.155999899
1590.0	0.000478	135.203000069
1590.0	0.000477	135.25
1590.0	0.0004768	135.280999899
1590.0	0.0004763	135.328000069
1590.0	0.0004758	135.358999968
1590.0	0.0004755	135.405999899
1590.0	0.0004753	135.453000069
1590.0	0.0004753	135.483999968
1590.0	0.0004755	135.530999899
1590.0	0.0004753	135.578000069
1590.0	0.0004753	135.608999968
1590.0	0.0004753	135.655999899
1590.0	0.0004753	135.687000036
1590.0	0.0004755	135.733999968
1590.0	0.0004755	135.780999899
1590.0	0.0004755	135.812000036
1590.0	0.0004755	135.858999968
1590.0	0.0004758	135.905999899
1590.0	0.0004763	135.937000036
1590.0	0.0004763	135.983999968
1590.0	0.0004763	136.030999899
1590.0	0.0004765	136.062000036
1590.0	0.0004763	136.108999968
1590.0	0.0004758	136.155999899
1590.0	0.0004758	136.187000036
1590.0	0.0004755	136.233999968
1590.0	0.0004755	136.280999899
1590.0	0.0004755	136.312000036
1590.0	0.0004755	136.358999968
1590.0	0.0004755	136.391000032
1590.0	0.0004753	136.437000036
1600.0	0.0004645	136.719000101
1600.0	0.0004615	136.75
1600.0	0.0004588	136.796999931
1600.0	0.0004563	136.844000101
1600.0	0.000454	136.875
1600.0	0.000452	136.921999931
1600.0	0.0004513	136.953000069
1600.0	0.00045	137.0
1600.0	0.0004493	137.046999931
1600.0	0.0004493	137.078000069
1600.0	0.000449	137.125
1600.0	0.0004488	137.171999931
1600.0	0.0004483	137.203000069
1600.0	0.000448	137.25
1600.0	0.000448	137.280999899
1600.0	0.000448	137.328000069
1600.0	0.0004478	137.375
1600.0	0.0004475	137.405999899
1600.0	0.0004478	137.453000069
1600.0	0.000448	137.5
1600.0	0.0004478	137.530999899
1600.0	0.0004475	137.578000069
1600.0	0.0004475	137.608999968
1600.0	0.0004475	137.655999899
1600.0	0.0004475	137.703000069
1600.0	0.0004475	137.733999968
1600.0	0.000447	137.780999899
1600.0	0.0004468	137.828000069
1600.0	0.0004468	137.858999968
1600.0	0.0004468	137.905999899
1600.0	0.0004468	137.937000036
1600.0	0.0004468	137.983999968
1600.0	0.0004468	138.030999899
1600.0	0.0004468	138.062000036
1600.0	0.0004468	138.108999968
1600.0	0.0004468	138.155999899
1600.0	0.0004465	138.187000036
1610.0	0.0004345	138.469000101
1610.0	0.0004303	138.516000032
1610.0	0.000427	138.546999931
1610.0	0.0004243	138.594000101
1610.0	0.0004215	138.641000032
1610.0	0.0004195	138.671999931
1610.0	0.0004183	138.719000101
1610.0	0.0004178	138.766000032
1610.0	0.0004175	138.796999931
1610.0	0.000417	138.844000101
1610.0	0.0004168	138.875
1610.0	0.0004168	138.921999931
1610.0	0.0004168	138.969000101
1610.0	0.000417	139.0
1610.0	0.0004168	139.046999931
1610.0	0.0004168	139.094000101
1610.0	0.0004168	139.125
1610.0	0.0004168	139.171999931
1610.0	0.000417	139.203000069
1610.0	0.0004168	139.25
1610.0	0.0004168	139.296999931
1610.0	0.0004168	139.328000069
1610.0	0.0004165	139.375
1610.0	0.0004168	139.421999931
1610.0	0.0004168	139.453000069
1610.0	0.0004168	139.5
1610.0	0.000417	139.546999931
1610.0	0.0004168	139.578000069
1610.0	0.0004168	139.625
1610.0	0.0004168	139.671999931
1610.0	0.0004168	139.703000069
1610.0	0.0004168	139.75
1610.0	0.000417	139.796999931
1610.0	0.000417	139.828000069
1610.0	0.0004175	139.875
1610.0	0.0004175	139.905999899
1610.0	0.0004175	139.953000069
1620.0	0.0004045	140.233999968
1620.0	0.0004003	140.280999899
1620.0	0.0003968	140.312000036
1620.0	0.000394	140.358999968
1620.0	0.0003915	140.391000032
1620.0	0.0003895	140.437000036
1620.0	0.0003883	140.483999968
1620.0	0.000387	140.516000032
1620.0	0.0003865	140.562000036
1620.0	0.0003863	140.608999968
1620.0	0.0003858	140.641000032
1620.0	0.0003855	140.687000036
1620.0	0.000385	140.719000101
1620.0	0.000385	140.766000032
1620.0	0.0003855	140.812000036
1620.0	0.0003855	140.844000101
1620.0	0.0003858	140.891000032
1620.0	0.0003858	140.937000036
1620.0	0.0003858	140.969000101
1620.0	0.0003858	141.016000032
1620.0	0.0003858	141.062000036
1620.0	0.0003863	141.094000101
1620.0	0.0003858	141.141000032
1620.0	0.0003853	141.187000036
1620.0	0.0003853	141.219000101
1620.0	0.000385	141.266000032
1620.0	0.0003845	141.312000036
1620.0	0.0003843	141.344000101
1620.0	0.0003843	141.391000032
1620.0	0.0003845	141.421999931
1620.0	0.000385	141.469000101
1620.0	0.0003855	141.516000032
1620.0	0.0003858	141.546999931
1620.0	0.0003858	141.594000101
1620.0	0.0003855	141.641000032
1620.0	0.0003858	141.671999931
1620.0	0.0003853	141.719000101
1630.0	0.0003715	142.0
1630.0	0.000367	142.030999899
1630.0	0.000363	142.078000069
1630.0	0.00036	142.125
1630.0	0.0003575	142.155999899
1630.0	0.0003553	142.203000069
1630.0	0.0003538	142.233999968
1630.0	0.0003525	142.280999899
1630.0	0.0003515	142.328000069
1630.0	0.0003508	142.358999968
1630.0	0.0003503	142.405999899
1630.0	0.0003495	142.453000069
1630.0	0.0003493	142.483999968
1630.0	0.0003493	142.530999899
1630.0	0.000349	142.562000036
1630.0	0.0003488	142.608999968
1630.0	0.0003488	142.655999899
1630.0	0.000349	142.687000036
1630.0	0.000349	142.733999968
1630.0	0.0003493	142.780999899
1630.0	0.0003493	142.812000036
1630.0	0.0003493	142.858999968
1630.0	0.0003493	142.905999899
1630.0	0.0003493	142.937000036
1630.0	0.0003493	142.983999968
1630.0	0.0003493	143.030999899
1630.0	0.000349	143.062000036
1630.0	0.000349	143.108999968
1630.0	0.0003493	143.155999899
1630.0	0.0003493	143.187000036
1630.0	0.0003493	143.233999968
1630.0	0.0003493	143.266000032
1630.0	0.0003493	143.312000036
1630.0	0.0003493	143.358999968
1630.0	0.0003493	143.391000032
1630.0	0.000349	143.437000036
1630.0	0.000349	143.483999968
1640.0	0.000335	143.766000032
1640.0	0.00033	143.796999931
1640.0	0.0003265	143.844000101
1640.0	0.0003233	143.891000032
1640.0	0.0003213	143.921999931
1640.0	0.0003195	143.969000101
1640.0	0.000318	144.0
1640.0	0.000317	144.046999931
1640.0	0.0003165	144.094000101
1640.0	0.0003155	144.125
1640.0	0.0003153	144.171999931
1640.0	0.000315	144.219000101
1640.0	0.0003145	144.25
1640.0	0.0003143	144.296999931
1640.0	0.0003143	144.344000101
1640.0	0.0003143	144.375
1640.0	0.0003143	144.421999931
1640.0	0.000314	144.453000069
1640.0	0.000314	144.5
1640.0	0.0003138	144.546999931
1640.0	0.000314	144.578000069
1640.0	0.000314	144.625
1640.0	0.000314	144.671999931
1640.0	0.000314	144.703000069
1640.0	0.0003143	144.75
1640.0	0.0003143	144.780999899
1640.0	0.0003145	144.828000069
1640.0	0.0003145	144.875
1640.0	0.0003143	144.905999899
1640.0	0.000314	144.953000069
1640.0	0.000314	145.0
1640.0	0.000314	145.030999899
1640.0	0.000314	145.078000069
1640.0	0.0003143	145.108999968
1640.0	0.0003143	145.155999899
1640.0	0.0003145	145.203000069
1640.0	0.0003145	145.233999968
1650.0	0.0003008	145.516000032
1650.0	0.0002963	145.562000036
1650.0	0.0002928	145.608999968
1650.0	0.00029	145.641000032
1650.0	0.0002875	145.687000036
1650.0	0.0002855	145.733999968
1650.0	0.0002843	145.766000032
1650.0	0.0002833	145.812000036
1650.0	0.000283	145.858999968
1650.0	0.0002828	145.891000032
1650.0	0.0002825	145.937000036
1650.0	0.000282	145.969000101
1650.0	0.0002818	146.016000032
1650.0	0.0002815	146.062000036
1650.0	0.0002815	146.094000101
1650.0	0.0002815	146.141000032
1650.0	0.0002815	146.187000036
1650.0	0.0002815	146.233999968
1650.0	0.0002818	146.266000032
1650.0	0.0002818	146.312000036
1650.0	0.000282	146.358999968
1650.0	0.000282	146.391000032
1650.0	0.000282	146.437000036
1650.0	0.0002818	146.469000101
1650.0	0.0002818	146.516000032
1650.0	0.0002818	146.562000036
1650.0	0.0002813	146.594000101
1650.0	0.0002813	146.641000032
1650.0	0.0002813	146.687000036
1650.0	0.0002815	146.719000101
1650.0	0.0002813	146.766000032
1650.0	0.0002813	146.812000036
1650.0	0.0002813	146.844000101
1650.0	0.0002813	146.891000032
1650.0	0.0002815	146.937000036
1650.0	0.0002818	146.969000101
1650.0	0.0002818	147.016000032
1660.0	0.0002695	147.296999931
1660.0	0.0002653	147.344000101
1660.0	0.0002615	147.375
1660.0	0.0002583	147.421999931
1660.0	0.0002563	147.469000101
1660.0	0.0002545	147.5
1660.0	0.0002533	147.546999931
1660.0	0.0002525	147.578000069
1660.0	0.0002518	147.625
1660.0	0.0002513	147.671999931
1660.0	0.0002513	147.703000069
1660.0	0.0002513	147.75
1660.0	0.0002513	147.796999931
1660.0	0.0002513	147.828000069
1660.0	0.0002508	147.875
1660.0	0.0002503	147.921999931
1660.0	0.00025	147.953000069
1660.0	0.00025	148.0
1660.0	0.0002495	148.030999899
1660.0	0.000249	148.078000069
1660.0	0.000249	148.125
1660.0	0.000249	148.155999899
1660.0	0.000249	148.203000069
1660.0	0.0002493	148.233999968
1660.0	0.0002495	148.280999899
1660.0	0.0002495	148.328000069
1660.0	0.0002493	148.358999968
1660.0	0.0002495	148.405999899
1660.0	0.0002495	148.453000069
1660.0	0.0002493	148.483999968
1660.0	0.0002493	148.530999899
1660.0	0.0002493	148.578000069
1660.0	0.0002493	148.608999968
1660.0	0.0002493	148.655999899
1660.0	0.0002493	148.687000036
1660.0	0.0002493	148.733999968
1660.0	0.0002493	148.780999899
1670.0	0.000238	149.062000036
1670.0	0.000234	149.094000101
1670.0	0.0002308	149.141000032
1670.0	0.000228	149.187000036
1670.0	0.0002263	149.219000101
1670.0	0.0002243	149.266000032
1670.0	0.000223	149.312000036
1670.0	0.000222	149.344000101
1670.0	0.0002218	149.391000032
1670.0	0.0002213	149.437000036
1670.0	0.0002205	149.469000101
1670.0	0.0002203	149.516000032
1670.0	0.00022	149.562000036
1670.0	0.0002203	149.594000101
1670.0	0.00022	149.641000032
1670.0	0.00022	149.687000036
1670.0	0.00022	149.719000101
1670.0	0.00022	149.766000032
1670.0	0.0002195	149.796999931
1670.0	0.00022	149.844000101
1670.0	0.00022	149.891000032
1670.0	0.0002203	149.921999931
1670.0	0.0002203	149.969000101
1670.0	0.0002203	150.016000032
1670.0	0.0002205	150.046999931
1670.0	0.00022	150.094000101
1670.0	0.00022	150.141000032
1670.0	0.00022	150.171999931
1670.0	0.00022	150.219000101
1670.0	0.00022	150.266000032
1670.0	0.0002195	150.296999931
1670.0	0.00022	150.344000101
1670.0	0.0002203	150.375
1670.0	0.0002203	150.421999931
1670.0	0.00022	150.469000101
1670.0	0.0002195	150.5
1670.0	0.0002193	150.546999931
1680.0	0.00021	150.828000069
1680.0	0.0002063	150.875
1680.0	0.0002038	150.905999899
1680.0	0.0002018	150.953000069
1680.0	0.0002003	151.0
1680.0	0.000199	151.030999899
1680.0	0.0001983	151.078000069
1680.0	0.0001978	151.108999968
1680.0	0.0001975	151.155999899
1680.0	0.0001968	151.203000069
1680.0	0.0001965	151.233999968
1680.0	0.0001965	151.280999899
1680.0	0.0001965	151.328000069
1680.0	0.0001965	151.358999968
1680.0	0.0001963	151.405999899
1680.0	0.0001963	151.453000069
1680.0	0.0001958	151.483999968
1680.0	0.0001958	151.530999899
1680.0	0.0001958	151.578000069
1680.0	0.0001958	151.608999968
1680.0	0.0001958	151.655999899
1680.0	0.0001963	151.703000069
1680.0	0.0001963	151.733999968
1680.0	0.0001963	151.780999899
1680.0	0.0001965	151.812000036
1680.0	0.0001963	151.858999968
1680.0	0.0001968	151.905999899
1680.0	0.0001968	151.937000036
1680.0	0.0001968	151.983999968
1680.0	0.0001965	152.030999899
1680.0	0.0001965	152.062000036
1680.0	0.0001963	152.108999968
1680.0	0.0001958	152.141000032
1680.0	0.0001963	152.187000036
1680.0	0.0001963	152.233999968
1680.0	0.0001963	152.266000032
1680.0	0.0001965	152.312000036
1690.0	0.000187	152.594000101
1690.0	0.000184	152.641000032
1690.0	0.0001815	152.687000036
1690.0	0.0001795	152.719000101
1690.0	0.0001783	152.766000032
1690.0	0.000177	152.812000036
1690.0	0.0001765	152.844000101
1690.0	0.0001758	152.891000032
1690.0	0.0001753	152.921999931
1690.0	0.000175	152.969000101
1690.0	0.0001745	153.016000032
1690.0	0.0001743	153.046999931
1690.0	0.0001743	153.094000101
1690.0	0.0001743	153.141000032
1690.0	0.0001743	153.171999931
1690.0	0.0001743	153.219000101
1690.0	0.0001743	153.25
1690.0	0.0001745	153.296999931
1690.0	0.0001745	153.344000101
1690.0	0.0001745	153.375
1690.0	0.000175	153.421999931
1690.0	0.000175	153.469000101
1690.0	0.000175	153.5
1690.0	0.0001743	153.546999931
1690.0	0.000174	153.594000101
1690.0	0.0001738	153.625
1690.0	0.0001738	153.671999931
1690.0	0.0001733	153.703000069
1690.0	0.0001733	153.75
1690.0	0.0001733	153.796999931
1690.0	0.0001733	153.828000069
1690.0	0.000173	153.875
1690.0	0.0001728	153.921999931
1690.0	0.0001728	153.953000069
1690.0	0.0001728	154.0
1690.0	0.0001728	154.030999899
1690.0	0.0001728	154.078000069
1700.0	0.0001645	154.358999968
1700.0	0.0001625	154.405999899
1700.0	0.00016	154.437000036
1700.0	0.000158	154.483999968
1700.0	0.0001565	154.530999899
1700.0	0.0001555	154.562000036
1700.0	0.000155	154.608999968
1700.0	0.000155	154.655999899
1700.0	0.0001543	154.687000036
1700.0	0.0001538	154.733999968
1700.0	0.0001538	154.766000032
1700.0	0.000153	154.812000036
1700.0	0.0001528	154.858999968
1700.0	0.0001525	154.891000032
1700.0	0.0001525	154.937000036
1700.0	0.0001525	154.983999968
1700.0	0.0001528	155.016000032
1700.0	0.0001528	155.062000036
1700.0	0.000153	155.094000101
1700.0	0.000153	155.141000032
1700.0	0.000153	155.187000036
1700.0	0.000153	155.219000101
1700.0	0.000153	155.266000032
1700.0	0.000153	155.312000036
1700.0	0.0001533	155.344000101
1700.0	0.0001538	155.391000032
1700.0	0.0001533	155.421999931
1700.0	0.000153	155.469000101
1700.0	0.000153	155.516000032
1700.0	0.0001533	155.546999931
1700.0	0.0001533	155.594000101
1700.0	0.0001538	155.641000032
1700.0	0.0001538	155.671999931
1700.0	0.0001538	155.719000101
1700.0	0.0001538	155.766000032
1700.0	0.0001538	155.796999931
1700.0	0.0001533	155.844000101
1710.0	0.000147	156.125
1710.0	0.0001453	156.171999931
1710.0	0.0001438	156.203000069
1710.0	0.0001425	156.25
1710.0	0.0001415	156.296999931
1710.0	0.0001405	156.328000069
1710.0	0.00014	156.375
1710.0	0.0001393	156.421999931
1710.0	0.0001388	156.453000069
1710.0	0.0001383	156.5
1710.0	0.0001378	156.546999931
1710.0	0.0001375	156.578000069
1710.0	0.000137	156.625
1710.0	0.000137	156.655999899
1710.0	0.000137	156.703000069
1710.0	0.000137	156.75
1710.0	0.0001368	156.780999899
1710.0	0.0001368	156.828000069
1710.0	0.0001368	156.858999968
1710.0	0.0001368	156.905999899
1710.0	0.000137	156.953000069
1710.0	0.000137	156.983999968
1710.0	0.000137	157.030999899
1710.0	0.000137	157.078000069
1710.0	0.000137	157.108999968
1710.0	0.000137	157.155999899
1710.0	0.0001375	157.203000069
1710.0	0.0001378	157.233999968
1710.0	0.0001375	157.280999899
1710.0	0.0001375	157.312000036
1710.0	0.000137	157.358999968
1710.0	0.0001368	157.405999899
1710.0	0.0001368	157.437000036
1710.0	0.0001368	157.483999968
1710.0	0.0001368	157.530999899
1710.0	0.0001368	157.562000036
1710.0	0.0001363	157.608999968
1720.0	0.00013	157.891000032
1720.0	0.000128	157.937000036
1720.0	0.0001265	157.969000101
1720.0	0.0001255	158.016000032
1720.0	0.0001245	158.062000036
1720.0	0.000124	158.094000101
1720.0	0.0001233	158.141000032
1720.0	0.0001228	158.187000036
1720.0	0.000122	158.219000101
1720.0	0.0001218	158.266000032
1720.0	0.0001218	158.296999931
1720.0	0.0001218	158.344000101
1720.0	0.0001218	158.391000032
1720.0	0.0001218	158.421999931
1720.0	0.0001218	158.469000101
1720.0	0.000122	158.516000032
1720.0	0.0001225	158.546999931
1720.0	0.0001225	158.594000101
1720.0	0.0001225	158.641000032
1720.0	0.000122	158.671999931
1720.0	0.000122	158.719000101
1720.0	0.000122	158.75
1720.0	0.0001225	158.796999931
1720.0	0.0001225	158.844000101
1720.0	0.0001225	158.875
1720.0	0.0001225	158.921999931
1720.0	0.000122	158.969000101
1720.0	0.000122	159.0
1720.0	0.000122	159.046999931
1720.0	0.0001225	159.078000069
1720.0	0.0001225	159.125
1720.0	0.0001228	159.171999931
1720.0	0.000123	159.203000069
1720.0	0.0001233	159.25
1720.0	0.0001233	159.296999931
1720.0	0.0001233	159.328000069
1720.0	0.0001233	159.375
1730.0	0.000118	159.671999931
1730.0	0.0001163	159.703000069
1730.0	0.0001145	159.75
1730.0	0.0001138	159.780999899
1730.0	0.000113	159.828000069
1730.0	0.000112	159.875
1730.0	0.0001118	159.905999899
1730.0	0.0001113	159.953000069
1730.0	0.0001108	160.0
1730.0	0.0001105	160.030999899
1730.0	0.0001105	160.078000069
1730.0	0.0001105	160.108999968
1730.0	0.0001103	160.155999899
1730.0	0.0001103	160.203000069
1730.0	0.0001103	160.233999968
1730.0	0.0001103	160.280999899
1730.0	0.00011	160.328000069
1730.0	0.0001093	160.358999968
1730.0	0.0001093	160.405999899
1730.0	0.0001093	160.453000069
1730.0	0.0001095	160.483999968
1730.0	0.00011	160.530999899
1730.0	0.00011	160.578000069
1730.0	0.00011	160.608999968
1730.0	0.0001095	160.655999899
1730.0	0.0001095	160.703000069
1730.0	0.0001093	160.733999968
1730.0	0.0001093	160.780999899
1730.0	0.0001093	160.812000036
1730.0	0.0001093	160.858999968
1730.0	0.000109	160.905999899
1730.0	0.000109	160.937000036
1730.0	0.000109	160.983999968
1730.0	0.0001093	161.030999899
1730.0	0.000109	161.062000036
1730.0	0.0001088	161.108999968
1730.0	0.0001088	161.141000032
1740.0	0.0001053	161.437000036
1740.0	0.000104	161.483999968
1740.0	0.0001028	161.530999899
1740.0	0.0001015	161.562000036
1740.0	0.0001008	161.608999968
1740.0	0.0001	161.641000032
1740.0	9.93e-05	161.687000036
1740.0	9.9e-05	161.733999968
1740.0	9.9e-05	161.766000032
1740.0	9.9e-05	161.812000036
1740.0	9.9e-05	161.858999968
1740.0	9.93e-05	161.891000032
1740.0	9.93e-05	161.937000036
1740.0	9.93e-05	161.969000101
1740.0	9.93e-05	162.016000032
1740.0	9.95e-05	162.062000036
1740.0	9.95e-05	162.094000101
1740.0	9.93e-05	162.141000032
1740.0	9.9e-05	162.187000036
1740.0	9.9e-05	162.219000101
1740.0	9.9e-05	162.266000032
1740.0	9.93e-05	162.312000036
1740.0	9.93e-05	162.344000101
1740.0	0.0001	162.391000032
1740.0	9.95e-05	162.421999931
1740.0	0.0001	162.469000101
1740.0	0.0001	162.516000032
1740.0	0.0001	162.546999931
1740.0	0.0001003	162.594000101
1740.0	0.0001005	162.641000032
1740.0	0.0001003	162.671999931
1740.0	0.0001	162.719000101
1740.0	9.95e-05	162.75
1740.0	9.93e-05	162.796999931
1740.0	9.9e-05	162.844000101
1740.0	9.9e-05	162.875
1740.0	9.9e-05	162.921999931
1750.0	9.5e-05	163.219000101
1750.0	9.38e-05	163.266000032
1750.0	9.25e-05	163.296999931
1750.0	9.15e-05	163.344000101
1750.0	9.08e-05	163.375
1750.0	9.03e-05	163.421999931
1750.0	9e-05	163.469000101
1750.0	8.95e-05	163.5
1750.0	8.93e-05	163.546999931
1750.0	8.88e-05	163.594000101
1750.0	8.88e-05	163.625
1750.0	8.83e-05	163.671999931
1750.0	8.83e-05	163.703000069
1750.0	8.83e-05	163.75
1750.0	8.8e-05	163.796999931
1750.0	8.8e-05	163.828000069
1750.0	8.8e-05	163.875
1750.0	8.83e-05	163.921999931
1750.0	8.88e-05	163.953000069
1750.0	8.88e-05	164.0
1750.0	8.88e-05	164.030999899
1750.0	8.9e-05	164.078000069
1750.0	8.93e-05	164.125
1750.0	8.93e-05	164.155999899
1750.0	8.95e-05	164.203000069
1750.0	8.93e-05	164.25
1750.0	8.93e-05	164.280999899
1750.0	8.93e-05	164.328000069
1750.0	8.93e-05	164.375
1750.0	8.93e-05	164.405999899
1750.0	8.93e-05	164.453000069
1750.0	8.95e-05	164.5
1750.0	9e-05	164.530999899
1750.0	9e-05	164.578000069
1750.0	9e-05	164.625
1750.0	9e-05	164.655999899
1750.0	9.03e-05	164.703000069
1760.0	8.5e-05	165.0
1760.0	8.38e-05	165.046999931
1760.0	8.28e-05	165.078000069
1760.0	8.18e-05	165.125
1760.0	8.13e-05	165.171999931
1760.0	8.08e-05	165.203000069
1760.0	8.03e-05	165.25
1760.0	8e-05	165.280999899
1760.0	7.95e-05	165.328000069
1760.0	7.93e-05	165.375
1760.0	7.93e-05	165.405999899
1760.0	7.93e-05	165.453000069
1760.0	7.93e-05	165.483999968
1760.0	7.93e-05	165.530999899
1760.0	7.93e-05	165.578000069
1760.0	7.93e-05	165.608999968
1760.0	7.93e-05	165.655999899
1760.0	7.93e-05	165.703000069
1760.0	7.93e-05	165.733999968
1760.0	7.9e-05	165.780999899
1760.0	7.93e-05	165.828000069
1760.0	7.93e-05	165.858999968
1760.0	7.93e-05	165.905999899
1760.0	7.93e-05	165.937000036
1760.0	7.93e-05	165.983999968
1760.0	7.93e-05	166.030999899
1760.0	7.95e-05	166.062000036
1760.0	7.95e-05	166.108999968
1760.0	7.95e-05	166.155999899
1760.0	7.95e-05	166.187000036
1760.0	8.03e-05	166.233999968
1760.0	8.03e-05	166.266000032
1760.0	8.05e-05	166.312000036
1760.0	8.05e-05	166.358999968
1760.0	8.05e-05	166.391000032
1760.0	8.03e-05	166.437000036
1760.0	8.03e-05	166.483999968
1770.0	7.65e-05	166.780999899
1770.0	7.53e-05	166.812000036
1770.0	7.43e-05	166.858999968
1770.0	7.4e-05	166.905999899
1770.0	7.33e-05	166.937000036
1770.0	7.3e-05	166.983999968
1770.0	7.25e-05	167.030999899
1770.0	7.2e-05	167.062000036
1770.0	7.18e-05	167.108999968
1770.0	7.18e-05	167.141000032
1770.0	7.18e-05	167.187000036
1770.0	7.15e-05	167.233999968
1770.0	7.15e-05	167.266000032
1770.0	7.15e-05	167.312000036
1770.0	7.15e-05	167.358999968
1770.0	7.18e-05	167.391000032
1770.0	7.18e-05	167.437000036
1770.0	7.18e-05	167.469000101
1770.0	7.15e-05	167.516000032
1770.0	7.13e-05	167.562000036
1770.0	7.08e-05	167.594000101
1770.0	7.08e-05	167.641000032
1770.0	7.08e-05	167.687000036
1770.0	7.05e-05	167.719000101
1770.0	7.03e-05	167.766000032
1770.0	7.03e-05	167.796999931
1770.0	7.03e-05	167.844000101
1770.0	7.03e-05	167.891000032
1770.0	7.05e-05	167.921999931
1770.0	7.03e-05	167.969000101
1770.0	7.03e-05	168.016000032
1770.0	7.03e-05	168.062000036
1770.0	7.05e-05	168.094000101
1770.0	7.08e-05	168.141000032
1770.0	7.13e-05	168.171999931
1770.0	7.13e-05	168.219000101
1770.0	7.08e-05	168.266000032
1780.0	6.75e-05	168.562000036
1780.0	6.65e-05	168.608999968
1780.0	6.55e-05	168.641000032
1780.0	6.45e-05	168.687000036
1780.0	6.4e-05	168.733999968
1780.0	6.33e-05	168.766000032
1780.0	6.33e-05	168.812000036
1780.0	6.33e-05	168.858999968
1780.0	6.33e-05	168.891000032
1780.0	6.38e-05	168.937000036
1780.0	6.33e-05	168.969000101
1780.0	6.33e-05	169.016000032
1780.0	6.33e-05	169.062000036
1780.0	6.33e-05	169.094000101
1780.0	6.33e-05	169.141000032
1780.0	6.3e-05	169.187000036
1780.0	6.3e-05	169.219000101
1780.0	6.3e-05	169.266000032
1780.0	6.28e-05	169.296999931
1780.0	6.28e-05	169.344000101
1780.0	6.25e-05	169.391000032
1780.0	6.28e-05	169.421999931
1780.0	6.3e-05	169.469000101
1780.0	6.3e-05	169.516000032
1780.0	6.28e-05	169.546999931
1780.0	6.28e-05	169.594000101
1780.0	6.25e-05	169.641000032
1780.0	6.25e-05	169.671999931
1780.0	6.25e-05	169.719000101
1780.0	6.25e-05	169.75
1780.0	6.25e-05	169.796999931
1780.0	6.25e-05	169.844000101
1780.0	6.2e-05	169.875
1780.0	6.2e-05	169.921999931
1780.0	6.2e-05	169.969000101
1780.0	6.2e-05	170.0
1780.0	6.2e-05	170.046999931
1790.0	6e-05	170.344000101
1790.0	5.88e-05	170.391000032
1790.0	5.78e-05	170.421999931
1790.0	5.7e-05	170.469000101
1790.0	5.65e-05	170.516000032
1790.0	5.58e-05	170.562000036
1790.0	5.58e-05	170.594000101
1790.0	5.55e-05	170.641000032
1790.0	5.58e-05	170.687000036
1790.0	5.58e-05	170.719000101
1790.0	5.58e-05	170.766000032
1790.0	5.63e-05	170.812000036
1790.0	5.63e-05	170.844000101
1790.0	5.63e-05	170.891000032
1790.0	5.63e-05	170.937000036
1790.0	5.58e-05	170.969000101
1790.0	5.58e-05	171.016000032
1790.0	5.58e-05	171.046999931
1790.0	5.58e-05	171.094000101
1790.0	5.55e-05	171.141000032
1790.0	5.55e-05	171.171999931
1790.0	5.55e-05	171.219000101
1790.0	5.53e-05	171.266000032
1790.0	5.53e-05	171.296999931
1790.0	5.5e-05	171.344000101
1790.0	5.5e-05	171.391000032
1790.0	5.5e-05	171.437000036
1790.0	5.5e-05	171.469000101
1790.0	5.45e-05	171.516000032
1790.0	5.43e-05	171.546999931
1790.0	5.45e-05	171.594000101
1790.0	5.45e-05	171.641000032
1790.0	5.5e-05	171.671999931
1790.0	5.53e-05	171.719000101
1790.0	5.53e-05	171.766000032
1790.0	5.5e-05	171.796999931
1790.0	5.5e-05	171.844000101
1800.0	5.28e-05	172.141000032
1800.0	5.2e-05	172.187000036
1800.0	5.13e-05	172.219000101
1800.0	5.08e-05	172.266000032
1800.0	5.05e-05	172.312000036
1800.0	5.03e-05	172.344000101
1800.0	5e-05	172.391000032
1800.0	5e-05	172.437000036
1800.0	4.95e-05	172.469000101
1800.0	4.95e-05	172.516000032
1800.0	4.93e-05	172.546999931
1800.0	4.93e-05	172.594000101
1800.0	4.9e-05	172.641000032
1800.0	4.9e-05	172.671999931
1800.0	4.88e-05	172.719000101
1800.0	4.88e-05	172.766000032
1800.0	4.88e-05	172.796999931
1800.0	4.88e-05	172.844000101
1800.0	4.88e-05	172.875
1800.0	4.9e-05	172.921999931
1800.0	4.9e-05	172.969000101
1800.0	4.9e-05	173.0
1800.0	4.9e-05	173.046999931
1800.0	4.9e-05	173.094000101
1800.0	4.9e-05	173.125
1800.0	4.93e-05	173.171999931
1800.0	4.95e-05	173.203000069
1800.0	4.93e-05	173.25
1800.0	4.93e-05	173.296999931
1800.0	4.9e-05	173.328000069
1800.0	4.88e-05	173.375
1800.0	4.83e-05	173.421999931
1800.0	4.8e-05	173.453000069
1800.0	4.78e-05	173.5
1800.0	4.78e-05	173.546999931
1800.0	4.78e-05	173.578000069
1800.0	4.8e-05	173.625
