Your edit line - do NOT delete this line
Wavelength [nm], Voltage [V], Elapsed time [s]
900.0	0.0002418	14.0929999352
900.0	0.0002368	14.1399998665
900.0	0.000233	14.1710000038
900.0	0.00023	14.2179999352
900.0	0.0002278	14.2649998665
900.0	0.0002263	14.2960000038
900.0	0.000225	14.3429999352
900.0	0.0002245	14.375
900.0	0.000224	14.4210000038
900.0	0.0002233	14.4679999352
900.0	0.0002233	14.5
900.0	0.000223	14.5460000038
900.0	0.0002225	14.5929999352
900.0	0.0002228	14.625
900.0	0.0002225	14.6710000038
900.0	0.0002225	14.7179999352
900.0	0.000223	14.75
900.0	0.0002228	14.7960000038
900.0	0.0002228	14.8280000687
900.0	0.0002228	14.875
900.0	0.0002225	14.9210000038
900.0	0.0002225	14.9530000687
900.0	0.0002228	15.0
900.0	0.000223	15.0460000038
900.0	0.000223	15.0780000687
900.0	0.000223	15.125
900.0	0.000223	15.1559998989
900.0	0.0002228	15.2030000687
900.0	0.0002228	15.25
900.0	0.000223	15.2809998989
900.0	0.000223	15.3280000687
900.0	0.000223	15.375
900.0	0.000223	15.4059998989
900.0	0.0002228	15.4530000687
900.0	0.0002228	15.5
900.0	0.000223	15.5309998989
900.0	0.000223	15.5780000687
910.0	0.0002338	15.875
910.0	0.0002368	15.9210000038
910.0	0.0002395	15.9679999352
910.0	0.0002418	16.0
910.0	0.0002438	16.0460000038
910.0	0.0002445	16.0929999352
910.0	0.0002453	16.125
910.0	0.0002458	16.1710000038
910.0	0.0002463	16.2030000687
910.0	0.0002463	16.25
910.0	0.0002468	16.2960000038
910.0	0.0002468	16.3280000687
910.0	0.0002475	16.375
910.0	0.000248	16.4210000038
910.0	0.000248	16.4530000687
910.0	0.0002483	16.5
910.0	0.0002483	16.5460000038
910.0	0.000248	16.5780000687
910.0	0.000248	16.625
910.0	0.0002478	16.6559998989
910.0	0.0002478	16.7030000687
910.0	0.0002475	16.75
910.0	0.0002478	16.7809998989
910.0	0.0002478	16.8280000687
910.0	0.000248	16.875
910.0	0.0002478	16.9059998989
910.0	0.000248	16.9530000687
910.0	0.000248	16.9839999676
910.0	0.000248	17.0309998989
910.0	0.000248	17.0780000687
910.0	0.0002478	17.125
910.0	0.0002478	17.1559998989
910.0	0.0002478	17.2030000687
910.0	0.0002478	17.2339999676
910.0	0.0002478	17.2809998989
910.0	0.0002478	17.3280000687
910.0	0.0002478	17.3589999676
920.0	0.0002568	17.6710000038
920.0	0.0002603	17.7179999352
920.0	0.0002633	17.7649998665
920.0	0.0002658	17.7960000038
920.0	0.000268	17.8429999352
920.0	0.00027	17.875
920.0	0.0002713	17.9210000038
920.0	0.000272	17.9679999352
920.0	0.0002725	18.0
920.0	0.000273	18.0460000038
920.0	0.0002738	18.0929999352
920.0	0.0002738	18.125
920.0	0.0002738	18.1710000038
920.0	0.000274	18.2030000687
920.0	0.000274	18.25
920.0	0.000274	18.2960000038
920.0	0.0002738	18.3280000687
920.0	0.0002738	18.375
920.0	0.000274	18.4210000038
920.0	0.000274	18.4530000687
920.0	0.000274	18.5
920.0	0.0002743	18.5460000038
920.0	0.000274	18.5780000687
920.0	0.0002738	18.625
920.0	0.0002733	18.6559998989
920.0	0.000273	18.7030000687
920.0	0.000273	18.75
920.0	0.0002728	18.7809998989
920.0	0.0002725	18.8280000687
920.0	0.0002728	18.875
920.0	0.0002728	18.9059998989
920.0	0.0002728	18.9530000687
920.0	0.0002728	18.9839999676
920.0	0.0002728	19.0309998989
920.0	0.000273	19.0780000687
920.0	0.0002728	19.1089999676
920.0	0.0002728	19.1559998989
930.0	0.0002858	19.4530000687
930.0	0.0002893	19.5
930.0	0.0002925	19.5460000038
930.0	0.0002945	19.5780000687
930.0	0.0002968	19.625
930.0	0.0002983	19.6710000038
930.0	0.0002993	19.7030000687
930.0	0.0003003	19.75
930.0	0.0003008	19.7809998989
930.0	0.0003013	19.8280000687
930.0	0.0003018	19.875
930.0	0.0003018	19.9059998989
930.0	0.000302	19.9530000687
930.0	0.000302	20.0
930.0	0.0003025	20.0309998989
930.0	0.0003025	20.0780000687
930.0	0.0003028	20.1089999676
930.0	0.000303	20.1559998989
930.0	0.000303	20.2030000687
930.0	0.0003028	20.2339999676
930.0	0.0003028	20.2809998989
930.0	0.000303	20.3280000687
930.0	0.0003028	20.3589999676
930.0	0.000303	20.4059998989
930.0	0.000303	20.4370000362
930.0	0.0003033	20.4839999676
930.0	0.000303	20.5309998989
930.0	0.000303	20.5620000362
930.0	0.000303	20.6089999676
930.0	0.0003038	20.6559998989
930.0	0.0003038	20.6870000362
930.0	0.000304	20.7339999676
930.0	0.000304	20.7809998989
930.0	0.000304	20.8120000362
930.0	0.000304	20.8589999676
930.0	0.000304	20.8899998665
930.0	0.000304	20.9370000362
940.0	0.0003165	21.2339999676
940.0	0.0003203	21.2809998989
940.0	0.000324	21.3280000687
940.0	0.0003268	21.3589999676
940.0	0.000329	21.4059998989
940.0	0.0003308	21.4530000687
940.0	0.0003315	21.4839999676
940.0	0.0003325	21.5309998989
940.0	0.000333	21.5780000687
940.0	0.0003333	21.6089999676
940.0	0.000334	21.6559998989
940.0	0.000334	21.6870000362
940.0	0.0003343	21.7339999676
940.0	0.0003343	21.7809998989
940.0	0.000334	21.8120000362
940.0	0.0003343	21.8589999676
940.0	0.0003343	21.9059998989
940.0	0.0003343	21.9370000362
940.0	0.0003343	21.9839999676
940.0	0.0003345	22.0149998665
940.0	0.0003345	22.0620000362
940.0	0.000335	22.1089999676
940.0	0.000335	22.1399998665
940.0	0.0003353	22.1870000362
940.0	0.0003353	22.2339999676
940.0	0.0003353	22.2649998665
940.0	0.0003353	22.3120000362
940.0	0.0003353	22.3589999676
940.0	0.0003355	22.3899998665
940.0	0.0003355	22.4370000362
940.0	0.0003358	22.4679999352
940.0	0.0003355	22.5149998665
940.0	0.0003353	22.5620000362
940.0	0.000335	22.5929999352
940.0	0.000335	22.6399998665
940.0	0.0003345	22.6870000362
940.0	0.0003343	22.7179999352
950.0	0.0003463	23.0149998665
950.0	0.0003503	23.0460000038
950.0	0.0003538	23.0929999352
950.0	0.0003568	23.1399998665
950.0	0.000359	23.1710000038
950.0	0.0003605	23.2179999352
950.0	0.0003615	23.2649998665
950.0	0.000362	23.2960000038
950.0	0.0003628	23.3429999352
950.0	0.000363	23.375
950.0	0.0003633	23.4210000038
950.0	0.0003638	23.4679999352
950.0	0.0003633	23.5
950.0	0.0003633	23.5460000038
950.0	0.0003638	23.5929999352
950.0	0.000364	23.625
950.0	0.000364	23.6710000038
950.0	0.000364	23.7030000687
950.0	0.0003638	23.75
950.0	0.000364	23.7960000038
950.0	0.0003638	23.8280000687
950.0	0.0003638	23.875
950.0	0.0003638	23.9210000038
950.0	0.0003633	23.9530000687
950.0	0.0003633	24.0
950.0	0.000363	24.0309998989
950.0	0.0003628	24.0780000687
950.0	0.0003625	24.125
950.0	0.000362	24.1559998989
950.0	0.000362	24.2030000687
950.0	0.000362	24.25
950.0	0.000362	24.2809998989
950.0	0.0003625	24.3280000687
950.0	0.0003625	24.375
950.0	0.000362	24.4059998989
950.0	0.0003625	24.4530000687
950.0	0.0003625	24.4839999676
960.0	0.0003758	24.7809998989
960.0	0.0003795	24.8120000362
960.0	0.0003828	24.8589999676
960.0	0.0003853	24.9059998989
960.0	0.000387	24.9370000362
960.0	0.0003888	24.9839999676
960.0	0.0003903	25.0309998989
960.0	0.0003913	25.0620000362
960.0	0.000392	25.1089999676
960.0	0.0003928	25.1559998989
960.0	0.000393	25.1870000362
960.0	0.0003933	25.2339999676
960.0	0.0003933	25.2809998989
960.0	0.0003938	25.3120000362
960.0	0.0003933	25.3589999676
960.0	0.0003933	25.4059998989
960.0	0.0003938	25.4370000362
960.0	0.000394	25.4839999676
960.0	0.000394	25.5149998665
960.0	0.0003943	25.5620000362
960.0	0.0003943	25.6089999676
960.0	0.0003945	25.6399998665
960.0	0.0003945	25.6870000362
960.0	0.000395	25.7339999676
960.0	0.0003955	25.7649998665
960.0	0.0003955	25.8120000362
960.0	0.0003955	25.8589999676
960.0	0.0003958	25.8899998665
960.0	0.0003955	25.9370000362
960.0	0.0003955	25.9839999676
960.0	0.0003955	26.0149998665
960.0	0.0003953	26.0620000362
960.0	0.0003955	26.0929999352
960.0	0.000395	26.1399998665
960.0	0.0003945	26.1870000362
960.0	0.0003945	26.2179999352
960.0	0.0003945	26.2649998665
970.0	0.0004083	26.5460000038
970.0	0.000413	26.5929999352
970.0	0.0004165	26.6399998665
970.0	0.0004193	26.6710000038
970.0	0.0004215	26.7179999352
970.0	0.000423	26.75
970.0	0.0004243	26.7960000038
970.0	0.0004253	26.8429999352
970.0	0.0004258	26.875
970.0	0.0004258	26.9210000038
970.0	0.0004258	26.9679999352
970.0	0.0004263	27.0
970.0	0.0004263	27.0460000038
970.0	0.0004263	27.0929999352
970.0	0.0004268	27.125
970.0	0.0004268	27.1710000038
970.0	0.000427	27.2030000687
970.0	0.0004275	27.25
970.0	0.0004278	27.2960000038
970.0	0.000428	27.3280000687
970.0	0.0004278	27.375
970.0	0.0004275	27.4210000038
970.0	0.0004278	27.4530000687
970.0	0.0004278	27.5
970.0	0.0004278	27.5309998989
970.0	0.0004278	27.5780000687
970.0	0.0004275	27.625
970.0	0.0004275	27.6559998989
970.0	0.000427	27.7030000687
970.0	0.0004268	27.75
970.0	0.0004268	27.7809998989
970.0	0.0004268	27.8280000687
970.0	0.0004265	27.875
970.0	0.0004265	27.9059998989
970.0	0.0004258	27.9530000687
970.0	0.0004255	28.0
980.0	0.0004358	28.2809998989
980.0	0.00044	28.3120000362
980.0	0.0004433	28.3589999676
980.0	0.0004465	28.3899998665
980.0	0.0004488	28.4370000362
980.0	0.0004505	28.4839999676
980.0	0.0004518	28.5149998665
980.0	0.000453	28.5620000362
980.0	0.0004538	28.6089999676
980.0	0.0004543	28.6399998665
980.0	0.000455	28.6870000362
980.0	0.000455	28.7179999352
980.0	0.000455	28.7649998665
980.0	0.000455	28.8120000362
980.0	0.0004545	28.8429999352
980.0	0.000455	28.8899998665
980.0	0.0004545	28.9370000362
980.0	0.0004543	28.9679999352
980.0	0.0004543	29.0149998665
980.0	0.000454	29.0460000038
980.0	0.000454	29.0929999352
980.0	0.0004543	29.1399998665
980.0	0.0004543	29.1710000038
980.0	0.0004545	29.2179999352
980.0	0.0004545	29.2649998665
980.0	0.0004545	29.2960000038
980.0	0.0004545	29.3429999352
980.0	0.000455	29.375
980.0	0.0004545	29.4210000038
980.0	0.000455	29.4679999352
980.0	0.0004545	29.5
980.0	0.0004545	29.5460000038
980.0	0.0004545	29.5929999352
980.0	0.0004545	29.625
980.0	0.0004545	29.6710000038
980.0	0.0004545	29.7179999352
980.0	0.0004545	29.75
990.0	0.0004678	30.0309998989
990.0	0.0004718	30.0780000687
990.0	0.0004755	30.1089999676
990.0	0.0004788	30.1559998989
990.0	0.0004805	30.2030000687
990.0	0.000482	30.2339999676
990.0	0.000483	30.2809998989
990.0	0.000484	30.3120000362
990.0	0.000485	30.3589999676
990.0	0.0004855	30.4059998989
990.0	0.0004863	30.4370000362
990.0	0.0004868	30.4839999676
990.0	0.0004875	30.5309998989
990.0	0.0004878	30.5620000362
990.0	0.0004878	30.6089999676
990.0	0.0004878	30.6399998665
990.0	0.0004875	30.6870000362
990.0	0.0004875	30.7339999676
990.0	0.000487	30.7649998665
990.0	0.0004868	30.8120000362
990.0	0.0004868	30.8589999676
990.0	0.000487	30.8899998665
990.0	0.000487	30.9370000362
990.0	0.0004868	30.9839999676
990.0	0.0004875	31.0309998989
990.0	0.000488	31.0620000362
990.0	0.0004883	31.1089999676
990.0	0.0004883	31.1559998989
990.0	0.0004883	31.1870000362
990.0	0.0004888	31.2339999676
990.0	0.000488	31.2809998989
990.0	0.0004878	31.3280000687
990.0	0.0004878	31.3589999676
990.0	0.0004875	31.4059998989
990.0	0.0004875	31.4370000362
990.0	0.000487	31.4839999676
1000.0	0.0004983	31.7649998665
1000.0	0.0005028	31.8120000362
1000.0	0.0005063	31.8429999352
1000.0	0.0005088	31.8899998665
1000.0	0.0005113	31.9370000362
1000.0	0.0005128	31.9679999352
1000.0	0.000514	32.0149998665
1000.0	0.000515	32.0620000362
1000.0	0.0005155	32.0929999352
1000.0	0.0005165	32.1399998665
1000.0	0.0005168	32.1870000362
1000.0	0.0005168	32.2179999352
1000.0	0.000517	32.2649998665
1000.0	0.000517	32.2960000038
1000.0	0.000517	32.3429999352
1000.0	0.0005175	32.3899998665
1000.0	0.000517	32.4210000038
1000.0	0.0005175	32.4679999352
1000.0	0.000517	32.5149998665
1000.0	0.0005168	32.5460000038
1000.0	0.0005168	32.5929999352
1000.0	0.0005168	32.625
1000.0	0.0005168	32.6710000038
1000.0	0.0005168	32.7179999352
1000.0	0.000517	32.75
1000.0	0.0005168	32.7960000038
1000.0	0.0005165	32.8429999352
1000.0	0.0005165	32.875
1000.0	0.0005165	32.9210000038
1000.0	0.0005163	32.9530000687
1000.0	0.0005155	33.0
1000.0	0.0005155	33.0460000038
1000.0	0.0005155	33.0780000687
1000.0	0.0005155	33.125
1000.0	0.0005155	33.1710000038
1000.0	0.0005155	33.2030000687
1000.0	0.0005155	33.25
1010.0	0.0005275	33.5309998989
1010.0	0.0005315	33.5620000362
1010.0	0.000535	33.6089999676
1010.0	0.000538	33.6559998989
1010.0	0.0005405	33.6870000362
1010.0	0.000543	33.7339999676
1010.0	0.0005443	33.7649998665
1010.0	0.0005458	33.8120000362
1010.0	0.0005465	33.8589999676
1010.0	0.000547	33.8899998665
1010.0	0.0005478	33.9370000362
1010.0	0.000548	33.9839999676
1010.0	0.0005483	34.0149998665
1010.0	0.0005483	34.0620000362
1010.0	0.0005483	34.1089999676
1010.0	0.0005488	34.1399998665
1010.0	0.0005483	34.1870000362
1010.0	0.000548	34.2179999352
1010.0	0.0005483	34.2649998665
1010.0	0.0005483	34.3120000362
1010.0	0.0005483	34.3429999352
1010.0	0.0005488	34.3899998665
1010.0	0.000549	34.4370000362
1010.0	0.0005493	34.4679999352
1010.0	0.0005495	34.5149998665
1010.0	0.0005495	34.5460000038
1010.0	0.00055	34.5929999352
1010.0	0.0005495	34.6399998665
1010.0	0.0005495	34.6710000038
1010.0	0.0005495	34.7179999352
1010.0	0.0005493	34.7649998665
1010.0	0.0005493	34.7960000038
1010.0	0.0005493	34.8429999352
1010.0	0.0005493	34.875
1010.0	0.0005493	34.9210000038
1010.0	0.0005495	34.9679999352
1010.0	0.0005493	35.0
1020.0	0.000562	35.2809998989
1020.0	0.0005668	35.3280000687
1020.0	0.0005703	35.375
1020.0	0.000573	35.4059998989
1020.0	0.0005753	35.4530000687
1020.0	0.000577	35.5
1020.0	0.000578	35.5460000038
1020.0	0.000579	35.5780000687
1020.0	0.0005793	35.625
1020.0	0.0005795	35.6559998989
1020.0	0.00058	35.7030000687
1020.0	0.00058	35.75
1020.0	0.0005803	35.7809998989
1020.0	0.0005803	35.8280000687
1020.0	0.00058	35.875
1020.0	0.00058	35.9059998989
1020.0	0.00058	35.9530000687
1020.0	0.00058	35.9839999676
1020.0	0.00058	36.0309998989
1020.0	0.0005803	36.0780000687
1020.0	0.0005803	36.1089999676
1020.0	0.0005803	36.1559998989
1020.0	0.00058	36.2030000687
1020.0	0.00058	36.2339999676
1020.0	0.00058	36.2809998989
1020.0	0.0005793	36.3120000362
1020.0	0.0005793	36.3589999676
1020.0	0.000579	36.4059998989
1020.0	0.000579	36.4370000362
1020.0	0.000579	36.4839999676
1020.0	0.000579	36.5309998989
1020.0	0.0005788	36.5620000362
1020.0	0.000578	36.6089999676
1020.0	0.000578	36.6559998989
1020.0	0.000578	36.6870000362
1020.0	0.000578	36.7339999676
1020.0	0.000578	36.7649998665
1030.0	0.0005905	37.0620000362
1030.0	0.0005943	37.0929999352
1030.0	0.000598	37.1399998665
1030.0	0.0006008	37.1710000038
1030.0	0.000603	37.2179999352
1030.0	0.0006045	37.2649998665
1030.0	0.0006058	37.2960000038
1030.0	0.0006065	37.3429999352
1030.0	0.0006075	37.3899998665
1030.0	0.0006078	37.4210000038
1030.0	0.000608	37.4679999352
1030.0	0.000608	37.5
1030.0	0.000608	37.5460000038
1030.0	0.0006088	37.5929999352
1030.0	0.0006093	37.625
1030.0	0.00061	37.6710000038
1030.0	0.0006103	37.7179999352
1030.0	0.0006105	37.75
1030.0	0.0006105	37.7960000038
1030.0	0.0006103	37.8280000687
1030.0	0.0006103	37.875
1030.0	0.0006103	37.9210000038
1030.0	0.00061	37.9530000687
1030.0	0.00061	38.0
1030.0	0.0006103	38.0460000038
1030.0	0.00061	38.0780000687
1030.0	0.00061	38.125
1030.0	0.00061	38.1710000038
1030.0	0.00061	38.2030000687
1030.0	0.00061	38.25
1030.0	0.00061	38.2960000038
1030.0	0.0006103	38.3280000687
1030.0	0.0006105	38.375
1030.0	0.0006105	38.4210000038
1030.0	0.0006105	38.4530000687
1030.0	0.0006105	38.5
1030.0	0.0006103	38.5309998989
1040.0	0.0006228	38.8280000687
1040.0	0.0006268	38.8589999676
1040.0	0.00063	38.9059998989
1040.0	0.000633	38.9370000362
1040.0	0.000635	38.9839999676
1040.0	0.0006368	39.0309998989
1040.0	0.000638	39.0620000362
1040.0	0.0006393	39.1089999676
1040.0	0.0006398	39.1559998989
1040.0	0.0006403	39.1870000362
1040.0	0.0006403	39.2339999676
1040.0	0.000641	39.2649998665
1040.0	0.0006413	39.3120000362
1040.0	0.0006415	39.3589999676
1040.0	0.0006418	39.3899998665
1040.0	0.0006423	39.4370000362
1040.0	0.0006423	39.4839999676
1040.0	0.0006425	39.5149998665
1040.0	0.0006428	39.5620000362
1040.0	0.0006435	39.6089999676
1040.0	0.0006435	39.6399998665
1040.0	0.0006435	39.6870000362
1040.0	0.0006435	39.7179999352
1040.0	0.0006435	39.7649998665
1040.0	0.0006435	39.8120000362
1040.0	0.0006435	39.8429999352
1040.0	0.0006435	39.8899998665
1040.0	0.000643	39.9370000362
1040.0	0.000643	39.9679999352
1040.0	0.0006428	40.0149998665
1040.0	0.0006428	40.0460000038
1040.0	0.0006425	40.0929999352
1040.0	0.0006425	40.1399998665
1040.0	0.0006428	40.1710000038
1040.0	0.0006428	40.2179999352
1040.0	0.0006428	40.2649998665
1040.0	0.0006428	40.2960000038
1050.0	0.000654	40.5780000687
1050.0	0.000658	40.625
1050.0	0.000661	40.6710000038
1050.0	0.0006638	40.7030000687
1050.0	0.000666	40.75
1050.0	0.0006675	40.7960000038
1050.0	0.000669	40.8280000687
1050.0	0.0006703	40.875
1050.0	0.000671	40.9210000038
1050.0	0.0006713	40.9530000687
1050.0	0.0006713	41.0
1050.0	0.0006713	41.0309998989
1050.0	0.0006715	41.0780000687
1050.0	0.0006715	41.125
1050.0	0.0006715	41.1559998989
1050.0	0.0006715	41.2030000687
1050.0	0.0006715	41.25
1050.0	0.0006715	41.2809998989
1050.0	0.0006718	41.3280000687
1050.0	0.0006718	41.375
1050.0	0.0006723	41.4059998989
1050.0	0.0006715	41.4530000687
1050.0	0.0006713	41.4839999676
1050.0	0.0006713	41.5309998989
1050.0	0.000671	41.5780000687
1050.0	0.000671	41.6089999676
1050.0	0.000671	41.6559998989
1050.0	0.0006705	41.7030000687
1050.0	0.0006705	41.7339999676
1050.0	0.0006705	41.7809998989
1050.0	0.0006703	41.8120000362
1050.0	0.000671	41.8589999676
1050.0	0.000671	41.9059998989
1050.0	0.000671	41.9370000362
1050.0	0.000671	41.9839999676
1050.0	0.0006705	42.0309998989
1050.0	0.0006705	42.0620000362
1060.0	0.0006823	42.3429999352
1060.0	0.0006863	42.3899998665
1060.0	0.0006893	42.4370000362
1060.0	0.0006918	42.4679999352
1060.0	0.000694	42.5149998665
1060.0	0.0006955	42.5620000362
1060.0	0.0006968	42.5929999352
1060.0	0.0006978	42.6399998665
1060.0	0.0006985	42.6710000038
1060.0	0.0006993	42.7179999352
1060.0	0.0007	42.7649998665
1060.0	0.0007	42.7960000038
1060.0	0.0007005	42.8429999352
1060.0	0.000701	42.875
1060.0	0.0007013	42.9210000038
1060.0	0.0007015	42.9679999352
1060.0	0.0007015	43.0
1060.0	0.0007018	43.0460000038
1060.0	0.0007018	43.0929999352
1060.0	0.0007023	43.125
1060.0	0.0007028	43.1710000038
1060.0	0.0007028	43.2179999352
1060.0	0.0007028	43.25
1060.0	0.000703	43.2960000038
1060.0	0.0007028	43.3280000687
1060.0	0.0007025	43.375
1060.0	0.0007025	43.4210000038
1060.0	0.0007025	43.4530000687
1060.0	0.0007025	43.5
1060.0	0.000703	43.5460000038
1060.0	0.0007038	43.5780000687
1060.0	0.0007043	43.625
1060.0	0.0007048	43.6559998989
1060.0	0.0007048	43.7030000687
1060.0	0.0007048	43.75
1060.0	0.0007048	43.7809998989
1060.0	0.0007048	43.8280000687
1070.0	0.0007155	44.1089999676
1070.0	0.000719	44.1559998989
1070.0	0.0007225	44.1870000362
1070.0	0.0007253	44.2339999676
1070.0	0.0007273	44.2809998989
1070.0	0.000729	44.3120000362
1070.0	0.0007303	44.3589999676
1070.0	0.0007318	44.4059998989
1070.0	0.0007328	44.4370000362
1070.0	0.000733	44.4839999676
1070.0	0.0007338	44.5149998665
1070.0	0.000734	44.5620000362
1070.0	0.0007338	44.6089999676
1070.0	0.0007338	44.6399998665
1070.0	0.0007335	44.6870000362
1070.0	0.000733	44.7339999676
1070.0	0.0007328	44.7649998665
1070.0	0.0007328	44.8120000362
1070.0	0.000733	44.8429999352
1070.0	0.0007328	44.8899998665
1070.0	0.000733	44.9370000362
1070.0	0.0007328	44.9679999352
1070.0	0.0007328	45.0149998665
1070.0	0.0007325	45.0620000362
1070.0	0.0007328	45.0929999352
1070.0	0.0007328	45.1399998665
1070.0	0.0007328	45.1870000362
1070.0	0.000733	45.2179999352
1070.0	0.000733	45.2649998665
1070.0	0.0007328	45.2960000038
1070.0	0.0007328	45.3429999352
1070.0	0.0007325	45.3899998665
1070.0	0.0007323	45.4210000038
1070.0	0.0007323	45.4679999352
1070.0	0.0007318	45.5
1070.0	0.0007315	45.5460000038
1070.0	0.0007315	45.5929999352
1080.0	0.0007425	45.875
1080.0	0.0007455	45.9210000038
1080.0	0.0007488	45.9530000687
1080.0	0.0007513	46.0
1080.0	0.0007528	46.0309998989
1080.0	0.0007543	46.0780000687
1080.0	0.0007553	46.125
1080.0	0.000756	46.1559998989
1080.0	0.0007565	46.2030000687
1080.0	0.0007568	46.25
1080.0	0.0007573	46.2809998989
1080.0	0.0007575	46.3280000687
1080.0	0.0007573	46.3589999676
1080.0	0.0007573	46.4059998989
1080.0	0.0007573	46.4530000687
1080.0	0.0007573	46.4839999676
1080.0	0.0007573	46.5309998989
1080.0	0.0007568	46.5780000687
1080.0	0.0007565	46.6089999676
1080.0	0.0007565	46.6559998989
1080.0	0.0007563	46.7030000687
1080.0	0.0007565	46.7339999676
1080.0	0.0007565	46.7809998989
1080.0	0.0007565	46.8280000687
1080.0	0.0007573	46.8589999676
1080.0	0.0007578	46.9059998989
1080.0	0.0007578	46.9370000362
1080.0	0.0007575	46.9839999676
1080.0	0.0007573	47.0309998989
1080.0	0.0007568	47.0620000362
1080.0	0.0007573	47.1089999676
1080.0	0.0007568	47.1559998989
1080.0	0.0007575	47.1870000362
1080.0	0.0007578	47.2339999676
1080.0	0.0007578	47.2809998989
1080.0	0.0007578	47.3120000362
1080.0	0.0007573	47.3589999676
1090.0	0.0007678	47.6399998665
1090.0	0.000771	47.6870000362
1090.0	0.0007738	47.7179999352
1090.0	0.000776	47.7649998665
1090.0	0.0007773	47.7960000038
1090.0	0.0007785	47.8429999352
1090.0	0.0007793	47.8899998665
1090.0	0.00078	47.9210000038
1090.0	0.000781	47.9679999352
1090.0	0.0007815	48.0149998665
1090.0	0.0007818	48.0460000038
1090.0	0.0007825	48.0929999352
1090.0	0.0007828	48.125
1090.0	0.0007828	48.1710000038
1090.0	0.0007835	48.2179999352
1090.0	0.000783	48.25
1090.0	0.000783	48.2960000038
1090.0	0.0007835	48.3429999352
1090.0	0.000783	48.375
1090.0	0.0007835	48.4210000038
1090.0	0.000784	48.4679999352
1090.0	0.000784	48.5
1090.0	0.0007843	48.5460000038
1090.0	0.0007843	48.5780000687
1090.0	0.000784	48.625
1090.0	0.0007843	48.6710000038
1090.0	0.0007843	48.7030000687
1090.0	0.0007843	48.75
1090.0	0.0007848	48.7960000038
1090.0	0.0007848	48.8280000687
1090.0	0.0007848	48.875
1090.0	0.0007848	48.9059998989
1090.0	0.0007843	48.9530000687
1090.0	0.0007848	49.0
1090.0	0.0007848	49.0309998989
1090.0	0.0007843	49.0780000687
1090.0	0.000785	49.125
1100.0	0.000796	49.3899998665
1100.0	0.0007988	49.4370000362
1100.0	0.000801	49.4839999676
1100.0	0.0008028	49.5149998665
1100.0	0.0008043	49.5620000362
1100.0	0.000806	49.6089999676
1100.0	0.0008068	49.6399998665
1100.0	0.0008075	49.6870000362
1100.0	0.0008078	49.7179999352
1100.0	0.0008085	49.7649998665
1100.0	0.0008085	49.8120000362
1100.0	0.0008088	49.8429999352
1100.0	0.000809	49.8899998665
1100.0	0.000809	49.9370000362
1100.0	0.0008093	49.9679999352
1100.0	0.0008093	50.0149998665
1100.0	0.0008093	50.0620000362
1100.0	0.0008093	50.0929999352
1100.0	0.000809	50.1399998665
1100.0	0.000809	50.1710000038
1100.0	0.000809	50.2179999352
1100.0	0.000809	50.2649998665
1100.0	0.0008088	50.2960000038
1100.0	0.0008088	50.3429999352
1100.0	0.0008088	50.375
1100.0	0.0008085	50.4210000038
1100.0	0.000808	50.4679999352
1100.0	0.000808	50.5
1100.0	0.0008085	50.5460000038
1100.0	0.0008085	50.5929999352
1100.0	0.0008085	50.625
1100.0	0.0008088	50.6710000038
1100.0	0.0008088	50.7030000687
1100.0	0.0008085	50.75
1100.0	0.0008088	50.7960000038
1100.0	0.0008088	50.8280000687
1100.0	0.0008088	50.875
1110.0	0.000816	51.1559998989
1110.0	0.0008185	51.2030000687
1110.0	0.0008205	51.2339999676
1110.0	0.0008223	51.2809998989
1110.0	0.0008238	51.3120000362
1110.0	0.000825	51.3589999676
1110.0	0.0008255	51.4059998989
1110.0	0.0008263	51.4370000362
1110.0	0.0008265	51.4839999676
1110.0	0.0008268	51.5309998989
1110.0	0.0008268	51.5620000362
1110.0	0.0008268	51.6089999676
1110.0	0.0008265	51.6399998665
1110.0	0.0008265	51.6870000362
1110.0	0.0008263	51.7339999676
1110.0	0.0008263	51.7649998665
1110.0	0.0008263	51.8120000362
1110.0	0.0008265	51.8589999676
1110.0	0.0008265	51.8899998665
1110.0	0.0008265	51.9370000362
1110.0	0.0008263	51.9839999676
1110.0	0.0008263	52.0149998665
1110.0	0.000826	52.0620000362
1110.0	0.0008265	52.0929999352
1110.0	0.0008265	52.1399998665
1110.0	0.0008265	52.1870000362
1110.0	0.0008268	52.2179999352
1110.0	0.0008268	52.2649998665
1110.0	0.0008265	52.3120000362
1110.0	0.0008268	52.3429999352
1110.0	0.0008263	52.3899998665
1110.0	0.000826	52.4210000038
1110.0	0.0008263	52.4679999352
1110.0	0.000826	52.5149998665
1110.0	0.000826	52.5460000038
1110.0	0.0008263	52.5929999352
1110.0	0.0008263	52.6399998665
1120.0	0.0008318	52.9059998989
1120.0	0.0008338	52.9530000687
1120.0	0.0008355	52.9839999676
1120.0	0.0008373	53.0309998989
1120.0	0.0008385	53.0780000687
1120.0	0.0008398	53.1089999676
1120.0	0.0008405	53.1559998989
1120.0	0.000841	53.2030000687
1120.0	0.0008413	53.2339999676
1120.0	0.0008415	53.2809998989
1120.0	0.0008423	53.3120000362
1120.0	0.0008425	53.3589999676
1120.0	0.0008428	53.4059998989
1120.0	0.000843	53.4370000362
1120.0	0.0008435	53.4839999676
1120.0	0.000843	53.5309998989
1120.0	0.0008428	53.5620000362
1120.0	0.0008428	53.6089999676
1120.0	0.0008428	53.6559998989
1120.0	0.000843	53.6870000362
1120.0	0.000843	53.7339999676
1120.0	0.0008435	53.7649998665
1120.0	0.0008435	53.8120000362
1120.0	0.000843	53.8589999676
1120.0	0.000843	53.8899998665
1120.0	0.0008428	53.9370000362
1120.0	0.0008425	53.9839999676
1120.0	0.0008428	54.0149998665
1120.0	0.0008428	54.0620000362
1120.0	0.0008428	54.0929999352
1120.0	0.000843	54.1399998665
1120.0	0.000843	54.1870000362
1120.0	0.0008435	54.2179999352
1120.0	0.0008435	54.2649998665
1120.0	0.0008435	54.3120000362
1120.0	0.0008438	54.3429999352
1120.0	0.0008435	54.3899998665
1130.0	0.0008493	54.6559998989
1130.0	0.0008515	54.7030000687
1130.0	0.0008535	54.75
1130.0	0.0008548	54.7809998989
1130.0	0.000856	54.8280000687
1130.0	0.0008565	54.875
1130.0	0.0008575	54.9059998989
1130.0	0.000858	54.9530000687
1130.0	0.0008585	54.9839999676
1130.0	0.0008588	55.0309998989
1130.0	0.000859	55.0780000687
1130.0	0.000859	55.1089999676
1130.0	0.000859	55.1559998989
1130.0	0.000859	55.2030000687
1130.0	0.0008593	55.2339999676
1130.0	0.0008593	55.2809998989
1130.0	0.0008593	55.3120000362
1130.0	0.0008598	55.3589999676
1130.0	0.0008598	55.4059998989
1130.0	0.0008598	55.4370000362
1130.0	0.00086	55.4839999676
1130.0	0.00086	55.5309998989
1130.0	0.0008603	55.5620000362
1130.0	0.00086	55.6089999676
1130.0	0.0008603	55.6559998989
1130.0	0.000861	55.6870000362
1130.0	0.0008613	55.7339999676
1130.0	0.0008615	55.7649998665
1130.0	0.0008623	55.8120000362
1130.0	0.0008618	55.8589999676
1130.0	0.0008618	55.8899998665
1130.0	0.0008615	55.9370000362
1130.0	0.000861	55.9839999676
1130.0	0.0008613	56.0149998665
1130.0	0.0008613	56.0620000362
1130.0	0.0008613	56.0929999352
1130.0	0.0008613	56.1399998665
1140.0	0.0008665	56.4059998989
1140.0	0.000868	56.4530000687
1140.0	0.0008698	56.5
1140.0	0.0008705	56.5309998989
1140.0	0.0008715	56.5780000687
1140.0	0.0008723	56.625
1140.0	0.0008728	56.6559998989
1140.0	0.0008735	56.7030000687
1140.0	0.0008735	56.7339999676
1140.0	0.0008738	56.7809998989
1140.0	0.0008735	56.8280000687
1140.0	0.0008735	56.8589999676
1140.0	0.0008735	56.9059998989
1140.0	0.000873	56.9530000687
1140.0	0.000873	56.9839999676
1140.0	0.000873	57.0309998989
1140.0	0.000873	57.0620000362
1140.0	0.0008725	57.1089999676
1140.0	0.000873	57.1559998989
1140.0	0.0008735	57.1870000362
1140.0	0.0008735	57.2339999676
1140.0	0.0008735	57.2809998989
1140.0	0.0008735	57.3120000362
1140.0	0.0008738	57.3589999676
1140.0	0.0008738	57.4059998989
1140.0	0.0008738	57.4370000362
1140.0	0.0008743	57.4839999676
1140.0	0.0008743	57.5149998665
1140.0	0.000874	57.5620000362
1140.0	0.0008743	57.6089999676
1140.0	0.000874	57.6399998665
1140.0	0.000874	57.6870000362
1140.0	0.000874	57.7339999676
1140.0	0.000874	57.7649998665
1140.0	0.0008743	57.8120000362
1140.0	0.000874	57.8429999352
1140.0	0.0008738	57.8899998665
1150.0	0.0008775	58.1559998989
1150.0	0.0008788	58.2030000687
1150.0	0.00088	58.2339999676
1150.0	0.000881	58.2809998989
1150.0	0.000881	58.3280000687
1150.0	0.0008813	58.375
1150.0	0.0008815	58.4059998989
1150.0	0.0008818	58.4530000687
1150.0	0.0008825	58.4839999676
1150.0	0.0008825	58.5309998989
1150.0	0.000883	58.5780000687
1150.0	0.0008835	58.6089999676
1150.0	0.0008835	58.6559998989
1150.0	0.0008835	58.7030000687
1150.0	0.0008838	58.7339999676
1150.0	0.0008838	58.7809998989
1150.0	0.0008838	58.8280000687
1150.0	0.0008835	58.8589999676
1150.0	0.0008835	58.9059998989
1150.0	0.0008835	58.9530000687
1150.0	0.0008835	58.9839999676
1150.0	0.0008838	59.0309998989
1150.0	0.0008838	59.0620000362
1150.0	0.0008838	59.1089999676
1150.0	0.0008838	59.1559998989
1150.0	0.0008835	59.1870000362
1150.0	0.000883	59.2339999676
1150.0	0.000883	59.2809998989
1150.0	0.0008828	59.3120000362
1150.0	0.0008828	59.3589999676
1150.0	0.0008828	59.4059998989
1150.0	0.0008828	59.4370000362
1150.0	0.0008828	59.4839999676
1150.0	0.000883	59.5149998665
1150.0	0.0008828	59.5620000362
1150.0	0.0008828	59.6089999676
1160.0	0.0008865	59.8589999676
1160.0	0.0008885	59.9059998989
1160.0	0.00089	59.9530000687
1160.0	0.000891	59.9839999676
1160.0	0.0008913	60.0309998989
1160.0	0.0008918	60.0780000687
1160.0	0.0008915	60.1089999676
1160.0	0.0008915	60.1559998989
1160.0	0.0008915	60.2030000687
1160.0	0.0008913	60.2339999676
1160.0	0.0008915	60.2809998989
1160.0	0.0008915	60.3120000362
1160.0	0.0008918	60.3589999676
1160.0	0.0008918	60.4059998989
1160.0	0.0008918	60.4370000362
1160.0	0.0008923	60.4839999676
1160.0	0.0008925	60.5309998989
1160.0	0.0008925	60.5620000362
1160.0	0.0008925	60.6089999676
1160.0	0.0008923	60.6399998665
1160.0	0.0008925	60.6870000362
1160.0	0.0008925	60.7339999676
1160.0	0.0008923	60.7649998665
1160.0	0.0008923	60.8120000362
1160.0	0.0008923	60.8589999676
1160.0	0.0008923	60.8899998665
1160.0	0.0008923	60.9370000362
1160.0	0.0008925	60.9679999352
1160.0	0.0008925	61.0149998665
1160.0	0.0008928	61.0620000362
1160.0	0.0008928	61.0929999352
1160.0	0.000893	61.1399998665
1160.0	0.0008935	61.1870000362
1160.0	0.0008928	61.2179999352
1160.0	0.0008928	61.2649998665
1160.0	0.0008923	61.3120000362
1160.0	0.0008918	61.3429999352
1170.0	0.0008948	61.6089999676
1170.0	0.0008963	61.6399998665
1170.0	0.0008975	61.6870000362
1170.0	0.000899	61.7339999676
1170.0	0.0009	61.7649998665
1170.0	0.000901	61.8120000362
1170.0	0.000901	61.8429999352
1170.0	0.000901	61.8899998665
1170.0	0.0009013	61.9370000362
1170.0	0.0009013	61.9679999352
1170.0	0.0009015	62.0149998665
1170.0	0.0009018	62.0620000362
1170.0	0.0009023	62.0929999352
1170.0	0.0009018	62.1399998665
1170.0	0.0009023	62.1710000038
1170.0	0.0009023	62.2179999352
1170.0	0.0009023	62.2649998665
1170.0	0.0009025	62.2960000038
1170.0	0.0009025	62.3429999352
1170.0	0.0009028	62.3899998665
1170.0	0.0009025	62.4210000038
1170.0	0.0009025	62.4679999352
1170.0	0.0009025	62.5
1170.0	0.0009025	62.5460000038
1170.0	0.000903	62.5929999352
1170.0	0.0009035	62.6399998665
1170.0	0.0009035	62.6710000038
1170.0	0.0009038	62.7179999352
1170.0	0.000904	62.75
1170.0	0.0009038	62.7960000038
1170.0	0.0009038	62.8429999352
1170.0	0.000903	62.875
1170.0	0.0009028	62.9210000038
1170.0	0.0009028	62.9679999352
1170.0	0.0009025	63.0
1170.0	0.0009025	63.0460000038
1170.0	0.000903	63.0929999352
1180.0	0.0009065	63.3429999352
1180.0	0.000908	63.3899998665
1180.0	0.0009093	63.4210000038
1180.0	0.0009103	63.4679999352
1180.0	0.0009113	63.5149998665
1180.0	0.0009118	63.5460000038
1180.0	0.0009123	63.5929999352
1180.0	0.0009128	63.6399998665
1180.0	0.0009128	63.6710000038
1180.0	0.0009128	63.7179999352
1180.0	0.000913	63.75
1180.0	0.000913	63.7960000038
1180.0	0.000913	63.8429999352
1180.0	0.0009135	63.875
1180.0	0.000913	63.9210000038
1180.0	0.0009135	63.9679999352
1180.0	0.0009138	64.0
1180.0	0.0009135	64.0460000038
1180.0	0.0009135	64.0780000687
1180.0	0.0009135	64.125
1180.0	0.0009135	64.1710000038
1180.0	0.0009138	64.2030000687
1180.0	0.0009135	64.25
1180.0	0.0009135	64.2960000038
1180.0	0.0009135	64.3280000687
1180.0	0.0009135	64.375
1180.0	0.0009135	64.4059998989
1180.0	0.0009135	64.4530000687
1180.0	0.0009135	64.5
1180.0	0.0009138	64.5309998989
1180.0	0.000914	64.5780000687
1180.0	0.0009143	64.625
1180.0	0.0009143	64.6559998989
1180.0	0.0009143	64.7030000687
1180.0	0.0009148	64.7339999676
1180.0	0.0009148	64.7809998989
1180.0	0.000915	64.8280000687
1190.0	0.0009185	65.0780000687
1190.0	0.00092	65.125
1190.0	0.000921	65.1710000038
1190.0	0.0009218	65.2030000687
1190.0	0.0009228	65.25
1190.0	0.0009235	65.2809998989
1190.0	0.0009238	65.3280000687
1190.0	0.0009238	65.375
1190.0	0.0009238	65.4059998989
1190.0	0.0009235	65.4530000687
1190.0	0.0009235	65.5
1190.0	0.0009235	65.5309998989
1190.0	0.0009238	65.5780000687
1190.0	0.000924	65.6089999676
1190.0	0.0009248	65.6559998989
1190.0	0.0009248	65.7030000687
1190.0	0.000925	65.7339999676
1190.0	0.000925	65.7809998989
1190.0	0.0009253	65.8280000687
1190.0	0.0009253	65.875
1190.0	0.0009253	65.9059998989
1190.0	0.0009255	65.9530000687
1190.0	0.0009253	65.9839999676
1190.0	0.0009253	66.0309998989
1190.0	0.000925	66.0780000687
1190.0	0.000925	66.1089999676
1190.0	0.0009248	66.1559998989
1190.0	0.0009248	66.2030000687
1190.0	0.0009248	66.2339999676
1190.0	0.000925	66.2809998989
1190.0	0.000925	66.3120000362
1190.0	0.000925	66.3589999676
1190.0	0.000925	66.4059998989
1190.0	0.000925	66.4370000362
1190.0	0.0009253	66.4839999676
1190.0	0.0009253	66.5309998989
1190.0	0.0009253	66.5620000362
1200.0	0.000929	66.8280000687
1200.0	0.0009303	66.875
1200.0	0.0009313	66.9059998989
1200.0	0.0009323	66.9530000687
1200.0	0.0009328	67.0
1200.0	0.0009335	67.0309998989
1200.0	0.0009338	67.0780000687
1200.0	0.0009343	67.1089999676
1200.0	0.0009343	67.1559998989
1200.0	0.0009353	67.2030000687
1200.0	0.0009355	67.2339999676
1200.0	0.000936	67.2809998989
1200.0	0.0009363	67.3280000687
1200.0	0.0009363	67.3589999676
1200.0	0.000936	67.4059998989
1200.0	0.000936	67.4370000362
1200.0	0.0009363	67.4839999676
1200.0	0.000936	67.5309998989
1200.0	0.000936	67.5620000362
1200.0	0.0009355	67.6089999676
1200.0	0.000936	67.6559998989
1200.0	0.000936	67.6870000362
1200.0	0.000936	67.7339999676
1200.0	0.000936	67.7809998989
1200.0	0.0009355	67.8120000362
1200.0	0.000936	67.8589999676
1200.0	0.000936	67.8899998665
1200.0	0.000936	67.9370000362
1200.0	0.0009363	67.9839999676
1200.0	0.0009363	68.0149998665
1200.0	0.0009363	68.0620000362
1200.0	0.0009365	68.1089999676
1200.0	0.0009365	68.1399998665
1200.0	0.0009365	68.1870000362
1200.0	0.0009368	68.2179999352
1200.0	0.0009365	68.2649998665
1200.0	0.0009365	68.3120000362
1210.0	0.0009393	68.5620000362
1210.0	0.000941	68.6089999676
1210.0	0.0009418	68.6559998989
1210.0	0.000943	68.6870000362
1210.0	0.0009443	68.7339999676
1210.0	0.0009453	68.7809998989
1210.0	0.0009455	68.8120000362
1210.0	0.0009463	68.8589999676
1210.0	0.0009463	68.8899998665
1210.0	0.0009463	68.9370000362
1210.0	0.0009465	68.9839999676
1210.0	0.0009465	69.0149998665
1210.0	0.0009468	69.0620000362
1210.0	0.0009468	69.1089999676
1210.0	0.0009468	69.1399998665
1210.0	0.0009465	69.1870000362
1210.0	0.0009465	69.2339999676
1210.0	0.0009463	69.2649998665
1210.0	0.0009463	69.3120000362
1210.0	0.0009463	69.3429999352
1210.0	0.0009463	69.3899998665
1210.0	0.0009465	69.4370000362
1210.0	0.0009463	69.4679999352
1210.0	0.0009463	69.5149998665
1210.0	0.0009465	69.5620000362
1210.0	0.0009465	69.5929999352
1210.0	0.0009473	69.6399998665
1210.0	0.0009475	69.6710000038
1210.0	0.0009475	69.7179999352
1210.0	0.0009478	69.7649998665
1210.0	0.0009475	69.7960000038
1210.0	0.0009475	69.8429999352
1210.0	0.0009475	69.8899998665
1210.0	0.0009475	69.9370000362
1210.0	0.0009475	69.9679999352
1210.0	0.0009475	70.0149998665
1210.0	0.0009475	70.0460000038
1220.0	0.000951	70.3120000362
1220.0	0.0009525	70.3589999676
1220.0	0.0009538	70.4059998989
1220.0	0.0009553	70.4370000362
1220.0	0.0009563	70.4839999676
1220.0	0.0009573	70.5309998989
1220.0	0.0009575	70.5620000362
1220.0	0.0009575	70.6089999676
1220.0	0.0009578	70.6559998989
1220.0	0.000958	70.6870000362
1220.0	0.0009578	70.7339999676
1220.0	0.0009578	70.7649998665
1220.0	0.0009578	70.8120000362
1220.0	0.0009578	70.8589999676
1220.0	0.0009578	70.8899998665
1220.0	0.0009575	70.9370000362
1220.0	0.0009578	70.9839999676
1220.0	0.0009585	71.0149998665
1220.0	0.0009585	71.0620000362
1220.0	0.0009588	71.1089999676
1220.0	0.0009585	71.1399998665
1220.0	0.000958	71.1870000362
1220.0	0.000958	71.2339999676
1220.0	0.0009578	71.2649998665
1220.0	0.000958	71.3120000362
1220.0	0.000958	71.3429999352
1220.0	0.0009578	71.3899998665
1220.0	0.0009578	71.4370000362
1220.0	0.0009578	71.4679999352
1220.0	0.0009578	71.5149998665
1220.0	0.0009578	71.5620000362
1220.0	0.0009578	71.5929999352
1220.0	0.0009578	71.6399998665
1220.0	0.0009575	71.6710000038
1220.0	0.0009573	71.7179999352
1220.0	0.0009568	71.7649998665
1220.0	0.0009568	71.7960000038
1230.0	0.0009613	72.0620000362
1230.0	0.0009625	72.1089999676
1230.0	0.0009638	72.1559998989
1230.0	0.000965	72.1870000362
1230.0	0.0009663	72.2339999676
1230.0	0.0009665	72.2809998989
1230.0	0.0009673	72.3120000362
1230.0	0.0009675	72.3589999676
1230.0	0.0009673	72.3899998665
1230.0	0.0009673	72.4370000362
1230.0	0.0009668	72.4839999676
1230.0	0.0009668	72.5149998665
1230.0	0.0009673	72.5620000362
1230.0	0.0009675	72.6089999676
1230.0	0.0009678	72.6399998665
1230.0	0.000968	72.6870000362
1230.0	0.000968	72.7339999676
1230.0	0.0009685	72.7649998665
1230.0	0.0009685	72.8120000362
1230.0	0.000968	72.8429999352
1230.0	0.000968	72.8899998665
1230.0	0.0009678	72.9370000362
1230.0	0.0009678	72.9679999352
1230.0	0.0009678	73.0149998665
1230.0	0.0009678	73.0620000362
1230.0	0.0009678	73.0929999352
1230.0	0.0009678	73.1399998665
1230.0	0.0009675	73.1870000362
1230.0	0.0009675	73.2179999352
1230.0	0.0009675	73.2649998665
1230.0	0.0009673	73.3120000362
1230.0	0.0009673	73.3429999352
1230.0	0.0009673	73.3899998665
1230.0	0.0009673	73.4210000038
1230.0	0.0009675	73.4679999352
1230.0	0.0009675	73.5149998665
1230.0	0.0009675	73.5460000038
1240.0	0.0009713	73.8280000687
1240.0	0.0009725	73.8589999676
1240.0	0.000974	73.9059998989
1240.0	0.000975	73.9530000687
1240.0	0.0009755	73.9839999676
1240.0	0.0009763	74.0309998989
1240.0	0.0009765	74.0620000362
1240.0	0.0009768	74.1089999676
1240.0	0.0009773	74.1559998989
1240.0	0.0009775	74.1870000362
1240.0	0.0009778	74.2339999676
1240.0	0.0009785	74.2809998989
1240.0	0.0009785	74.3120000362
1240.0	0.000978	74.3589999676
1240.0	0.000978	74.3899998665
1240.0	0.0009775	74.4370000362
1240.0	0.0009775	74.4839999676
1240.0	0.0009773	74.5149998665
1240.0	0.0009778	74.5620000362
1240.0	0.0009775	74.6089999676
1240.0	0.0009775	74.6399998665
1240.0	0.0009778	74.6870000362
1240.0	0.0009775	74.7339999676
1240.0	0.0009775	74.7649998665
1240.0	0.0009773	74.8120000362
1240.0	0.0009768	74.8429999352
1240.0	0.0009773	74.8899998665
1240.0	0.0009775	74.9370000362
1240.0	0.0009773	74.9679999352
1240.0	0.0009773	75.0149998665
1240.0	0.0009773	75.0620000362
1240.0	0.0009765	75.0929999352
1240.0	0.0009765	75.1399998665
1240.0	0.0009765	75.1870000362
1240.0	0.0009768	75.2179999352
1240.0	0.0009773	75.2649998665
1240.0	0.0009768	75.3120000362
1250.0	0.0009813	75.5780000687
1250.0	0.0009825	75.625
1250.0	0.0009838	75.6559998989
1250.0	0.0009848	75.7030000687
1250.0	0.0009853	75.7339999676
1250.0	0.000986	75.7809998989
1250.0	0.0009865	75.8280000687
1250.0	0.0009865	75.8589999676
1250.0	0.0009868	75.9059998989
1250.0	0.0009873	75.9530000687
1250.0	0.0009868	75.9839999676
1250.0	0.0009868	76.0309998989
1250.0	0.0009868	76.0620000362
1250.0	0.0009868	76.1089999676
1250.0	0.0009865	76.1559998989
1250.0	0.0009865	76.1870000362
1250.0	0.0009865	76.2339999676
1250.0	0.0009868	76.2809998989
1250.0	0.0009868	76.3120000362
1250.0	0.0009868	76.3589999676
1250.0	0.0009868	76.4059998989
1250.0	0.0009865	76.4370000362
1250.0	0.0009868	76.4839999676
1250.0	0.0009865	76.5149998665
1250.0	0.0009865	76.5620000362
1250.0	0.0009865	76.6089999676
1250.0	0.0009865	76.6399998665
1250.0	0.0009865	76.6870000362
1250.0	0.0009868	76.7339999676
1250.0	0.0009865	76.7649998665
1250.0	0.0009865	76.8120000362
1250.0	0.0009863	76.8429999352
1250.0	0.0009863	76.8899998665
1250.0	0.0009863	76.9370000362
1250.0	0.0009863	76.9679999352
1250.0	0.0009865	77.0149998665
1250.0	0.0009865	77.0620000362
1260.0	0.0009893	77.3280000687
1260.0	0.0009905	77.3589999676
1260.0	0.0009915	77.4059998989
1260.0	0.0009925	77.4530000687
1260.0	0.0009935	77.4839999676
1260.0	0.0009935	77.5309998989
1260.0	0.0009938	77.5780000687
1260.0	0.0009943	77.6089999676
1260.0	0.0009943	77.6559998989
1260.0	0.0009948	77.7030000687
1260.0	0.000995	77.7339999676
1260.0	0.0009953	77.7809998989
1260.0	0.000996	77.8120000362
1260.0	0.000996	77.8589999676
1260.0	0.0009963	77.9059998989
1260.0	0.0009965	77.9370000362
1260.0	0.0009963	77.9839999676
1260.0	0.0009963	78.0309998989
1260.0	0.0009963	78.0620000362
1260.0	0.0009955	78.1089999676
1260.0	0.0009955	78.1399998665
1260.0	0.0009955	78.1870000362
1260.0	0.000996	78.2339999676
1260.0	0.0009963	78.2649998665
1260.0	0.0009963	78.3120000362
1260.0	0.0009963	78.3589999676
1260.0	0.0009965	78.3899998665
1260.0	0.0009965	78.4370000362
1260.0	0.0009965	78.4839999676
1260.0	0.0009968	78.5149998665
1260.0	0.0009965	78.5620000362
1260.0	0.0009968	78.6089999676
1260.0	0.0009968	78.6399998665
1260.0	0.0009968	78.6870000362
1260.0	0.0009968	78.7339999676
1260.0	0.0009968	78.7649998665
1260.0	0.0009973	78.8120000362
1270.0	0.0009993	79.0780000687
1270.0	0.0010005	79.125
1270.0	0.0010013	79.1559998989
1270.0	0.0010018	79.2030000687
1270.0	0.0010025	79.2339999676
1270.0	0.0010028	79.2809998989
1270.0	0.001003	79.3280000687
1270.0	0.0010035	79.3589999676
1270.0	0.0010038	79.4059998989
1270.0	0.0010035	79.4530000687
1270.0	0.0010038	79.4839999676
1270.0	0.0010038	79.5309998989
1270.0	0.0010038	79.5620000362
1270.0	0.001004	79.6089999676
1270.0	0.0010038	79.6559998989
1270.0	0.0010038	79.6870000362
1270.0	0.0010043	79.7339999676
1270.0	0.0010043	79.7809998989
1270.0	0.0010048	79.8120000362
1270.0	0.0010043	79.8589999676
1270.0	0.0010043	79.8899998665
1270.0	0.0010043	79.9370000362
1270.0	0.001004	79.9839999676
1270.0	0.001004	80.0149998665
1270.0	0.0010048	80.0620000362
1270.0	0.0010048	80.1089999676
1270.0	0.0010048	80.1399998665
1270.0	0.0010048	80.1870000362
1270.0	0.0010043	80.2339999676
1270.0	0.0010048	80.2649998665
1270.0	0.0010048	80.3120000362
1270.0	0.0010048	80.3429999352
1270.0	0.001005	80.3899998665
1270.0	0.001005	80.4370000362
1270.0	0.0010048	80.4679999352
1270.0	0.0010048	80.5149998665
1270.0	0.0010048	80.5620000362
1280.0	0.0010048	80.8280000687
1280.0	0.0010053	80.8589999676
1280.0	0.0010053	80.9059998989
1280.0	0.0010055	80.9530000687
1280.0	0.0010055	80.9839999676
1280.0	0.0010055	81.0309998989
1280.0	0.001006	81.0780000687
1280.0	0.001006	81.1089999676
1280.0	0.001006	81.1559998989
1280.0	0.001006	81.2030000687
1280.0	0.0010055	81.2339999676
1280.0	0.0010053	81.2809998989
1280.0	0.001005	81.3120000362
1280.0	0.001005	81.3589999676
1280.0	0.0010048	81.4059998989
1280.0	0.0010048	81.4370000362
1280.0	0.0010048	81.4839999676
1280.0	0.0010048	81.5309998989
1280.0	0.0010043	81.5620000362
1280.0	0.0010043	81.6089999676
1280.0	0.0010043	81.6399998665
1280.0	0.0010048	81.6870000362
1280.0	0.0010043	81.7339999676
1280.0	0.001004	81.7649998665
1280.0	0.001004	81.8120000362
1280.0	0.0010038	81.8589999676
1280.0	0.0010038	81.8899998665
1280.0	0.0010038	81.9370000362
1280.0	0.001004	81.9679999352
1280.0	0.001004	82.0149998665
1280.0	0.001004	82.0620000362
1280.0	0.001004	82.0929999352
1280.0	0.001004	82.1399998665
1280.0	0.001004	82.1870000362
1280.0	0.001004	82.2179999352
1280.0	0.001004	82.2649998665
1280.0	0.0010043	82.3120000362
1290.0	0.001004	82.5780000687
1290.0	0.0010038	82.6089999676
1290.0	0.0010035	82.6559998989
1290.0	0.0010028	82.6870000362
1290.0	0.0010028	82.7339999676
1290.0	0.0010025	82.7809998989
1290.0	0.0010023	82.8120000362
1290.0	0.0010025	82.8589999676
1290.0	0.0010023	82.9059998989
1290.0	0.0010023	82.9370000362
1290.0	0.0010023	82.9839999676
1290.0	0.0010018	83.0149998665
1290.0	0.0010023	83.0620000362
1290.0	0.0010023	83.1089999676
1290.0	0.0010023	83.1399998665
1290.0	0.0010025	83.1870000362
1290.0	0.0010025	83.2339999676
1290.0	0.0010023	83.2649998665
1290.0	0.0010028	83.3120000362
1290.0	0.0010028	83.3589999676
1290.0	0.001003	83.3899998665
1290.0	0.001003	83.4370000362
1290.0	0.0010028	83.4679999352
1290.0	0.0010028	83.5149998665
1290.0	0.0010028	83.5620000362
1290.0	0.0010028	83.5929999352
1290.0	0.0010028	83.6399998665
1290.0	0.0010025	83.6870000362
1290.0	0.0010028	83.7179999352
1290.0	0.0010028	83.7649998665
1290.0	0.001003	83.7960000038
1290.0	0.0010035	83.8429999352
1290.0	0.001003	83.8899998665
1290.0	0.001003	83.9210000038
1290.0	0.0010035	83.9679999352
1290.0	0.0010038	84.0149998665
1290.0	0.001004	84.0460000038
1300.0	0.0010025	84.3120000362
1300.0	0.0010015	84.3589999676
1300.0	0.0010005	84.3899998665
1300.0	0.001	84.4370000362
1300.0	0.0009998	84.4839999676
1300.0	0.0009998	84.5149998665
1300.0	0.0009993	84.5620000362
1300.0	0.0009998	84.6089999676
1300.0	0.0009998	84.6559998989
1300.0	0.0009993	84.6870000362
1300.0	0.0009993	84.7339999676
1300.0	0.000999	84.7649998665
1300.0	0.000999	84.8120000362
1300.0	0.0009993	84.8589999676
1300.0	0.0009993	84.8899998665
1300.0	0.000999	84.9370000362
1300.0	0.0009993	84.9839999676
1300.0	0.000999	85.0149998665
1300.0	0.000999	85.0620000362
1300.0	0.000999	85.1089999676
1300.0	0.0009988	85.1399998665
1300.0	0.0009988	85.1870000362
1300.0	0.0009985	85.2179999352
1300.0	0.0009985	85.2649998665
1300.0	0.0009988	85.3120000362
1300.0	0.0009988	85.3429999352
1300.0	0.0009985	85.3899998665
1300.0	0.0009988	85.4370000362
1300.0	0.0009985	85.4679999352
1300.0	0.0009985	85.5149998665
1300.0	0.0009985	85.5460000038
1300.0	0.0009988	85.5929999352
1300.0	0.0009988	85.6399998665
1300.0	0.0009988	85.6710000038
1300.0	0.0009985	85.7179999352
1300.0	0.0009988	85.7649998665
1310.0	0.0009928	86.0149998665
1310.0	0.0009905	86.0620000362
1310.0	0.0009888	86.1089999676
1310.0	0.0009873	86.1399998665
1310.0	0.000986	86.1870000362
1310.0	0.0009855	86.2339999676
1310.0	0.0009848	86.2649998665
1310.0	0.0009843	86.3120000362
1310.0	0.0009843	86.3429999352
1310.0	0.0009843	86.3899998665
1310.0	0.000984	86.4370000362
1310.0	0.000984	86.4679999352
1310.0	0.000984	86.5149998665
1310.0	0.000984	86.5620000362
1310.0	0.0009835	86.5929999352
1310.0	0.0009835	86.6399998665
1310.0	0.000983	86.6710000038
1310.0	0.000983	86.7179999352
1310.0	0.0009828	86.7649998665
1310.0	0.0009828	86.7960000038
1310.0	0.000983	86.8429999352
1310.0	0.000983	86.8899998665
1310.0	0.0009828	86.9210000038
1310.0	0.0009828	86.9679999352
1310.0	0.0009828	87.0
1310.0	0.0009828	87.0460000038
1310.0	0.0009828	87.0929999352
1310.0	0.0009825	87.125
1310.0	0.0009825	87.1710000038
1310.0	0.0009825	87.2179999352
1310.0	0.0009825	87.25
1310.0	0.0009828	87.2960000038
1310.0	0.0009828	87.3280000687
1310.0	0.0009828	87.375
1310.0	0.000983	87.4210000038
1310.0	0.0009828	87.4530000687
1310.0	0.0009828	87.5
1320.0	0.0009765	87.7649998665
1320.0	0.0009735	87.7960000038
1320.0	0.0009713	87.8429999352
1320.0	0.000969	87.8899998665
1320.0	0.0009675	87.9210000038
1320.0	0.0009668	87.9679999352
1320.0	0.0009663	88.0149998665
1320.0	0.0009655	88.0460000038
1320.0	0.0009655	88.0929999352
1320.0	0.0009655	88.125
1320.0	0.0009655	88.1710000038
1320.0	0.000966	88.2179999352
1320.0	0.0009655	88.25
1320.0	0.0009655	88.2960000038
1320.0	0.0009653	88.3429999352
1320.0	0.000965	88.375
1320.0	0.0009653	88.4210000038
1320.0	0.0009653	88.4679999352
1320.0	0.0009655	88.5
1320.0	0.000966	88.5460000038
1320.0	0.0009663	88.5780000687
1320.0	0.0009663	88.625
1320.0	0.0009663	88.6710000038
1320.0	0.000966	88.7030000687
1320.0	0.000966	88.75
1320.0	0.000966	88.7960000038
1320.0	0.000966	88.8280000687
1320.0	0.0009663	88.875
1320.0	0.0009665	88.9059998989
1320.0	0.0009668	88.9530000687
1320.0	0.0009673	89.0
1320.0	0.0009668	89.0309998989
1320.0	0.0009668	89.0780000687
1320.0	0.0009673	89.125
1320.0	0.0009665	89.1559998989
1320.0	0.0009665	89.2030000687
1320.0	0.0009665	89.25
1330.0	0.0009585	89.5149998665
1330.0	0.0009553	89.5460000038
1330.0	0.0009523	89.5929999352
1330.0	0.00095	89.625
1330.0	0.0009485	89.6710000038
1330.0	0.0009473	89.7179999352
1330.0	0.000946	89.75
1330.0	0.0009448	89.7960000038
1330.0	0.000944	89.8429999352
1330.0	0.0009435	89.875
1330.0	0.000943	89.9210000038
1330.0	0.000943	89.9530000687
1330.0	0.000943	90.0
1330.0	0.0009428	90.0460000038
1330.0	0.0009425	90.0780000687
1330.0	0.0009425	90.125
1330.0	0.0009425	90.1710000038
1330.0	0.0009423	90.2030000687
1330.0	0.0009425	90.25
1330.0	0.0009423	90.2809998989
1330.0	0.0009425	90.3280000687
1330.0	0.0009425	90.375
1330.0	0.0009425	90.4059998989
1330.0	0.0009425	90.4530000687
1330.0	0.0009418	90.5
1330.0	0.0009418	90.5309998989
1330.0	0.0009415	90.5780000687
1330.0	0.0009413	90.625
1330.0	0.0009413	90.6559998989
1330.0	0.0009405	90.7030000687
1330.0	0.0009403	90.7339999676
1330.0	0.0009403	90.7809998989
1330.0	0.0009403	90.8280000687
1330.0	0.0009403	90.8589999676
1330.0	0.0009403	90.9059998989
1330.0	0.0009403	90.9530000687
1330.0	0.0009398	90.9839999676
1340.0	0.0009285	91.25
1340.0	0.0009238	91.2960000038
1340.0	0.0009205	91.3280000687
1340.0	0.0009178	91.375
1340.0	0.0009155	91.4210000038
1340.0	0.0009138	91.4530000687
1340.0	0.0009123	91.5
1340.0	0.000911	91.5309998989
1340.0	0.0009103	91.5780000687
1340.0	0.0009098	91.625
1340.0	0.0009093	91.6559998989
1340.0	0.000909	91.7030000687
1340.0	0.0009088	91.75
1340.0	0.0009085	91.7809998989
1340.0	0.0009085	91.8280000687
1340.0	0.000908	91.8589999676
1340.0	0.0009085	91.9059998989
1340.0	0.0009085	91.9530000687
1340.0	0.0009085	91.9839999676
1340.0	0.0009085	92.0309998989
1340.0	0.000908	92.0780000687
1340.0	0.0009088	92.1089999676
1340.0	0.0009088	92.1559998989
1340.0	0.0009085	92.1870000362
1340.0	0.0009085	92.2339999676
1340.0	0.0009088	92.2809998989
1340.0	0.0009085	92.3120000362
1340.0	0.0009085	92.3589999676
1340.0	0.0009078	92.4059998989
1340.0	0.0009078	92.4370000362
1340.0	0.0009078	92.4839999676
1340.0	0.000908	92.5309998989
1340.0	0.0009085	92.5620000362
1340.0	0.0009085	92.6089999676
1340.0	0.0009085	92.6399998665
1340.0	0.0009088	92.6870000362
1340.0	0.0009088	92.7339999676
1350.0	0.0008975	92.9839999676
1350.0	0.0008935	93.0309998989
1350.0	0.00089	93.0780000687
1350.0	0.0008873	93.1089999676
1350.0	0.000885	93.1559998989
1350.0	0.0008828	93.2030000687
1350.0	0.0008815	93.2339999676
1350.0	0.0008805	93.2809998989
1350.0	0.0008798	93.3120000362
1350.0	0.000879	93.3589999676
1350.0	0.0008785	93.4059998989
1350.0	0.0008785	93.4370000362
1350.0	0.0008785	93.4839999676
1350.0	0.0008785	93.5309998989
1350.0	0.0008785	93.5620000362
1350.0	0.0008785	93.6089999676
1350.0	0.0008785	93.6559998989
1350.0	0.0008785	93.6870000362
1350.0	0.0008785	93.7339999676
1350.0	0.0008785	93.7649998665
1350.0	0.0008788	93.8120000362
1350.0	0.0008785	93.8589999676
1350.0	0.000879	93.9059998989
1350.0	0.000879	93.9370000362
1350.0	0.000879	93.9839999676
1350.0	0.0008798	94.0149998665
1350.0	0.00088	94.0620000362
1350.0	0.0008803	94.1089999676
1350.0	0.0008805	94.1399998665
1350.0	0.0008805	94.1870000362
1350.0	0.0008803	94.2339999676
1350.0	0.0008803	94.2649998665
1350.0	0.00088	94.3120000362
1350.0	0.00088	94.3589999676
1350.0	0.00088	94.3899998665
1350.0	0.00088	94.4370000362
1350.0	0.00088	94.4679999352
1360.0	0.0008668	94.7339999676
1360.0	0.0008623	94.7809998989
1360.0	0.0008585	94.8120000362
1360.0	0.0008553	94.8589999676
1360.0	0.0008525	94.9059998989
1360.0	0.0008505	94.9530000687
1360.0	0.000849	94.9839999676
1360.0	0.000848	95.0309998989
1360.0	0.0008473	95.0620000362
1360.0	0.0008468	95.1089999676
1360.0	0.0008465	95.1559998989
1360.0	0.0008463	95.1870000362
1360.0	0.0008463	95.2339999676
1360.0	0.0008463	95.2809998989
1360.0	0.000846	95.3120000362
1360.0	0.000846	95.3589999676
1360.0	0.000846	95.3899998665
1360.0	0.0008455	95.4370000362
1360.0	0.0008455	95.4839999676
1360.0	0.0008453	95.5149998665
1360.0	0.000845	95.5620000362
1360.0	0.0008448	95.6089999676
1360.0	0.0008443	95.6399998665
1360.0	0.000844	95.6870000362
1360.0	0.000844	95.7339999676
1360.0	0.000844	95.7649998665
1360.0	0.0008443	95.8120000362
1360.0	0.0008448	95.8429999352
1360.0	0.000845	95.8899998665
1360.0	0.0008448	95.9370000362
1360.0	0.000844	95.9679999352
1360.0	0.000844	96.0149998665
1360.0	0.0008435	96.0620000362
1360.0	0.000843	96.0929999352
1360.0	0.0008435	96.1399998665
1360.0	0.0008435	96.1710000038
1360.0	0.0008435	96.2179999352
1370.0	0.0008313	96.4839999676
1370.0	0.0008268	96.5309998989
1370.0	0.000823	96.5620000362
1370.0	0.0008205	96.6089999676
1370.0	0.0008185	96.6399998665
1370.0	0.0008165	96.6870000362
1370.0	0.0008153	96.7339999676
1370.0	0.0008143	96.7649998665
1370.0	0.0008138	96.8120000362
1370.0	0.000813	96.8589999676
1370.0	0.0008125	96.8899998665
1370.0	0.0008125	96.9370000362
1370.0	0.0008115	96.9679999352
1370.0	0.0008115	97.0149998665
1370.0	0.0008115	97.0620000362
1370.0	0.0008115	97.0929999352
1370.0	0.0008115	97.1399998665
1370.0	0.0008113	97.1870000362
1370.0	0.0008113	97.2179999352
1370.0	0.0008115	97.2649998665
1370.0	0.0008118	97.2960000038
1370.0	0.0008118	97.3429999352
1370.0	0.0008123	97.3899998665
1370.0	0.0008123	97.4210000038
1370.0	0.0008125	97.4679999352
1370.0	0.0008128	97.5149998665
1370.0	0.0008128	97.5460000038
1370.0	0.0008128	97.5929999352
1370.0	0.000813	97.625
1370.0	0.000813	97.6710000038
1370.0	0.000813	97.7179999352
1370.0	0.0008128	97.75
1370.0	0.0008128	97.7960000038
1370.0	0.0008135	97.8429999352
1370.0	0.0008135	97.875
1370.0	0.0008135	97.9210000038
1370.0	0.0008138	97.9679999352
1380.0	0.0008035	98.2179999352
1380.0	0.0007993	98.2649998665
1380.0	0.0007963	98.3120000362
1380.0	0.0007938	98.3429999352
1380.0	0.0007923	98.3899998665
1380.0	0.0007903	98.4370000362
1380.0	0.000789	98.4679999352
1380.0	0.0007888	98.5149998665
1380.0	0.0007885	98.5460000038
1380.0	0.000788	98.5929999352
1380.0	0.000788	98.6399998665
1380.0	0.0007878	98.6710000038
1380.0	0.0007878	98.7179999352
1380.0	0.0007878	98.75
1380.0	0.0007878	98.7960000038
1380.0	0.0007875	98.8429999352
1380.0	0.0007873	98.875
1380.0	0.0007873	98.9210000038
1380.0	0.0007868	98.9679999352
1380.0	0.0007865	99.0
1380.0	0.0007865	99.0460000038
1380.0	0.0007865	99.0929999352
1380.0	0.0007865	99.125
1380.0	0.0007865	99.1710000038
1380.0	0.0007865	99.2030000687
1380.0	0.0007865	99.25
1380.0	0.0007873	99.2960000038
1380.0	0.0007865	99.3280000687
1380.0	0.0007865	99.375
1380.0	0.000786	99.4210000038
1380.0	0.000786	99.4530000687
1380.0	0.000786	99.5
1380.0	0.0007855	99.5309998989
1380.0	0.0007853	99.5780000687
1380.0	0.0007853	99.625
1380.0	0.0007853	99.6559998989
1380.0	0.0007853	99.7030000687
1390.0	0.0007748	99.9679999352
1390.0	0.0007715	100.0
1390.0	0.0007693	100.046000004
1390.0	0.0007673	100.092999935
1390.0	0.000766	100.125
1390.0	0.0007643	100.171000004
1390.0	0.0007628	100.217999935
1390.0	0.0007618	100.25
1390.0	0.0007615	100.296000004
1390.0	0.000761	100.328000069
1390.0	0.000761	100.375
1390.0	0.000761	100.421000004
1390.0	0.0007603	100.453000069
1390.0	0.0007603	100.5
1390.0	0.00076	100.546000004
1390.0	0.00076	100.578000069
1390.0	0.0007598	100.625
1390.0	0.0007598	100.655999899
1390.0	0.0007593	100.703000069
1390.0	0.000759	100.75
1390.0	0.000759	100.780999899
1390.0	0.0007588	100.828000069
1390.0	0.0007585	100.875
1390.0	0.0007585	100.905999899
1390.0	0.000758	100.953000069
1390.0	0.0007578	101.0
1390.0	0.0007578	101.030999899
1390.0	0.000758	101.078000069
1390.0	0.0007585	101.108999968
1390.0	0.0007588	101.155999899
1390.0	0.0007593	101.203000069
1390.0	0.0007593	101.233999968
1390.0	0.0007593	101.280999899
1390.0	0.0007593	101.328000069
1390.0	0.0007588	101.358999968
1390.0	0.000759	101.405999899
1390.0	0.000759	101.437000036
1400.0	0.0007525	104.710000038
1400.0	0.0007503	104.756999969
1400.0	0.0007478	104.787999868
1400.0	0.0007465	104.835000038
1400.0	0.0007453	104.881999969
1400.0	0.000744	104.912999868
1400.0	0.0007438	104.960000038
1400.0	0.0007435	105.006999969
1400.0	0.0007428	105.053999901
1400.0	0.0007428	105.085000038
1400.0	0.0007425	105.131999969
1400.0	0.0007423	105.164000034
1400.0	0.0007425	105.210999966
1400.0	0.0007423	105.257999897
1400.0	0.0007425	105.289000034
1400.0	0.0007428	105.335999966
1400.0	0.0007428	105.382999897
1400.0	0.0007428	105.414000034
1400.0	0.0007428	105.460999966
1400.0	0.0007428	105.493000031
1400.0	0.0007428	105.539999962
1400.0	0.0007423	105.586999893
1400.0	0.0007423	105.618000031
1400.0	0.0007423	105.664999962
1400.0	0.0007425	105.711999893
1400.0	0.000743	105.743000031
1400.0	0.0007435	105.789999962
1400.0	0.0007435	105.822000027
1400.0	0.0007438	105.868999958
1400.0	0.000744	105.915999889
1400.0	0.0007438	105.947000027
1400.0	0.000744	105.993999958
1400.0	0.0007438	106.040999889
1400.0	0.0007438	106.072000027
1400.0	0.000744	106.118999958
1400.0	0.0007438	106.165999889
1410.0	0.0007388	106.433000088
1410.0	0.0007373	106.463999987
1410.0	0.000736	106.510999918
1410.0	0.0007353	106.542000055
1410.0	0.0007348	106.588999987
1410.0	0.0007343	106.635999918
1410.0	0.000734	106.667999983
1410.0	0.000734	106.714999914
1410.0	0.0007338	106.762000084
1410.0	0.000733	106.792999983
1410.0	0.0007325	106.839999914
1410.0	0.0007325	106.887000084
1410.0	0.0007325	106.917999983
1410.0	0.0007328	106.964999914
1410.0	0.0007328	106.996000051
1410.0	0.0007328	107.042999983
1410.0	0.0007328	107.089999914
1410.0	0.0007328	107.121999979
1410.0	0.000733	107.16899991
1410.0	0.0007335	107.21600008
1410.0	0.0007335	107.246999979
1410.0	0.0007328	107.29399991
1410.0	0.0007328	107.325000048
1410.0	0.0007323	107.371999979
1410.0	0.0007318	107.41899991
1410.0	0.0007318	107.46600008
1410.0	0.0007318	107.497999907
1410.0	0.0007315	107.545000076
1410.0	0.0007315	107.575999975
1410.0	0.0007315	107.622999907
1410.0	0.0007318	107.670000076
1410.0	0.0007315	107.700999975
1410.0	0.0007315	107.747999907
1410.0	0.0007313	107.795000076
1410.0	0.0007305	107.826999903
1410.0	0.0007303	107.874000072
1410.0	0.0007303	107.921000004
1420.0	0.0007278	108.187000036
1420.0	0.0007268	108.217999935
1420.0	0.000726	108.264999866
1420.0	0.000725	108.296999931
1420.0	0.0007243	108.344000101
1420.0	0.000724	108.391000032
1420.0	0.0007238	108.421999931
1420.0	0.0007235	108.469000101
1420.0	0.0007228	108.516000032
1420.0	0.0007228	108.546999931
1420.0	0.0007228	108.594000101
1420.0	0.0007225	108.625999928
1420.0	0.0007225	108.673000097
1420.0	0.0007225	108.720000029
1420.0	0.0007225	108.750999928
1420.0	0.0007223	108.798000097
1420.0	0.0007223	108.845000029
1420.0	0.0007225	108.875999928
1420.0	0.0007225	108.923000097
1420.0	0.0007225	108.970000029
1420.0	0.0007228	109.000999928
1420.0	0.0007228	109.048000097
1420.0	0.0007228	109.079999924
1420.0	0.0007228	109.127000093
1420.0	0.0007225	109.174000025
1420.0	0.0007228	109.204999924
1420.0	0.0007225	109.252000093
1420.0	0.0007225	109.299000025
1420.0	0.0007225	109.329999924
1420.0	0.0007223	109.377000093
1420.0	0.0007223	109.40899992
1420.0	0.0007225	109.45600009
1420.0	0.0007223	109.503000021
1420.0	0.0007223	109.53399992
1420.0	0.0007223	109.58100009
1420.0	0.0007218	109.628000021
1420.0	0.0007223	109.65899992
1430.0	0.0007215	109.92599988
1430.0	0.0007215	109.97300005
1430.0	0.0007218	110.019999981
1430.0	0.0007218	110.05099988
1430.0	0.0007218	110.09800005
1430.0	0.0007218	110.128999949
1430.0	0.0007213	110.17599988
1430.0	0.0007213	110.22300005
1430.0	0.0007213	110.254999876
1430.0	0.000721	110.302000046
1430.0	0.000721	110.348999977
1430.0	0.000721	110.379999876
1430.0	0.000721	110.427000046
1430.0	0.000721	110.457999945
1430.0	0.0007213	110.504999876
1430.0	0.0007213	110.552000046
1430.0	0.0007213	110.583999872
1430.0	0.000721	110.631000042
1430.0	0.000721	110.677999973
1430.0	0.0007213	110.708999872
1430.0	0.0007213	110.756000042
1430.0	0.0007215	110.786999941
1430.0	0.0007215	110.833999872
1430.0	0.0007218	110.881000042
1430.0	0.0007223	110.911999941
1430.0	0.0007223	110.958999872
1430.0	0.0007225	111.006000042
1430.0	0.0007225	111.037999868
1430.0	0.0007223	111.085000038
1430.0	0.0007223	111.131999969
1430.0	0.0007223	111.162999868
1430.0	0.0007218	111.210000038
1430.0	0.0007218	111.240999937
1430.0	0.0007215	111.287999868
1430.0	0.0007215	111.335000038
1430.0	0.0007218	111.366999865
1430.0	0.0007215	111.414000034
1440.0	0.000724	111.680000067
1440.0	0.000725	111.726999998
1440.0	0.000726	111.757999897
1440.0	0.0007263	111.805000067
1440.0	0.0007265	111.851999998
1440.0	0.0007268	111.884000063
1440.0	0.0007273	111.930999994
1440.0	0.0007273	111.961999893
1440.0	0.0007275	112.009000063
1440.0	0.0007278	112.055999994
1440.0	0.0007278	112.086999893
1440.0	0.000728	112.134000063
1440.0	0.000728	112.180999994
1440.0	0.000728	112.213000059
1440.0	0.0007285	112.25999999
1440.0	0.0007285	112.290999889
1440.0	0.0007285	112.338000059
1440.0	0.0007285	112.38499999
1440.0	0.0007285	112.431999922
1440.0	0.0007285	112.463000059
1440.0	0.0007288	112.50999999
1440.0	0.0007288	112.542000055
1440.0	0.0007288	112.588999987
1440.0	0.000729	112.635999918
1440.0	0.000729	112.667000055
1440.0	0.000729	112.713999987
1440.0	0.000729	112.760999918
1440.0	0.000729	112.792000055
1440.0	0.000729	112.838999987
1440.0	0.0007288	112.885999918
1440.0	0.000729	112.917000055
1440.0	0.000729	112.963999987
1440.0	0.0007288	112.996000051
1440.0	0.000729	113.042999983
1440.0	0.000729	113.089999914
1440.0	0.000729	113.121000051
1440.0	0.0007293	113.167999983
1450.0	0.000733	113.434000015
1450.0	0.000735	113.480999947
1450.0	0.0007365	113.513000011
1450.0	0.0007375	113.559999943
1450.0	0.0007388	113.606999874
1450.0	0.0007393	113.638000011
1450.0	0.0007398	113.684999943
1450.0	0.0007398	113.71600008
1450.0	0.00074	113.763000011
1450.0	0.0007403	113.809999943
1450.0	0.000741	113.842000008
1450.0	0.000741	113.888999939
1450.0	0.000741	113.93599987
1450.0	0.000741	113.967000008
1450.0	0.0007405	114.013999939
1450.0	0.0007405	114.045000076
1450.0	0.0007405	114.092000008
1450.0	0.0007405	114.138999939
1450.0	0.0007405	114.171000004
1450.0	0.0007403	114.217999935
1450.0	0.0007403	114.264999866
1450.0	0.0007405	114.296000004
1450.0	0.0007405	114.342999935
1450.0	0.0007405	114.374000072
1450.0	0.0007405	114.421000004
1450.0	0.000741	114.467999935
1450.0	0.0007413	114.5
1450.0	0.0007415	114.546999931
1450.0	0.0007415	114.594000101
1450.0	0.0007423	114.625
1450.0	0.0007423	114.671999931
1450.0	0.0007425	114.703000069
1450.0	0.0007425	114.75
1450.0	0.0007423	114.796999931
1450.0	0.0007418	114.828000069
1450.0	0.0007418	114.875
1450.0	0.0007418	114.921999931
1460.0	0.000748	115.188999891
1460.0	0.00075	115.220000029
1460.0	0.0007513	115.26699996
1460.0	0.0007525	115.313999891
1460.0	0.0007535	115.345000029
1460.0	0.000754	115.39199996
1460.0	0.0007543	115.438999891
1460.0	0.0007543	115.470999956
1460.0	0.0007548	115.517999887
1460.0	0.0007553	115.549000025
1460.0	0.0007553	115.595999956
1460.0	0.0007555	115.642999887
1460.0	0.0007555	115.674000025
1460.0	0.0007555	115.720999956
1460.0	0.0007555	115.767999887
1460.0	0.0007555	115.799999952
1460.0	0.0007555	115.846999884
1460.0	0.0007555	115.878000021
1460.0	0.0007553	115.924999952
1460.0	0.0007555	115.971999884
1460.0	0.0007553	116.003000021
1460.0	0.0007553	116.049999952
1460.0	0.0007553	116.082000017
1460.0	0.0007553	116.128999949
1460.0	0.0007555	116.17599988
1460.0	0.000756	116.207000017
1460.0	0.0007555	116.253999949
1460.0	0.000756	116.30099988
1460.0	0.000756	116.332000017
1460.0	0.0007563	116.378999949
1460.0	0.0007563	116.42599988
1460.0	0.000756	116.457999945
1460.0	0.000756	116.504999876
1460.0	0.000756	116.536000013
1460.0	0.000756	116.582999945
1460.0	0.000756	116.629999876
1460.0	0.0007555	116.677000046
1470.0	0.000761	116.943000078
1470.0	0.0007638	116.973999977
1470.0	0.0007655	117.020999908
1470.0	0.0007673	117.068000078
1470.0	0.000768	117.099999905
1470.0	0.000769	117.147000074
1470.0	0.0007698	117.177999973
1470.0	0.0007703	117.224999905
1470.0	0.0007703	117.272000074
1470.0	0.000771	117.302999973
1470.0	0.0007713	117.349999905
1470.0	0.0007713	117.397000074
1470.0	0.0007715	117.428999901
1470.0	0.0007713	117.476000071
1470.0	0.0007715	117.523000002
1470.0	0.0007713	117.553999901
1470.0	0.000771	117.601000071
1470.0	0.0007713	117.631999969
1470.0	0.000771	117.678999901
1470.0	0.000771	117.726000071
1470.0	0.000771	117.757999897
1470.0	0.000771	117.805000067
1470.0	0.000771	117.835999966
1470.0	0.000771	117.882999897
1470.0	0.000771	117.930000067
1470.0	0.000771	117.960999966
1470.0	0.0007705	118.007999897
1470.0	0.0007703	118.055000067
1470.0	0.0007703	118.086999893
1470.0	0.0007703	118.134000063
1470.0	0.0007705	118.180999994
1470.0	0.0007705	118.211999893
1470.0	0.0007705	118.259000063
1470.0	0.0007703	118.289999962
1470.0	0.0007703	118.336999893
1470.0	0.0007703	118.384000063
1470.0	0.0007703	118.415999889
1480.0	0.000776	118.681999922
1480.0	0.0007778	118.729000092
1480.0	0.000779	118.776000023
1480.0	0.00078	118.806999922
1480.0	0.0007813	118.854000092
1480.0	0.0007825	118.901000023
1480.0	0.0007835	118.931999922
1480.0	0.0007838	118.979000092
1480.0	0.000784	119.010999918
1480.0	0.0007843	119.058000088
1480.0	0.0007848	119.105000019
1480.0	0.000785	119.135999918
1480.0	0.000785	119.183000088
1480.0	0.000785	119.230000019
1480.0	0.000785	119.260999918
1480.0	0.000785	119.308000088
1480.0	0.0007855	119.339999914
1480.0	0.0007855	119.387000084
1480.0	0.0007855	119.434000015
1480.0	0.0007853	119.464999914
1480.0	0.0007853	119.512000084
1480.0	0.0007853	119.559000015
1480.0	0.0007853	119.589999914
1480.0	0.0007853	119.637000084
1480.0	0.0007855	119.66899991
1480.0	0.0007855	119.71600008
1480.0	0.000786	119.763000011
1480.0	0.0007855	119.79399991
1480.0	0.0007853	119.84100008
1480.0	0.0007853	119.888000011
1480.0	0.0007853	119.91899991
1480.0	0.000785	119.96600008
1480.0	0.0007848	120.013000011
1480.0	0.0007848	120.045000076
1480.0	0.000785	120.092000008
1480.0	0.0007853	120.122999907
1480.0	0.000785	120.170000076
1490.0	0.0007898	120.43599987
1490.0	0.000791	120.48300004
1490.0	0.0007923	120.529999971
1490.0	0.0007935	120.56099987
1490.0	0.000794	120.60800004
1490.0	0.0007948	120.654999971
1490.0	0.0007955	120.687000036
1490.0	0.0007953	120.733999968
1490.0	0.0007953	120.764999866
1490.0	0.0007953	120.812000036
1490.0	0.0007953	120.858999968
1490.0	0.000796	120.889999866
1490.0	0.000796	120.937000036
1490.0	0.0007963	120.983999968
1490.0	0.000796	121.016000032
1490.0	0.000796	121.062999964
1490.0	0.000796	121.094000101
1490.0	0.0007963	121.141000032
1490.0	0.000796	121.187999964
1490.0	0.0007963	121.219000101
1490.0	0.0007963	121.266000032
1490.0	0.0007965	121.312999964
1490.0	0.0007968	121.345000029
1490.0	0.0007965	121.39199996
1490.0	0.0007965	121.423000097
1490.0	0.0007965	121.470000029
1490.0	0.0007963	121.51699996
1490.0	0.0007963	121.548000097
1490.0	0.0007963	121.595000029
1490.0	0.000796	121.64199996
1490.0	0.0007963	121.674000025
1490.0	0.0007965	121.720999956
1490.0	0.0007968	121.752000093
1490.0	0.0007968	121.799000025
1490.0	0.0007965	121.845999956
1490.0	0.0007963	121.877000093
1490.0	0.0007963	121.924000025
1500.0	0.0007988	122.190999985
1500.0	0.0007998	122.237999916
1500.0	0.0008005	122.285000086
1500.0	0.0008013	122.315999985
1500.0	0.0008018	122.362999916
1500.0	0.0008023	122.410000086
1500.0	0.0008025	122.440999985
1500.0	0.0008028	122.487999916
1500.0	0.0008028	122.535000086
1500.0	0.0008035	122.582000017
1500.0	0.0008035	122.612999916
1500.0	0.0008035	122.660000086
1500.0	0.0008035	122.707000017
1500.0	0.0008035	122.739000082
1500.0	0.0008035	122.786000013
1500.0	0.0008035	122.832999945
1500.0	0.0008028	122.864000082
1500.0	0.0008028	122.911000013
1500.0	0.0008025	122.941999912
1500.0	0.0008025	122.989000082
1500.0	0.0008025	123.036000013
1500.0	0.0008025	123.068000078
1500.0	0.0008023	123.11500001
1500.0	0.0008023	123.161999941
1500.0	0.0008023	123.193000078
1500.0	0.0008023	123.24000001
1500.0	0.0008025	123.286999941
1500.0	0.0008025	123.318000078
1500.0	0.0008028	123.36500001
1500.0	0.000803	123.397000074
1500.0	0.0008028	123.444000006
1500.0	0.000803	123.490999937
1500.0	0.0008028	123.522000074
1500.0	0.0008028	123.569000006
1500.0	0.0008025	123.599999905
1500.0	0.0008023	123.647000074
1500.0	0.0008023	123.694000006
1510.0	0.0008038	123.960999966
1510.0	0.000804	124.007999897
1510.0	0.000804	124.055000067
1510.0	0.000804	124.085999966
1510.0	0.0008043	124.132999897
1510.0	0.0008043	124.180000067
1510.0	0.0008043	124.210999966
1510.0	0.0008048	124.257999897
1510.0	0.0008048	124.289999962
1510.0	0.000805	124.336999893
1510.0	0.000805	124.384000063
1510.0	0.000805	124.414999962
1510.0	0.000805	124.461999893
1510.0	0.0008053	124.509000063
1510.0	0.000805	124.539999962
1510.0	0.0008053	124.586999893
1510.0	0.0008053	124.634000063
1510.0	0.0008053	124.664999962
1510.0	0.0008053	124.711999893
1510.0	0.000805	124.759000063
1510.0	0.0008053	124.790999889
1510.0	0.0008053	124.838000059
1510.0	0.000805	124.88499999
1510.0	0.000805	124.915999889
1510.0	0.000805	124.963000059
1510.0	0.0008048	124.993999958
1510.0	0.0008043	125.040999889
1510.0	0.0008048	125.088000059
1510.0	0.0008048	125.119999886
1510.0	0.000805	125.167000055
1510.0	0.000805	125.213999987
1510.0	0.0008048	125.244999886
1510.0	0.0008048	125.292000055
1510.0	0.0008048	125.322999954
1510.0	0.000805	125.369999886
1510.0	0.000805	125.417000055
1510.0	0.000805	125.463999987
1520.0	0.000804	125.730999947
1520.0	0.0008038	125.762000084
1520.0	0.0008038	125.809000015
1520.0	0.0008038	125.855999947
1520.0	0.0008035	125.887000084
1520.0	0.0008035	125.934000015
1520.0	0.0008035	125.980999947
1520.0	0.000803	126.013000011
1520.0	0.0008035	126.059999943
1520.0	0.000803	126.106999874
1520.0	0.0008028	126.138000011
1520.0	0.0008028	126.184999943
1520.0	0.0008028	126.21600008
1520.0	0.0008028	126.263000011
1520.0	0.0008028	126.309999943
1520.0	0.0008028	126.356999874
1520.0	0.0008035	126.388000011
1520.0	0.0008038	126.434999943
1520.0	0.0008038	126.467000008
1520.0	0.0008038	126.513999939
1520.0	0.0008035	126.56099987
1520.0	0.0008035	126.592000008
1520.0	0.0008035	126.638999939
1520.0	0.0008035	126.68599987
1520.0	0.0008038	126.717000008
1520.0	0.0008038	126.763999939
1520.0	0.0008035	126.81099987
1520.0	0.0008035	126.842999935
1520.0	0.0008035	126.889999866
1520.0	0.000803	126.921000004
1520.0	0.000803	126.967999935
1520.0	0.0008028	127.014999866
1520.0	0.000803	127.046000004
1520.0	0.0008028	127.092999935
1520.0	0.0008028	127.139999866
1520.0	0.000803	127.171999931
1520.0	0.0008028	127.219000101
1530.0	0.0008013	127.484999895
1530.0	0.000801	127.532000065
1530.0	0.0008	127.578999996
1530.0	0.0007993	127.609999895
1530.0	0.000799	127.657000065
1530.0	0.0007985	127.703999996
1530.0	0.0007985	127.736000061
1530.0	0.0007985	127.782999992
1530.0	0.000798	127.813999891
1530.0	0.000798	127.861000061
1530.0	0.0007978	127.907999992
1530.0	0.0007978	127.938999891
1530.0	0.0007978	127.986000061
1530.0	0.0007978	128.032999992
1530.0	0.000798	128.065000057
1530.0	0.0007985	128.111999989
1530.0	0.000798	128.142999887
1530.0	0.0007985	128.190000057
1530.0	0.000798	128.236999989
1530.0	0.000798	128.28399992
1530.0	0.0007978	128.315000057
1530.0	0.0007975	128.361999989
1530.0	0.0007975	128.392999887
1530.0	0.0007975	128.440000057
1530.0	0.0007973	128.486999989
1530.0	0.0007978	128.519000053
1530.0	0.0007978	128.565999985
1530.0	0.000798	128.612999916
1530.0	0.0007985	128.644000053
1530.0	0.0007985	128.690999985
1530.0	0.0007988	128.721999884
1530.0	0.0007988	128.769000053
1530.0	0.0007985	128.815999985
1530.0	0.0007988	128.84800005
1530.0	0.0007988	128.894999981
1530.0	0.0007985	128.941999912
1530.0	0.000798	128.97300005
1540.0	0.0007948	129.254999876
1540.0	0.0007938	129.302000046
1540.0	0.0007925	129.332999945
1540.0	0.0007915	129.379999876
1540.0	0.000791	129.411999941
1540.0	0.0007905	129.458999872
1540.0	0.0007903	129.506000042
1540.0	0.00079	129.536999941
1540.0	0.0007898	129.583999872
1540.0	0.0007898	129.631000042
1540.0	0.0007898	129.661999941
1540.0	0.000789	129.708999872
1540.0	0.0007893	129.740999937
1540.0	0.0007898	129.787999868
1540.0	0.0007893	129.835000038
1540.0	0.0007893	129.865999937
1540.0	0.000789	129.912999868
1540.0	0.0007893	129.960000038
1540.0	0.000789	129.990999937
1540.0	0.000789	130.037999868
1540.0	0.0007893	130.085000038
1540.0	0.0007893	130.116999865
1540.0	0.0007893	130.164000034
1540.0	0.0007893	130.210999966
1540.0	0.000789	130.241999865
1540.0	0.000789	130.289000034
1540.0	0.0007893	130.319999933
1540.0	0.0007893	130.366999865
1540.0	0.0007893	130.414000034
1540.0	0.000789	130.444999933
1540.0	0.0007888	130.491999865
1540.0	0.000789	130.539000034
1540.0	0.000789	130.571000099
1540.0	0.0007893	130.618000031
1540.0	0.0007898	130.664999962
1540.0	0.00079	130.711999893
1550.0	0.0007843	130.977999926
1550.0	0.0007823	131.025000095
1550.0	0.0007803	131.072000027
1550.0	0.000779	131.102999926
1550.0	0.0007775	131.150000095
1550.0	0.0007768	131.181999922
1550.0	0.0007763	131.229000092
1550.0	0.0007755	131.276000023
1550.0	0.0007755	131.306999922
1550.0	0.0007753	131.354000092
1550.0	0.0007753	131.401000023
1550.0	0.0007753	131.431999922
1550.0	0.0007755	131.479000092
1550.0	0.0007753	131.510999918
1550.0	0.0007755	131.558000088
1550.0	0.0007763	131.605000019
1550.0	0.0007765	131.635999918
1550.0	0.0007763	131.683000088
1550.0	0.0007763	131.730000019
1550.0	0.0007765	131.760999918
1550.0	0.0007765	131.808000088
1550.0	0.0007765	131.855000019
1550.0	0.0007765	131.887000084
1550.0	0.0007763	131.934000015
1550.0	0.000776	131.964999914
1550.0	0.000776	132.012000084
1550.0	0.0007753	132.059000015
1550.0	0.0007753	132.089999914
1550.0	0.0007755	132.137000084
1550.0	0.0007755	132.184000015
1550.0	0.000776	132.21600008
1550.0	0.0007755	132.262000084
1550.0	0.0007755	132.29399991
1550.0	0.0007755	132.34100008
1550.0	0.000776	132.388000011
1550.0	0.000776	132.41899991
1550.0	0.0007763	132.46600008
1560.0	0.000768	132.731999874
1560.0	0.0007653	132.779000044
1560.0	0.0007635	132.825999975
1560.0	0.0007615	132.85800004
1560.0	0.0007605	132.904999971
1560.0	0.000759	132.93599987
1560.0	0.0007585	132.98300004
1560.0	0.0007578	133.029999971
1560.0	0.0007573	133.06099987
1560.0	0.0007568	133.10800004
1560.0	0.0007565	133.154999971
1560.0	0.0007563	133.187000036
1560.0	0.0007563	133.233999968
1560.0	0.0007563	133.264999866
1560.0	0.0007563	133.312000036
1560.0	0.0007563	133.358999968
1560.0	0.000756	133.389999866
1560.0	0.0007563	133.437000036
1560.0	0.0007565	133.483999968
1560.0	0.0007568	133.516000032
1560.0	0.0007575	133.562999964
1560.0	0.0007578	133.609999895
1560.0	0.0007575	133.641000032
1560.0	0.0007575	133.687999964
1560.0	0.0007575	133.734999895
1560.0	0.0007568	133.766000032
1560.0	0.0007568	133.812999964
1560.0	0.0007573	133.859999895
1560.0	0.0007573	133.89199996
1560.0	0.0007573	133.938999891
1560.0	0.0007568	133.970000029
1560.0	0.0007573	134.01699996
1560.0	0.0007573	134.063999891
1560.0	0.0007573	134.095000029
1560.0	0.0007573	134.14199996
1560.0	0.0007565	134.188999891
1560.0	0.0007563	134.220000029
1570.0	0.0007475	134.502000093
1570.0	0.0007435	134.53399992
1570.0	0.0007405	134.58100009
1570.0	0.000738	134.611999989
1570.0	0.0007365	134.65899992
1570.0	0.000735	134.70600009
1570.0	0.0007338	134.736999989
1570.0	0.000733	134.78399992
1570.0	0.0007325	134.83100009
1570.0	0.0007318	134.862999916
1570.0	0.0007315	134.910000086
1570.0	0.0007315	134.940999985
1570.0	0.0007313	134.987999916
1570.0	0.0007313	135.035000086
1570.0	0.0007313	135.065999985
1570.0	0.0007313	135.112999916
1570.0	0.0007315	135.160000086
1570.0	0.0007315	135.191999912
1570.0	0.0007315	135.239000082
1570.0	0.000731	135.286000013
1570.0	0.0007305	135.316999912
1570.0	0.0007305	135.364000082
1570.0	0.0007305	135.394999981
1570.0	0.0007305	135.441999912
1570.0	0.0007303	135.489000082
1570.0	0.0007303	135.520999908
1570.0	0.0007303	135.568000078
1570.0	0.000731	135.61500001
1570.0	0.0007305	135.645999908
1570.0	0.000731	135.693000078
1570.0	0.000731	135.723999977
1570.0	0.000731	135.770999908
1570.0	0.000731	135.818000078
1570.0	0.0007305	135.849999905
1570.0	0.0007305	135.897000074
1570.0	0.0007305	135.944000006
1570.0	0.0007305	135.974999905
1580.0	0.000718	136.256999969
1580.0	0.000714	136.287999868
1580.0	0.0007105	136.335000038
1580.0	0.0007078	136.381999969
1580.0	0.0007053	136.412999868
1580.0	0.0007035	136.460000038
1580.0	0.0007023	136.506999969
1580.0	0.0007013	136.539000034
1580.0	0.0007005	136.585999966
1580.0	0.0007	136.616999865
1580.0	0.0007	136.664000034
1580.0	0.0006998	136.710999966
1580.0	0.0006998	136.741999865
1580.0	0.0006998	136.789000034
1580.0	0.0006998	136.835999966
1580.0	0.0006998	136.868000031
1580.0	0.0006993	136.914999962
1580.0	0.000699	136.946000099
1580.0	0.000699	136.993000031
1580.0	0.000699	137.039999962
1580.0	0.0006988	137.071000099
1580.0	0.0006988	137.118000031
1580.0	0.0006988	137.164999962
1580.0	0.000699	137.197000027
1580.0	0.000699	137.243999958
1580.0	0.0006985	137.290999889
1580.0	0.0006985	137.322000027
1580.0	0.0006985	137.368999958
1580.0	0.000698	137.400000095
1580.0	0.000698	137.447000027
1580.0	0.000698	137.493999958
1580.0	0.000698	137.526000023
1580.0	0.0006985	137.572999954
1580.0	0.0006985	137.619999886
1580.0	0.0006985	137.651000023
1580.0	0.000698	137.697999954
1580.0	0.0006978	137.729000092
1590.0	0.000685	138.010999918
1590.0	0.0006803	138.058000088
1590.0	0.000676	138.089999914
1590.0	0.0006728	138.135999918
1590.0	0.00067	138.183000088
1590.0	0.000668	138.214999914
1590.0	0.0006668	138.262000084
1590.0	0.0006655	138.292999983
1590.0	0.0006643	138.339999914
1590.0	0.000664	138.387000084
1590.0	0.0006638	138.417999983
1590.0	0.000663	138.464999914
1590.0	0.0006628	138.512000084
1590.0	0.0006625	138.54399991
1590.0	0.0006623	138.59100008
1590.0	0.0006623	138.621999979
1590.0	0.0006618	138.66899991
1590.0	0.0006618	138.71600008
1590.0	0.0006618	138.746999979
1590.0	0.0006618	138.79399991
1590.0	0.0006618	138.84100008
1590.0	0.0006615	138.872999907
1590.0	0.0006615	138.920000076
1590.0	0.0006613	138.950999975
1590.0	0.0006613	138.997999907
1590.0	0.0006613	139.045000076
1590.0	0.0006615	139.075999975
1590.0	0.0006618	139.122999907
1590.0	0.0006618	139.170000076
1590.0	0.0006615	139.201999903
1590.0	0.0006615	139.249000072
1590.0	0.0006618	139.296000004
1590.0	0.0006615	139.326999903
1590.0	0.0006615	139.374000072
1590.0	0.0006613	139.404999971
1590.0	0.0006613	139.451999903
1590.0	0.0006613	139.499000072
1600.0	0.0006463	139.766000032
1600.0	0.0006405	139.812999964
1600.0	0.0006363	139.844000101
1600.0	0.0006328	139.891000032
1600.0	0.00063	139.937999964
1600.0	0.000628	139.969000101
1600.0	0.0006263	140.016000032
1600.0	0.000625	140.062999964
1600.0	0.0006238	140.094000101
1600.0	0.000623	140.141000032
1600.0	0.0006228	140.187999964
1600.0	0.000622	140.220000029
1600.0	0.0006218	140.26699996
1600.0	0.0006215	140.298000097
1600.0	0.0006213	140.345000029
1600.0	0.0006213	140.39199996
1600.0	0.0006213	140.423000097
1600.0	0.0006213	140.470000029
1600.0	0.0006215	140.51699996
1600.0	0.0006218	140.549000025
1600.0	0.000622	140.595999956
1600.0	0.0006225	140.627000093
1600.0	0.000622	140.674000025
1600.0	0.0006218	140.720999956
1600.0	0.0006215	140.752000093
1600.0	0.0006213	140.799000025
1600.0	0.0006215	140.845999956
1600.0	0.0006213	140.878000021
1600.0	0.0006213	140.924999952
1600.0	0.0006215	140.95600009
1600.0	0.0006215	141.003000021
1600.0	0.0006213	141.049999952
1600.0	0.0006215	141.08100009
1600.0	0.0006215	141.128000021
1600.0	0.0006218	141.174999952
1600.0	0.0006218	141.207000017
1600.0	0.0006218	141.253999949
1610.0	0.0006058	141.536000013
1610.0	0.0006003	141.566999912
1610.0	0.0005955	141.614000082
1610.0	0.0005915	141.661000013
1610.0	0.0005888	141.691999912
1610.0	0.0005868	141.739000082
1610.0	0.000585	141.786000013
1610.0	0.0005838	141.818000078
1610.0	0.0005825	141.86500001
1610.0	0.0005818	141.895999908
1610.0	0.0005808	141.943000078
1610.0	0.0005805	141.99000001
1610.0	0.00058	142.020999908
1610.0	0.00058	142.068000078
1610.0	0.0005795	142.11500001
1610.0	0.0005793	142.145999908
1610.0	0.0005793	142.193000078
1610.0	0.0005795	142.224999905
1610.0	0.00058	142.272000074
1610.0	0.00058	142.319000006
1610.0	0.00058	142.349999905
1610.0	0.0005803	142.397000074
1610.0	0.0005803	142.444000006
1610.0	0.0005803	142.474999905
1610.0	0.0005805	142.522000074
1610.0	0.0005805	142.553999901
1610.0	0.0005805	142.601000071
1610.0	0.0005808	142.648000002
1610.0	0.0005813	142.678999901
1610.0	0.0005813	142.726000071
1610.0	0.0005815	142.773000002
1610.0	0.000582	142.803999901
1610.0	0.0005825	142.851000071
1610.0	0.0005825	142.882999897
1610.0	0.0005825	142.930000067
1610.0	0.0005825	142.976999998
1610.0	0.0005818	143.007999897
1620.0	0.0005633	143.289999962
1620.0	0.000557	143.336999893
1620.0	0.000552	143.384000063
1620.0	0.000548	143.414999962
1620.0	0.0005453	143.461999893
1620.0	0.000543	143.493999958
1620.0	0.0005413	143.540999889
1620.0	0.00054	143.588000059
1620.0	0.000539	143.618999958
1620.0	0.000538	143.665999889
1620.0	0.0005375	143.713000059
1620.0	0.000537	143.743999958
1620.0	0.000537	143.790999889
1620.0	0.0005368	143.822999954
1620.0	0.0005368	143.869999886
1620.0	0.0005368	143.917000055
1620.0	0.0005368	143.947999954
1620.0	0.0005368	143.994999886
1620.0	0.0005363	144.042000055
1620.0	0.0005363	144.072999954
1620.0	0.0005363	144.119999886
1620.0	0.0005358	144.151000023
1620.0	0.0005358	144.197999954
1620.0	0.0005355	144.244999886
1620.0	0.0005355	144.27699995
1620.0	0.0005355	144.323999882
1620.0	0.0005355	144.371000051
1620.0	0.0005355	144.40199995
1620.0	0.0005355	144.448999882
1620.0	0.0005353	144.480000019
1620.0	0.0005353	144.52699995
1620.0	0.000535	144.573999882
1620.0	0.0005343	144.605999947
1620.0	0.000534	144.652999878
1620.0	0.000534	144.700000048
1620.0	0.0005338	144.730999947
1620.0	0.0005338	144.777999878
1630.0	0.0005158	145.059999943
1630.0	0.000509	145.09100008
1630.0	0.0005038	145.138000011
1630.0	0.0004993	145.184999943
1630.0	0.0004958	145.231999874
1630.0	0.000493	145.263999939
1630.0	0.0004908	145.31099987
1630.0	0.0004893	145.342000008
1630.0	0.000488	145.388999939
1630.0	0.0004875	145.43599987
1630.0	0.0004868	145.467000008
1630.0	0.0004865	145.513999939
1630.0	0.0004865	145.56099987
1630.0	0.0004858	145.592999935
1630.0	0.0004858	145.639999866
1630.0	0.0004855	145.687000036
1630.0	0.0004853	145.717999935
1630.0	0.0004853	145.764999866
1630.0	0.0004853	145.812000036
1630.0	0.0004853	145.858999968
1630.0	0.0004855	145.889999866
1630.0	0.0004855	145.937000036
1630.0	0.0004855	145.967999935
1630.0	0.0004855	146.014999866
1630.0	0.0004855	146.062000036
1630.0	0.0004858	146.094000101
1630.0	0.0004863	146.141000032
1630.0	0.0004863	146.187999964
1630.0	0.0004865	146.219000101
1630.0	0.0004865	146.266000032
1630.0	0.0004863	146.296999931
1630.0	0.0004865	146.344000101
1630.0	0.0004863	146.391000032
1630.0	0.0004858	146.423000097
1630.0	0.0004858	146.470000029
1630.0	0.0004855	146.51699996
1640.0	0.0004668	146.799000025
1640.0	0.0004608	146.829999924
1640.0	0.0004558	146.877000093
1640.0	0.000452	146.924000025
1640.0	0.000449	146.954999924
1640.0	0.0004465	147.002000093
1640.0	0.0004445	147.03399992
1640.0	0.000443	147.08100009
1640.0	0.0004425	147.128000021
1640.0	0.0004418	147.15899992
1640.0	0.0004413	147.20600009
1640.0	0.0004413	147.253000021
1640.0	0.0004405	147.28399992
1640.0	0.0004405	147.33100009
1640.0	0.0004403	147.362999916
1640.0	0.0004403	147.410000086
1640.0	0.0004405	147.457000017
1640.0	0.0004405	147.487999916
1640.0	0.0004405	147.535000086
1640.0	0.0004405	147.582000017
1640.0	0.0004405	147.612999916
1640.0	0.0004403	147.660000086
1640.0	0.0004403	147.707000017
1640.0	0.0004403	147.739000082
1640.0	0.0004403	147.786000013
1640.0	0.0004405	147.816999912
1640.0	0.0004403	147.864000082
1640.0	0.0004405	147.911000013
1640.0	0.0004408	147.941999912
1640.0	0.0004408	147.989000082
1640.0	0.0004408	148.036000013
1640.0	0.0004405	148.066999912
1640.0	0.0004405	148.114000082
1640.0	0.0004405	148.145999908
1640.0	0.0004403	148.193000078
1640.0	0.0004408	148.24000001
1640.0	0.0004408	148.270999908
1650.0	0.000422	148.552999973
1650.0	0.0004163	148.599999905
1650.0	0.0004108	148.647000074
1650.0	0.0004068	148.677999973
1650.0	0.0004033	148.724999905
1650.0	0.0004008	148.772000074
1650.0	0.0003988	148.803999901
1650.0	0.0003975	148.851000071
1650.0	0.0003965	148.898000002
1650.0	0.0003958	148.928999901
1650.0	0.0003955	148.976000071
1650.0	0.000395	149.023000002
1650.0	0.0003943	149.069999933
1650.0	0.0003943	149.101000071
1650.0	0.0003943	149.148000002
1650.0	0.000394	149.180000067
1650.0	0.000394	149.226999998
1650.0	0.000394	149.273999929
1650.0	0.000394	149.305000067
1650.0	0.000394	149.351999998
1650.0	0.000394	149.398999929
1650.0	0.0003938	149.430000067
1650.0	0.0003938	149.476999998
1650.0	0.0003933	149.509000063
1650.0	0.0003933	149.555999994
1650.0	0.000393	149.602999926
1650.0	0.000393	149.634000063
1650.0	0.0003928	149.680999994
1650.0	0.0003925	149.727999926
1650.0	0.000392	149.759000063
1650.0	0.0003918	149.805999994
1650.0	0.000392	149.852999926
1650.0	0.000392	149.884000063
1650.0	0.0003925	149.930999994
1650.0	0.000392	149.963000059
1650.0	0.000392	150.00999999
1650.0	0.0003925	150.056999922
1660.0	0.0003768	150.338999987
1660.0	0.0003715	150.369999886
1660.0	0.0003668	150.417000055
1660.0	0.000363	150.463999987
1660.0	0.00036	150.494999886
1660.0	0.0003575	150.542000055
1660.0	0.0003563	150.588999987
1660.0	0.000355	150.621000051
1660.0	0.000354	150.667999983
1660.0	0.0003538	150.698999882
1660.0	0.0003533	150.746000051
1660.0	0.0003528	150.792999983
1660.0	0.0003525	150.823999882
1660.0	0.000352	150.871000051
1660.0	0.000352	150.917999983
1660.0	0.000352	150.950000048
1660.0	0.0003518	150.996999979
1660.0	0.000352	151.027999878
1660.0	0.000352	151.075000048
1660.0	0.0003525	151.121999979
1660.0	0.000353	151.152999878
1660.0	0.000353	151.200000048
1660.0	0.000353	151.246999979
1660.0	0.0003528	151.279000044
1660.0	0.0003525	151.325999975
1660.0	0.0003525	151.356999874
1660.0	0.0003528	151.404000044
1660.0	0.000353	151.450999975
1660.0	0.0003533	151.481999874
1660.0	0.0003538	151.529000044
1660.0	0.0003538	151.575999975
1660.0	0.0003538	151.60800004
1660.0	0.0003533	151.654999971
1660.0	0.0003533	151.701999903
1660.0	0.0003538	151.73300004
1660.0	0.0003538	151.779999971
1660.0	0.0003538	151.826999903
1670.0	0.0003388	152.108999968
1670.0	0.0003333	152.139999866
1670.0	0.0003293	152.187000036
1670.0	0.0003258	152.233999968
1670.0	0.000323	152.264999866
1670.0	0.0003205	152.312000036
1670.0	0.000319	152.358999968
1670.0	0.000318	152.391000032
1670.0	0.0003168	152.437999964
1670.0	0.0003163	152.484999895
1670.0	0.0003158	152.516000032
1670.0	0.0003155	152.562999964
1670.0	0.0003155	152.609999895
1670.0	0.0003153	152.641000032
1670.0	0.000315	152.687999964
1670.0	0.000315	152.734999895
1670.0	0.0003145	152.76699996
1670.0	0.0003143	152.813999891
1670.0	0.0003143	152.845000029
1670.0	0.0003143	152.89199996
1670.0	0.0003143	152.938999891
1670.0	0.0003143	152.970000029
1670.0	0.0003138	153.01699996
1670.0	0.0003133	153.049000025
1670.0	0.0003133	153.095999956
1670.0	0.0003138	153.142999887
1670.0	0.0003138	153.174000025
1670.0	0.0003138	153.220999956
1670.0	0.0003138	153.267999887
1670.0	0.000314	153.299000025
1670.0	0.0003138	153.345999956
1670.0	0.0003138	153.392999887
1670.0	0.0003138	153.424999952
1670.0	0.0003133	153.471999884
1670.0	0.0003138	153.503000021
1670.0	0.0003138	153.549999952
1670.0	0.0003138	153.596999884
1680.0	0.0003005	153.878999949
1680.0	0.0002963	153.910000086
1680.0	0.0002925	153.957000017
1680.0	0.0002893	154.003999949
1680.0	0.000287	154.035000086
1680.0	0.0002858	154.082000017
1680.0	0.000285	154.128999949
1680.0	0.0002843	154.161000013
1680.0	0.0002838	154.207999945
1680.0	0.0002838	154.239000082
1680.0	0.000283	154.286000013
1680.0	0.000283	154.332999945
1680.0	0.0002825	154.364000082
1680.0	0.000282	154.411000013
1680.0	0.0002818	154.457999945
1680.0	0.0002818	154.49000001
1680.0	0.0002818	154.536999941
1680.0	0.0002818	154.583999872
1680.0	0.0002818	154.61500001
1680.0	0.0002815	154.661999941
1680.0	0.0002815	154.693000078
1680.0	0.0002815	154.74000001
1680.0	0.0002813	154.786999941
1680.0	0.0002815	154.819000006
1680.0	0.0002818	154.865999937
1680.0	0.0002818	154.912999868
1680.0	0.0002818	154.944000006
1680.0	0.0002818	154.990999937
1680.0	0.0002818	155.022000074
1680.0	0.0002825	155.069000006
1680.0	0.0002825	155.115999937
1680.0	0.0002825	155.148000002
1680.0	0.000282	155.194999933
1680.0	0.000282	155.241999865
1680.0	0.0002818	155.273000002
1680.0	0.0002818	155.319999933
1680.0	0.0002815	155.366999865
1690.0	0.0002693	155.648999929
1690.0	0.000265	155.680000067
1690.0	0.0002613	155.726999998
1690.0	0.000258	155.773999929
1690.0	0.0002555	155.821000099
1690.0	0.0002538	155.851999998
1690.0	0.0002528	155.898999929
1690.0	0.000252	155.946000099
1690.0	0.0002518	155.977999926
1690.0	0.0002513	156.025000095
1690.0	0.0002513	156.055999994
1690.0	0.0002513	156.102999926
1690.0	0.0002508	156.150000095
1690.0	0.0002505	156.180999994
1690.0	0.0002505	156.227999926
1690.0	0.0002503	156.275000095
1690.0	0.0002503	156.306999922
1690.0	0.00025	156.354000092
1690.0	0.0002503	156.401000023
1690.0	0.0002503	156.431999922
1690.0	0.00025	156.479000092
1690.0	0.00025	156.526000023
1690.0	0.00025	156.556999922
1690.0	0.0002503	156.604000092
1690.0	0.0002503	156.635999918
1690.0	0.0002503	156.683000088
1690.0	0.0002503	156.730000019
1690.0	0.00025	156.77699995
1690.0	0.00025	156.808000088
1690.0	0.0002503	156.855000019
1690.0	0.0002505	156.885999918
1690.0	0.0002508	156.933000088
1690.0	0.0002505	156.980000019
1690.0	0.0002505	157.012000084
1690.0	0.0002505	157.059000015
1690.0	0.0002508	157.105999947
1700.0	0.0002408	157.388000011
1700.0	0.0002378	157.434999943
1700.0	0.000235	157.481999874
1700.0	0.0002325	157.513000011
1700.0	0.0002305	157.559999943
1700.0	0.000229	157.59100008
1700.0	0.000228	157.638000011
1700.0	0.0002278	157.684999943
1700.0	0.000227	157.71600008
1700.0	0.000227	157.763000011
1700.0	0.0002268	157.809999943
1700.0	0.0002265	157.842000008
1700.0	0.0002263	157.888999939
1700.0	0.0002258	157.920000076
1700.0	0.0002263	157.967000008
1700.0	0.0002265	158.013999939
1700.0	0.0002265	158.045000076
1700.0	0.0002268	158.092000008
1700.0	0.0002265	158.138999939
1700.0	0.0002263	158.171000004
1700.0	0.0002263	158.217999935
1700.0	0.0002263	158.264999866
1700.0	0.0002258	158.296000004
1700.0	0.0002255	158.342999935
1700.0	0.0002253	158.374000072
1700.0	0.0002255	158.421000004
1700.0	0.0002255	158.467999935
1700.0	0.0002255	158.5
1700.0	0.0002263	158.546999931
1700.0	0.0002258	158.594000101
1700.0	0.0002255	158.625
1700.0	0.0002255	158.671999931
1700.0	0.0002253	158.703000069
1700.0	0.0002253	158.75
1700.0	0.0002255	158.796999931
1700.0	0.0002253	158.828999996
1700.0	0.0002245	158.875999928
1710.0	0.000214	159.157999992
1710.0	0.0002108	159.204999924
1710.0	0.0002083	159.252000093
1710.0	0.0002063	159.282999992
1710.0	0.0002045	159.329999924
1710.0	0.0002038	159.377000093
1710.0	0.0002028	159.407999992
1710.0	0.000202	159.454999924
1710.0	0.0002015	159.502000093
1710.0	0.0002008	159.53399992
1710.0	0.0002008	159.58100009
1710.0	0.0002005	159.628000021
1710.0	0.0002005	159.65899992
1710.0	0.0002008	159.70600009
1710.0	0.0002005	159.736999989
1710.0	0.0002008	159.78399992
1710.0	0.0002013	159.83100009
1710.0	0.0002015	159.861999989
1710.0	0.0002018	159.90899992
1710.0	0.0002018	159.95600009
1710.0	0.000202	159.987999916
1710.0	0.0002025	160.035000086
1710.0	0.0002025	160.065999985
1710.0	0.0002028	160.112999916
1710.0	0.0002028	160.160000086
1710.0	0.0002025	160.190999985
1710.0	0.0002025	160.237999916
1710.0	0.000202	160.285000086
1710.0	0.0002018	160.316999912
1710.0	0.0002018	160.364000082
1710.0	0.0002015	160.394999981
1710.0	0.0002015	160.441999912
1710.0	0.0002018	160.489000082
1710.0	0.000202	160.519999981
1710.0	0.0002025	160.566999912
1710.0	0.0002028	160.614000082
1710.0	0.0002028	160.645999908
1720.0	0.0001945	160.943000078
1720.0	0.0001918	160.974999905
1720.0	0.00019	161.022000074
1720.0	0.0001883	161.069000006
1720.0	0.0001868	161.099999905
1720.0	0.0001858	161.147000074
1720.0	0.000185	161.194000006
1720.0	0.000184	161.224999905
1720.0	0.0001833	161.272000074
1720.0	0.0001825	161.319000006
1720.0	0.0001825	161.351000071
1720.0	0.0001818	161.398000002
1720.0	0.0001818	161.444999933
1720.0	0.0001818	161.476000071
1720.0	0.0001818	161.523000002
1720.0	0.0001818	161.569999933
1720.0	0.0001815	161.601000071
1720.0	0.0001813	161.648000002
1720.0	0.0001815	161.678999901
1720.0	0.0001813	161.726000071
1720.0	0.0001808	161.773000002
1720.0	0.0001813	161.805000067
1720.0	0.0001813	161.851999998
1720.0	0.0001813	161.898999929
1720.0	0.0001813	161.930000067
1720.0	0.0001813	161.976999998
1720.0	0.0001813	162.023999929
1720.0	0.0001813	162.055000067
1720.0	0.0001813	162.101999998
1720.0	0.0001808	162.134000063
1720.0	0.0001808	162.180999994
1720.0	0.0001805	162.227999926
1720.0	0.0001805	162.259000063
1720.0	0.0001803	162.305999994
1720.0	0.0001805	162.352999926
1720.0	0.0001805	162.384000063
1720.0	0.0001803	162.430999994
1730.0	0.000174	162.713000059
1730.0	0.0001715	162.75999999
1730.0	0.00017	162.792000055
1730.0	0.000168	162.838999987
1730.0	0.0001668	162.885999918
1730.0	0.0001658	162.917000055
1730.0	0.0001653	162.963999987
1730.0	0.0001645	163.010999918
1730.0	0.0001643	163.042000055
1730.0	0.000164	163.088999987
1730.0	0.0001643	163.135999918
1730.0	0.0001643	163.167999983
1730.0	0.000164	163.214999914
1730.0	0.0001638	163.246000051
1730.0	0.0001638	163.292999983
1730.0	0.0001638	163.339999914
1730.0	0.0001638	163.371000051
1730.0	0.000164	163.417999983
1730.0	0.000164	163.450000048
1730.0	0.000164	163.496999979
1730.0	0.000164	163.54399991
1730.0	0.0001643	163.575000048
1730.0	0.0001643	163.621999979
1730.0	0.0001643	163.66899991
1730.0	0.0001643	163.700000048
1730.0	0.000164	163.746999979
1730.0	0.000164	163.79399991
1730.0	0.0001643	163.825000048
1730.0	0.0001643	163.871999979
1730.0	0.0001645	163.904000044
1730.0	0.0001645	163.950999975
1730.0	0.0001645	163.997999907
1730.0	0.0001645	164.029000044
1730.0	0.0001643	164.075999975
1730.0	0.0001643	164.122999907
1730.0	0.0001645	164.154000044
1730.0	0.0001643	164.200999975
1740.0	0.0001575	164.48300004
1740.0	0.0001555	164.529999971
1740.0	0.000154	164.576999903
1740.0	0.0001525	164.608999968
1740.0	0.0001513	164.655999899
1740.0	0.00015	164.703000069
1740.0	0.0001493	164.733999968
1740.0	0.0001488	164.780999899
1740.0	0.000148	164.828000069
1740.0	0.0001475	164.858999968
1740.0	0.0001468	164.905999899
1740.0	0.0001468	164.937999964
1740.0	0.0001465	164.984999895
1740.0	0.0001463	165.032000065
1740.0	0.0001463	165.062999964
1740.0	0.0001463	165.109999895
1740.0	0.0001463	165.157000065
1740.0	0.0001463	165.187999964
1740.0	0.0001458	165.234999895
1740.0	0.0001458	165.26699996
1740.0	0.0001463	165.313999891
1740.0	0.0001458	165.361000061
1740.0	0.0001458	165.39199996
1740.0	0.0001458	165.438999891
1740.0	0.0001458	165.486000061
1740.0	0.0001463	165.51699996
1740.0	0.0001465	165.563999891
1740.0	0.0001468	165.595000029
1740.0	0.0001468	165.64199996
1740.0	0.0001468	165.688999891
1740.0	0.0001468	165.720999956
1740.0	0.0001468	165.767999887
1740.0	0.000147	165.815000057
1740.0	0.000147	165.845999956
1740.0	0.0001468	165.892999887
1740.0	0.0001468	165.924000025
1740.0	0.000147	165.970999956
1750.0	0.0001418	166.269000053
1750.0	0.0001403	166.315999985
1750.0	0.0001388	166.346999884
1750.0	0.000138	166.394000053
1750.0	0.0001368	166.440999985
1750.0	0.0001358	166.47300005
1750.0	0.0001353	166.519999981
1750.0	0.0001345	166.55099988
1750.0	0.000134	166.59800005
1750.0	0.0001338	166.644999981
1750.0	0.0001338	166.67599988
1750.0	0.000134	166.72300005
1750.0	0.0001343	166.769999981
1750.0	0.000134	166.802000046
1750.0	0.0001343	166.848999977
1750.0	0.0001343	166.895999908
1750.0	0.0001343	166.927000046
1750.0	0.0001345	166.973999977
1750.0	0.0001343	167.020999908
1750.0	0.0001345	167.052000046
1750.0	0.000135	167.098999977
1750.0	0.0001345	167.145999908
1750.0	0.0001345	167.177999973
1750.0	0.0001343	167.224999905
1750.0	0.000134	167.256000042
1750.0	0.0001338	167.302999973
1750.0	0.0001338	167.349999905
1750.0	0.000134	167.381000042
1750.0	0.000134	167.427999973
1750.0	0.000134	167.460000038
1750.0	0.0001343	167.506000042
1750.0	0.0001343	167.552999973
1750.0	0.000134	167.585000038
1750.0	0.0001338	167.631999969
1750.0	0.0001333	167.678999901
1750.0	0.000133	167.710000038
1750.0	0.000133	167.756999969
1760.0	0.0001265	168.055000067
1760.0	0.000125	168.101999998
1760.0	0.0001228	168.132999897
1760.0	0.0001215	168.180000067
1760.0	0.0001205	168.226999998
1760.0	0.00012	168.257999897
1760.0	0.0001193	168.305000067
1760.0	0.0001188	168.336999893
1760.0	0.0001188	168.384000063
1760.0	0.0001183	168.430999994
1760.0	0.0001183	168.461999893
1760.0	0.0001183	168.509000063
1760.0	0.0001183	168.555999994
1760.0	0.000118	168.586999893
1760.0	0.000118	168.634000063
1760.0	0.000118	168.680999994
1760.0	0.000118	168.713000059
1760.0	0.000118	168.75999999
1760.0	0.000118	168.790999889
1760.0	0.000118	168.838000059
1760.0	0.0001183	168.88499999
1760.0	0.0001183	168.915999889
1760.0	0.0001183	168.963000059
1760.0	0.0001183	169.00999999
1760.0	0.000118	169.042000055
1760.0	0.0001183	169.088999987
1760.0	0.0001183	169.119999886
1760.0	0.0001183	169.167000055
1760.0	0.0001188	169.213999987
1760.0	0.0001183	169.244999886
1760.0	0.0001183	169.292000055
1760.0	0.0001188	169.338999987
1760.0	0.0001183	169.371000051
1760.0	0.0001188	169.417999983
1760.0	0.0001188	169.463999987
1760.0	0.0001188	169.496000051
1760.0	0.000119	169.542999983
1770.0	0.0001143	169.839999914
1770.0	0.000113	169.887000084
1770.0	0.0001118	169.91899991
1770.0	0.0001108	169.96600008
1770.0	0.0001103	170.013000011
1770.0	0.0001093	170.04399991
1770.0	0.000109	170.09100008
1770.0	0.0001083	170.138000011
1770.0	0.000108	170.16899991
1770.0	0.000108	170.21600008
1770.0	0.0001078	170.247999907
1770.0	0.0001075	170.295000076
1770.0	0.000108	170.342000008
1770.0	0.000108	170.372999907
1770.0	0.0001083	170.420000076
1770.0	0.0001083	170.467000008
1770.0	0.000108	170.497999907
1770.0	0.000108	170.545000076
1770.0	0.0001075	170.592000008
1770.0	0.000107	170.624000072
1770.0	0.000107	170.671000004
1770.0	0.0001068	170.701999903
1770.0	0.0001065	170.749000072
1770.0	0.0001065	170.796000004
1770.0	0.0001063	170.826999903
1770.0	0.0001063	170.874000072
1770.0	0.0001063	170.921000004
1770.0	0.0001058	170.953000069
1770.0	0.0001058	171.0
1770.0	0.0001058	171.030999899
1770.0	0.0001055	171.078000069
1770.0	0.0001053	171.125
1770.0	0.0001053	171.155999899
1770.0	0.0001053	171.203000069
1770.0	0.0001055	171.25
1770.0	0.0001055	171.282000065
1770.0	0.0001058	171.328999996
1780.0	9.95e-05	171.625999928
1780.0	9.78e-05	171.673000097
1780.0	9.65e-05	171.720000029
1780.0	9.55e-05	171.750999928
1780.0	9.45e-05	171.798000097
1780.0	9.4e-05	171.829999924
1780.0	9.33e-05	171.877000093
1780.0	9.3e-05	171.924000025
1780.0	9.3e-05	171.954999924
1780.0	9.28e-05	172.002000093
1780.0	9.25e-05	172.049000025
1780.0	9.25e-05	172.079999924
1780.0	9.25e-05	172.127000093
1780.0	9.2e-05	172.15899992
1780.0	9.2e-05	172.20600009
1780.0	9.25e-05	172.253000021
1780.0	9.25e-05	172.28399992
1780.0	9.25e-05	172.33100009
1780.0	9.2e-05	172.378000021
1780.0	9.2e-05	172.424999952
1780.0	9.2e-05	172.45600009
1780.0	9.2e-05	172.503000021
1780.0	9.25e-05	172.535000086
1780.0	9.25e-05	172.582000017
1780.0	9.28e-05	172.628999949
1780.0	9.28e-05	172.660000086
1780.0	9.28e-05	172.707000017
1780.0	9.28e-05	172.753999949
1780.0	9.3e-05	172.785000086
1780.0	9.3e-05	172.832000017
1780.0	9.3e-05	172.864000082
1780.0	9.33e-05	172.911000013
1780.0	9.33e-05	172.957999945
1780.0	9.3e-05	172.989000082
1780.0	9.3e-05	173.036000013
1780.0	9.3e-05	173.082999945
1780.0	9.38e-05	173.114000082
1790.0	8.93e-05	173.427000046
1790.0	8.83e-05	173.458999872
1790.0	8.7e-05	173.506000042
1790.0	8.65e-05	173.552999973
1790.0	8.55e-05	173.583999872
1790.0	8.5e-05	173.631000042
1790.0	8.45e-05	173.661999941
1790.0	8.43e-05	173.708999872
1790.0	8.38e-05	173.756000042
1790.0	8.38e-05	173.802999973
1790.0	8.38e-05	173.835000038
1790.0	8.33e-05	173.881999969
1790.0	8.33e-05	173.912999868
1790.0	8.3e-05	173.960000038
1790.0	8.3e-05	174.006999969
1790.0	8.3e-05	174.037999868
1790.0	8.28e-05	174.085000038
1790.0	8.28e-05	174.131999969
1790.0	8.28e-05	174.164000034
1790.0	8.25e-05	174.210999966
1790.0	8.28e-05	174.241999865
1790.0	8.3e-05	174.289000034
1790.0	8.33e-05	174.335999966
1790.0	8.38e-05	174.366999865
1790.0	8.33e-05	174.414000034
1790.0	8.33e-05	174.460999966
1790.0	8.33e-05	174.493000031
1790.0	8.3e-05	174.539999962
1790.0	8.33e-05	174.586999893
1790.0	8.33e-05	174.618000031
1790.0	8.38e-05	174.664999962
1790.0	8.38e-05	174.696000099
1790.0	8.38e-05	174.743000031
1790.0	8.38e-05	174.789999962
1790.0	8.38e-05	174.822000027
1790.0	8.33e-05	174.868999958
1790.0	8.3e-05	174.915999889
1800.0	7.78e-05	175.213000059
1800.0	7.63e-05	175.244999886
1800.0	7.45e-05	175.292000055
1800.0	7.33e-05	175.338000059
1800.0	7.28e-05	175.369999886
1800.0	7.18e-05	175.417000055
1800.0	7.13e-05	175.463999987
1800.0	7.08e-05	175.494999886
1800.0	7.03e-05	175.542000055
1800.0	7e-05	175.572999954
1800.0	7e-05	175.619999886
1800.0	6.95e-05	175.667000055
1800.0	7e-05	175.698999882
1800.0	7e-05	175.746000051
1800.0	7.03e-05	175.792999983
1800.0	7.05e-05	175.823999882
1800.0	7.08e-05	175.871000051
1800.0	7.08e-05	175.90199995
1800.0	7.05e-05	175.948999882
1800.0	7.05e-05	175.996000051
1800.0	7.05e-05	176.027999878
1800.0	7.03e-05	176.075000048
1800.0	7.03e-05	176.121999979
1800.0	7.03e-05	176.152999878
1800.0	7.03e-05	176.200000048
1800.0	7.03e-05	176.230999947
1800.0	7.03e-05	176.277999878
1800.0	7.03e-05	176.325000048
1800.0	7.05e-05	176.356999874
1800.0	7.08e-05	176.404000044
1800.0	7.05e-05	176.450999975
1800.0	7.05e-05	176.481999874
1800.0	7.03e-05	176.529000044
1800.0	7e-05	176.559999943
1800.0	7e-05	176.606999874
1800.0	7e-05	176.654000044
1800.0	7e-05	176.68599987
