Your edit line - do NOT delete this line
Wavelength [nm], Voltage [V], Elapsed time [s]
900.0	0.00017	14.0789999962
900.0	0.0001663	14.125
900.0	0.0001633	14.1719999313
900.0	0.0001608	14.2189998627
900.0	0.0001593	14.25
900.0	0.000158	14.2969999313
900.0	0.000157	14.3289999962
900.0	0.0001565	14.375
900.0	0.0001563	14.4219999313
900.0	0.0001558	14.4539999962
900.0	0.0001558	14.5
900.0	0.0001555	14.5469999313
900.0	0.0001555	14.5789999962
900.0	0.0001555	14.625
900.0	0.0001555	14.6719999313
900.0	0.0001553	14.7039999962
900.0	0.0001545	14.75
900.0	0.0001543	14.7820000648
900.0	0.0001545	14.8289999962
900.0	0.0001545	14.875
900.0	0.0001545	14.9070000648
900.0	0.0001543	14.9539999962
900.0	0.0001538	15.0
900.0	0.0001538	15.0320000648
900.0	0.0001533	15.0789999962
900.0	0.0001533	15.125
900.0	0.0001533	15.1570000648
900.0	0.0001538	15.2039999962
900.0	0.0001538	15.25
900.0	0.0001538	15.2820000648
900.0	0.0001538	15.3289999962
900.0	0.0001538	15.3599998951
900.0	0.000153	15.4070000648
900.0	0.000153	15.4539999962
900.0	0.0001533	15.4849998951
900.0	0.0001533	15.5320000648
900.0	0.000153	15.5789999962
910.0	0.0001595	15.875
910.0	0.0001618	15.9219999313
910.0	0.000164	15.9689998627
910.0	0.0001658	16.0
910.0	0.000167	16.0469999313
910.0	0.0001683	16.0789999962
910.0	0.000169	16.125
910.0	0.0001695	16.1719999313
910.0	0.00017	16.2039999962
910.0	0.0001703	16.25
910.0	0.0001703	16.2969999313
910.0	0.0001705	16.3289999962
910.0	0.0001708	16.375
910.0	0.0001708	16.4070000648
910.0	0.0001708	16.4539999962
910.0	0.0001708	16.5
910.0	0.0001713	16.5320000648
910.0	0.0001713	16.5789999962
910.0	0.0001715	16.625
910.0	0.0001718	16.6570000648
910.0	0.0001718	16.7039999962
910.0	0.0001718	16.7349998951
910.0	0.000172	16.7820000648
910.0	0.0001725	16.8289999962
910.0	0.0001725	16.8599998951
910.0	0.0001728	16.9070000648
910.0	0.0001725	16.9539999962
910.0	0.0001725	16.9849998951
910.0	0.0001725	17.0320000648
910.0	0.0001728	17.0629999638
910.0	0.0001725	17.1099998951
910.0	0.0001725	17.1570000648
910.0	0.000172	17.1879999638
910.0	0.000172	17.2349998951
910.0	0.0001728	17.2820000648
910.0	0.0001728	17.3129999638
910.0	0.0001728	17.3599998951
920.0	0.0001818	17.6719999313
920.0	0.000184	17.7039999962
920.0	0.0001863	17.75
920.0	0.0001878	17.7969999313
920.0	0.000189	17.8289999962
920.0	0.0001895	17.875
920.0	0.0001903	17.9070000648
920.0	0.0001908	17.9539999962
920.0	0.0001913	18.0
920.0	0.000192	18.0320000648
920.0	0.0001925	18.0789999962
920.0	0.0001925	18.125
920.0	0.0001928	18.1570000648
920.0	0.0001928	18.2039999962
920.0	0.0001928	18.2349998951
920.0	0.0001928	18.2820000648
920.0	0.0001928	18.3289999962
920.0	0.0001928	18.3599998951
920.0	0.0001928	18.4070000648
920.0	0.0001928	18.4539999962
920.0	0.0001928	18.4849998951
920.0	0.0001928	18.5320000648
920.0	0.0001928	18.5629999638
920.0	0.0001925	18.6099998951
920.0	0.0001925	18.6570000648
920.0	0.0001925	18.6879999638
920.0	0.0001925	18.7349998951
920.0	0.0001925	18.7820000648
920.0	0.0001925	18.8129999638
920.0	0.0001928	18.8599998951
920.0	0.0001925	18.8910000324
920.0	0.000192	18.9379999638
920.0	0.0001925	18.9849998951
920.0	0.000192	19.0160000324
920.0	0.0001918	19.0629999638
920.0	0.0001915	19.1099998951
920.0	0.0001913	19.1410000324
930.0	0.0001993	19.4379999638
930.0	0.0002018	19.4849998951
930.0	0.000204	19.5320000648
930.0	0.0002063	19.5629999638
930.0	0.0002078	19.6099998951
930.0	0.000209	19.6570000648
930.0	0.00021	19.6879999638
930.0	0.0002103	19.7349998951
930.0	0.0002108	19.7660000324
930.0	0.0002108	19.8129999638
930.0	0.0002108	19.8599998951
930.0	0.0002103	19.8910000324
930.0	0.0002103	19.9379999638
930.0	0.0002103	19.9849998951
930.0	0.0002103	20.0160000324
930.0	0.0002103	20.0629999638
930.0	0.0002108	20.0939998627
930.0	0.0002108	20.1410000324
930.0	0.0002113	20.1879999638
930.0	0.0002115	20.2189998627
930.0	0.0002113	20.2660000324
930.0	0.0002113	20.3129999638
930.0	0.0002113	20.3439998627
930.0	0.0002113	20.3910000324
930.0	0.0002115	20.4379999638
930.0	0.0002115	20.4689998627
930.0	0.0002115	20.5160000324
930.0	0.0002115	20.5469999313
930.0	0.0002115	20.5939998627
930.0	0.0002118	20.6410000324
930.0	0.0002118	20.6719999313
930.0	0.0002115	20.7189998627
930.0	0.0002113	20.7660000324
930.0	0.0002113	20.7969999313
930.0	0.0002113	20.8439998627
930.0	0.0002113	20.875
930.0	0.0002108	20.9219999313
940.0	0.0002208	21.2189998627
940.0	0.0002238	21.2660000324
940.0	0.0002263	21.2969999313
940.0	0.000228	21.3439998627
940.0	0.0002293	21.3910000324
940.0	0.0002305	21.4219999313
940.0	0.0002315	21.4689998627
940.0	0.0002325	21.5160000324
940.0	0.000233	21.5469999313
940.0	0.0002333	21.5939998627
940.0	0.0002338	21.6410000324
940.0	0.000234	21.6719999313
940.0	0.0002343	21.7189998627
940.0	0.000235	21.75
940.0	0.0002345	21.7969999313
940.0	0.0002345	21.8439998627
940.0	0.000235	21.875
940.0	0.000235	21.9219999313
940.0	0.0002345	21.9689998627
940.0	0.0002345	22.0
940.0	0.0002345	22.0469999313
940.0	0.0002345	22.0789999962
940.0	0.0002345	22.125
940.0	0.0002345	22.1719999313
940.0	0.000235	22.2039999962
940.0	0.0002353	22.25
940.0	0.000235	22.2969999313
940.0	0.000235	22.3289999962
940.0	0.0002345	22.375
940.0	0.0002345	22.4219999313
940.0	0.000235	22.4539999962
940.0	0.0002353	22.5
940.0	0.0002353	22.5320000648
940.0	0.0002355	22.5789999962
940.0	0.0002353	22.625
940.0	0.0002355	22.6570000648
940.0	0.0002355	22.7039999962
950.0	0.000245	23.0
950.0	0.0002478	23.0320000648
950.0	0.0002505	23.0789999962
950.0	0.0002525	23.1099998951
950.0	0.0002543	23.1570000648
950.0	0.0002553	23.2039999962
950.0	0.0002563	23.2349998951
950.0	0.0002565	23.2820000648
950.0	0.0002568	23.3289999962
950.0	0.0002568	23.3599998951
950.0	0.0002568	23.4070000648
950.0	0.000257	23.4379999638
950.0	0.0002575	23.4849998951
950.0	0.0002575	23.5320000648
950.0	0.0002575	23.5629999638
950.0	0.000257	23.6099998951
950.0	0.000257	23.6570000648
950.0	0.000257	23.6879999638
950.0	0.0002568	23.7349998951
950.0	0.000257	23.7660000324
950.0	0.000257	23.8129999638
950.0	0.0002568	23.8599998951
950.0	0.0002568	23.8910000324
950.0	0.0002568	23.9379999638
950.0	0.000257	23.9849998951
950.0	0.0002575	24.0160000324
950.0	0.0002575	24.0629999638
950.0	0.000257	24.1099998951
950.0	0.0002568	24.1410000324
950.0	0.0002568	24.1879999638
950.0	0.0002568	24.2189998627
950.0	0.0002568	24.2660000324
950.0	0.0002568	24.3129999638
950.0	0.000257	24.3439998627
950.0	0.0002568	24.3910000324
950.0	0.0002565	24.4379999638
950.0	0.0002563	24.4689998627
960.0	0.0002653	24.7660000324
960.0	0.000268	24.7969999313
960.0	0.00027	24.8439998627
960.0	0.0002718	24.875
960.0	0.000273	24.9219999313
960.0	0.000274	24.9689998627
960.0	0.000275	25.0
960.0	0.0002758	25.0469999313
960.0	0.0002765	25.0939998627
960.0	0.0002765	25.125
960.0	0.0002768	25.1719999313
960.0	0.0002768	25.2189998627
960.0	0.0002765	25.25
960.0	0.0002765	25.2969999313
960.0	0.0002768	25.3439998627
960.0	0.0002768	25.375
960.0	0.000277	25.4219999313
960.0	0.000277	25.4689998627
960.0	0.000277	25.5
960.0	0.000277	25.5469999313
960.0	0.0002775	25.5789999962
960.0	0.0002775	25.625
960.0	0.0002775	25.6719999313
960.0	0.0002778	25.7039999962
960.0	0.000278	25.75
960.0	0.0002778	25.7969999313
960.0	0.0002778	25.8289999962
960.0	0.0002778	25.875
960.0	0.0002778	25.9070000648
960.0	0.0002775	25.9539999962
960.0	0.0002778	26.0
960.0	0.0002778	26.0320000648
960.0	0.0002778	26.0789999962
960.0	0.0002778	26.125
960.0	0.0002783	26.1570000648
960.0	0.000278	26.2039999962
960.0	0.000278	26.25
970.0	0.0002855	26.5320000648
970.0	0.0002888	26.5629999638
970.0	0.0002913	26.6099998951
970.0	0.0002933	26.6410000324
970.0	0.000295	26.6879999638
970.0	0.0002958	26.7349998951
970.0	0.0002965	26.7660000324
970.0	0.0002975	26.8129999638
970.0	0.000298	26.8599998951
970.0	0.0002983	26.8910000324
970.0	0.0002988	26.9379999638
970.0	0.000299	26.9849998951
970.0	0.000299	27.0160000324
970.0	0.000299	27.0629999638
970.0	0.0002993	27.0939998627
970.0	0.0002993	27.1410000324
970.0	0.0002993	27.1879999638
970.0	0.0002993	27.2189998627
970.0	0.0002993	27.2660000324
970.0	0.0002993	27.3129999638
970.0	0.0002993	27.3439998627
970.0	0.0002993	27.3910000324
970.0	0.0002993	27.4219999313
970.0	0.0003	27.4689998627
970.0	0.0003	27.5160000324
970.0	0.0003	27.5469999313
970.0	0.0003	27.5939998627
970.0	0.0003003	27.6410000324
970.0	0.0003003	27.6719999313
970.0	0.0003003	27.7189998627
970.0	0.0003	27.75
970.0	0.0003	27.7969999313
970.0	0.0003	27.8439998627
970.0	0.0003003	27.875
970.0	0.0003003	27.9219999313
970.0	0.0003003	27.9689998627
970.0	0.0003003	28.0
980.0	0.0003095	28.2820000648
980.0	0.0003128	28.3289999962
980.0	0.0003155	28.3599998951
980.0	0.0003175	28.4070000648
980.0	0.000319	28.4539999962
980.0	0.00032	28.4849998951
980.0	0.0003213	28.5320000648
980.0	0.0003218	28.5629999638
980.0	0.000322	28.6099998951
980.0	0.0003225	28.6570000648
980.0	0.0003228	28.6879999638
980.0	0.000323	28.7349998951
980.0	0.000323	28.7820000648
980.0	0.0003233	28.8129999638
980.0	0.0003233	28.8599998951
980.0	0.000323	28.9070000648
980.0	0.000323	28.9379999638
980.0	0.000323	28.9849998951
980.0	0.000323	29.0160000324
980.0	0.0003233	29.0629999638
980.0	0.0003233	29.1099998951
980.0	0.000323	29.1410000324
980.0	0.000323	29.1879999638
980.0	0.0003228	29.2349998951
980.0	0.0003228	29.2660000324
980.0	0.0003228	29.3129999638
980.0	0.0003225	29.3439998627
980.0	0.0003225	29.3910000324
980.0	0.0003225	29.4379999638
980.0	0.000322	29.4689998627
980.0	0.000322	29.5160000324
980.0	0.0003225	29.5629999638
980.0	0.0003228	29.5939998627
980.0	0.0003233	29.6410000324
980.0	0.0003233	29.6719999313
980.0	0.000323	29.7189998627
980.0	0.000323	29.7660000324
990.0	0.0003313	30.0469999313
990.0	0.000334	30.0789999962
990.0	0.0003365	30.125
990.0	0.0003383	30.1719999313
990.0	0.0003403	30.2039999962
990.0	0.0003413	30.25
990.0	0.000342	30.2969999313
990.0	0.000343	30.3289999962
990.0	0.0003438	30.375
990.0	0.000344	30.4219999313
990.0	0.000344	30.4539999962
990.0	0.000344	30.5
990.0	0.0003443	30.5469999313
990.0	0.0003443	30.5789999962
990.0	0.0003443	30.625
990.0	0.0003445	30.6719999313
990.0	0.0003443	30.7039999962
990.0	0.0003445	30.75
990.0	0.0003443	30.7969999313
990.0	0.0003443	30.8289999962
990.0	0.0003443	30.875
990.0	0.0003443	30.9070000648
990.0	0.0003443	30.9539999962
990.0	0.0003443	31.0
990.0	0.0003438	31.0320000648
990.0	0.0003438	31.0789999962
990.0	0.000344	31.125
990.0	0.000344	31.1570000648
990.0	0.0003443	31.2039999962
990.0	0.000344	31.2349998951
990.0	0.0003438	31.2820000648
990.0	0.0003438	31.3289999962
990.0	0.0003433	31.3599998951
990.0	0.0003433	31.4070000648
990.0	0.000343	31.4379999638
990.0	0.0003428	31.4849998951
990.0	0.0003428	31.5320000648
1000.0	0.0003508	31.8129999638
1000.0	0.0003538	31.8439998627
1000.0	0.0003558	31.8910000324
1000.0	0.000358	31.9379999638
1000.0	0.00036	31.9689998627
1000.0	0.0003618	32.0160000324
1000.0	0.0003625	32.0469999313
1000.0	0.0003638	32.0939998627
1000.0	0.000364	32.1410000324
1000.0	0.000364	32.1719999313
1000.0	0.0003645	32.2189998627
1000.0	0.0003645	32.2660000324
1000.0	0.0003653	32.2969999313
1000.0	0.0003653	32.3439998627
1000.0	0.0003653	32.375
1000.0	0.0003653	32.4219999313
1000.0	0.0003653	32.4689998627
1000.0	0.0003645	32.5
1000.0	0.0003643	32.5469999313
1000.0	0.000364	32.5939998627
1000.0	0.000364	32.625
1000.0	0.0003643	32.6719999313
1000.0	0.000364	32.7189998627
1000.0	0.0003643	32.75
1000.0	0.0003645	32.7969999313
1000.0	0.0003643	32.8289999962
1000.0	0.0003643	32.875
1000.0	0.0003643	32.9219999313
1000.0	0.0003643	32.9539999962
1000.0	0.0003643	33.0
1000.0	0.0003643	33.0469999313
1000.0	0.0003645	33.0789999962
1000.0	0.000365	33.125
1000.0	0.0003645	33.1570000648
1000.0	0.000365	33.2039999962
1000.0	0.0003645	33.25
1000.0	0.0003645	33.2820000648
1010.0	0.0003733	33.5629999638
1010.0	0.0003763	33.6099998951
1010.0	0.0003783	33.6410000324
1010.0	0.0003803	33.6879999638
1010.0	0.0003818	33.7349998951
1010.0	0.0003828	33.7660000324
1010.0	0.0003838	33.8129999638
1010.0	0.0003843	33.8599998951
1010.0	0.000385	33.8910000324
1010.0	0.0003853	33.9379999638
1010.0	0.0003855	33.9689998627
1010.0	0.0003858	34.0160000324
1010.0	0.0003858	34.0629999638
1010.0	0.0003863	34.0939998627
1010.0	0.0003868	34.1410000324
1010.0	0.0003868	34.1879999638
1010.0	0.000387	34.2189998627
1010.0	0.0003868	34.2660000324
1010.0	0.000387	34.3129999638
1010.0	0.0003875	34.3439998627
1010.0	0.000387	34.3910000324
1010.0	0.000387	34.4379999638
1010.0	0.000387	34.4689998627
1010.0	0.000387	34.5160000324
1010.0	0.0003875	34.5629999638
1010.0	0.000387	34.5939998627
1010.0	0.0003875	34.6410000324
1010.0	0.0003878	34.6719999313
1010.0	0.0003878	34.7189998627
1010.0	0.000388	34.7660000324
1010.0	0.000388	34.7969999313
1010.0	0.0003883	34.8439998627
1010.0	0.0003888	34.8910000324
1010.0	0.0003888	34.9219999313
1010.0	0.000388	34.9689998627
1010.0	0.000388	35.0
1010.0	0.000388	35.0469999313
1020.0	0.000398	35.3289999962
1020.0	0.0004013	35.375
1020.0	0.000403	35.4070000648
1020.0	0.000405	35.4539999962
1020.0	0.0004068	35.5
1020.0	0.000408	35.5469999313
1020.0	0.0004088	35.5789999962
1020.0	0.0004093	35.625
1020.0	0.0004095	35.6719999313
1020.0	0.00041	35.7039999962
1020.0	0.0004103	35.75
1020.0	0.0004105	35.7820000648
1020.0	0.0004108	35.8289999962
1020.0	0.0004113	35.875
1020.0	0.0004115	35.9070000648
1020.0	0.0004113	35.9539999962
1020.0	0.0004108	36.0
1020.0	0.0004105	36.0320000648
1020.0	0.0004105	36.0789999962
1020.0	0.0004105	36.1099998951
1020.0	0.0004105	36.1570000648
1020.0	0.0004105	36.2039999962
1020.0	0.0004105	36.2349998951
1020.0	0.0004105	36.2820000648
1020.0	0.0004108	36.3289999962
1020.0	0.0004113	36.3599998951
1020.0	0.0004113	36.4070000648
1020.0	0.0004113	36.4379999638
1020.0	0.0004115	36.4849998951
1020.0	0.0004113	36.5320000648
1020.0	0.0004113	36.5629999638
1020.0	0.0004115	36.6099998951
1020.0	0.0004115	36.6570000648
1020.0	0.0004118	36.6879999638
1020.0	0.0004118	36.7349998951
1020.0	0.0004118	36.7660000324
1030.0	0.0004203	37.0629999638
1030.0	0.000423	37.0939998627
1030.0	0.0004255	37.1410000324
1030.0	0.0004275	37.1719999313
1030.0	0.000429	37.2189998627
1030.0	0.00043	37.2660000324
1030.0	0.0004305	37.2969999313
1030.0	0.0004313	37.3439998627
1030.0	0.0004318	37.3910000324
1030.0	0.0004325	37.4219999313
1030.0	0.0004328	37.4689998627
1030.0	0.0004333	37.5160000324
1030.0	0.0004338	37.5469999313
1030.0	0.0004343	37.5939998627
1030.0	0.0004343	37.625
1030.0	0.0004343	37.6719999313
1030.0	0.0004343	37.7189998627
1030.0	0.000434	37.75
1030.0	0.000434	37.7969999313
1030.0	0.0004338	37.8439998627
1030.0	0.0004333	37.875
1030.0	0.0004333	37.9219999313
1030.0	0.000433	37.9539999962
1030.0	0.000433	38.0
1030.0	0.000433	38.0469999313
1030.0	0.0004333	38.0789999962
1030.0	0.0004333	38.125
1030.0	0.0004338	38.1719999313
1030.0	0.0004338	38.2039999962
1030.0	0.0004338	38.25
1030.0	0.000434	38.2820000648
1030.0	0.0004338	38.3289999962
1030.0	0.0004338	38.375
1030.0	0.0004338	38.4070000648
1030.0	0.0004338	38.4539999962
1030.0	0.0004333	38.5
1030.0	0.000433	38.5320000648
1040.0	0.000442	38.8129999638
1040.0	0.0004453	38.8599998951
1040.0	0.0004475	38.9070000648
1040.0	0.000449	38.9379999638
1040.0	0.0004505	38.9849998951
1040.0	0.0004518	39.0160000324
1040.0	0.000453	39.0629999638
1040.0	0.0004538	39.1099998951
1040.0	0.000454	39.1410000324
1040.0	0.0004543	39.1879999638
1040.0	0.0004545	39.2349998951
1040.0	0.000455	39.2660000324
1040.0	0.0004545	39.3129999638
1040.0	0.0004543	39.3599998951
1040.0	0.0004543	39.3910000324
1040.0	0.0004545	39.4379999638
1040.0	0.000455	39.4689998627
1040.0	0.000455	39.5160000324
1040.0	0.0004545	39.5629999638
1040.0	0.0004545	39.5939998627
1040.0	0.0004545	39.6410000324
1040.0	0.0004543	39.6879999638
1040.0	0.0004545	39.7189998627
1040.0	0.000455	39.7660000324
1040.0	0.0004553	39.7969999313
1040.0	0.0004553	39.8439998627
1040.0	0.000455	39.8910000324
1040.0	0.0004545	39.9219999313
1040.0	0.000455	39.9689998627
1040.0	0.0004545	40.0160000324
1040.0	0.000455	40.0469999313
1040.0	0.0004545	40.0939998627
1040.0	0.0004543	40.125
1040.0	0.0004543	40.1719999313
1040.0	0.000454	40.2189998627
1040.0	0.000454	40.25
1040.0	0.0004538	40.2969999313
1050.0	0.0004638	40.5789999962
1050.0	0.0004668	40.625
1050.0	0.0004693	40.6570000648
1050.0	0.0004713	40.7039999962
1050.0	0.0004728	40.75
1050.0	0.000474	40.7820000648
1050.0	0.0004745	40.8289999962
1050.0	0.0004753	40.875
1050.0	0.0004755	40.9070000648
1050.0	0.0004758	40.9539999962
1050.0	0.0004763	40.9849998951
1050.0	0.0004763	41.0320000648
1050.0	0.0004765	41.0789999962
1050.0	0.0004768	41.1099998951
1050.0	0.0004768	41.1570000648
1050.0	0.000477	41.2039999962
1050.0	0.0004768	41.2349998951
1050.0	0.0004768	41.2820000648
1050.0	0.0004768	41.3129999638
1050.0	0.0004768	41.3599998951
1050.0	0.0004768	41.4070000648
1050.0	0.0004768	41.4379999638
1050.0	0.000477	41.4849998951
1050.0	0.0004775	41.5320000648
1050.0	0.000477	41.5629999638
1050.0	0.0004768	41.6099998951
1050.0	0.000477	41.6410000324
1050.0	0.0004768	41.6879999638
1050.0	0.0004765	41.7349998951
1050.0	0.0004765	41.7660000324
1050.0	0.0004763	41.8129999638
1050.0	0.0004763	41.8599998951
1050.0	0.0004763	41.8910000324
1050.0	0.0004758	41.9379999638
1050.0	0.0004763	41.9849998951
1050.0	0.0004763	42.0160000324
1050.0	0.0004763	42.0629999638
1060.0	0.0004863	42.3439998627
1060.0	0.0004888	42.3910000324
1060.0	0.0004908	42.4219999313
1060.0	0.0004925	42.4689998627
1060.0	0.0004943	42.5
1060.0	0.0004953	42.5469999313
1060.0	0.0004963	42.5939998627
1060.0	0.0004968	42.625
1060.0	0.0004975	42.6719999313
1060.0	0.0004978	42.7189998627
1060.0	0.0004978	42.75
1060.0	0.0004978	42.7969999313
1060.0	0.000498	42.8289999962
1060.0	0.0004988	42.875
1060.0	0.0004983	42.9219999313
1060.0	0.0004988	42.9539999962
1060.0	0.000499	43.0
1060.0	0.0004993	43.0469999313
1060.0	0.0005	43.0789999962
1060.0	0.0004995	43.125
1060.0	0.0004995	43.1570000648
1060.0	0.0005	43.2039999962
1060.0	0.0004993	43.25
1060.0	0.0004995	43.2820000648
1060.0	0.0004993	43.3289999962
1060.0	0.0004993	43.375
1060.0	0.0004993	43.4070000648
1060.0	0.0004993	43.4539999962
1060.0	0.0004988	43.4849998951
1060.0	0.0004988	43.5320000648
1060.0	0.0004983	43.5789999962
1060.0	0.0004988	43.6099998951
1060.0	0.0004988	43.6570000648
1060.0	0.0004988	43.7039999962
1060.0	0.000499	43.7349998951
1060.0	0.0004995	43.7820000648
1060.0	0.0004995	43.8289999962
1070.0	0.0005083	44.1099998951
1070.0	0.0005113	44.1410000324
1070.0	0.0005138	44.1879999638
1070.0	0.0005155	44.2349998951
1070.0	0.000517	44.2660000324
1070.0	0.000518	44.3129999638
1070.0	0.0005188	44.3439998627
1070.0	0.0005193	44.3910000324
1070.0	0.00052	44.4379999638
1070.0	0.00052	44.4849998951
1070.0	0.00052	44.5160000324
1070.0	0.00052	44.5629999638
1070.0	0.0005203	44.5939998627
1070.0	0.0005205	44.6410000324
1070.0	0.0005205	44.6879999638
1070.0	0.0005208	44.7189998627
1070.0	0.0005213	44.7660000324
1070.0	0.0005213	44.8129999638
1070.0	0.0005213	44.8439998627
1070.0	0.0005208	44.8910000324
1070.0	0.0005213	44.9379999638
1070.0	0.0005213	44.9689998627
1070.0	0.0005213	45.0160000324
1070.0	0.0005213	45.0469999313
1070.0	0.0005213	45.0939998627
1070.0	0.0005213	45.1410000324
1070.0	0.0005213	45.1719999313
1070.0	0.0005213	45.2189998627
1070.0	0.0005208	45.2660000324
1070.0	0.0005205	45.2969999313
1070.0	0.0005208	45.3439998627
1070.0	0.0005213	45.375
1070.0	0.0005213	45.4219999313
1070.0	0.0005215	45.4689998627
1070.0	0.0005215	45.5
1070.0	0.0005218	45.5469999313
1070.0	0.0005218	45.5939998627
1080.0	0.000529	45.875
1080.0	0.0005315	45.9070000648
1080.0	0.0005338	45.9539999962
1080.0	0.0005353	46.0
1080.0	0.0005368	46.0320000648
1080.0	0.0005383	46.0789999962
1080.0	0.0005393	46.1099998951
1080.0	0.0005395	46.1570000648
1080.0	0.00054	46.2039999962
1080.0	0.0005403	46.2349998951
1080.0	0.0005403	46.2820000648
1080.0	0.0005403	46.3289999962
1080.0	0.0005403	46.3599998951
1080.0	0.0005405	46.4070000648
1080.0	0.0005405	46.4539999962
1080.0	0.0005405	46.4849998951
1080.0	0.0005403	46.5320000648
1080.0	0.0005405	46.5789999962
1080.0	0.0005403	46.6099998951
1080.0	0.0005405	46.6570000648
1080.0	0.0005408	46.7039999962
1080.0	0.0005408	46.7349998951
1080.0	0.0005413	46.7820000648
1080.0	0.0005415	46.8129999638
1080.0	0.0005418	46.8599998951
1080.0	0.0005415	46.9070000648
1080.0	0.0005415	46.9379999638
1080.0	0.000542	46.9849998951
1080.0	0.0005428	47.0320000648
1080.0	0.0005425	47.0629999638
1080.0	0.000542	47.1099998951
1080.0	0.000542	47.1410000324
1080.0	0.000542	47.1879999638
1080.0	0.0005425	47.2349998951
1080.0	0.000542	47.2660000324
1080.0	0.000542	47.3129999638
1080.0	0.000542	47.3599998951
1090.0	0.0005488	47.6410000324
1090.0	0.0005513	47.6719999313
1090.0	0.000553	47.7189998627
1090.0	0.0005543	47.7660000324
1090.0	0.0005555	47.7969999313
1090.0	0.0005563	47.8439998627
1090.0	0.000557	47.8910000324
1090.0	0.0005578	47.9219999313
1090.0	0.000558	47.9689998627
1090.0	0.0005588	48.0
1090.0	0.0005588	48.0469999313
1090.0	0.000559	48.0939998627
1090.0	0.0005593	48.125
1090.0	0.000559	48.1719999313
1090.0	0.000559	48.2189998627
1090.0	0.0005593	48.25
1090.0	0.0005595	48.2969999313
1090.0	0.0005593	48.3289999962
1090.0	0.0005593	48.375
1090.0	0.000559	48.4219999313
1090.0	0.000559	48.4539999962
1090.0	0.000559	48.5
1090.0	0.000559	48.5469999313
1090.0	0.0005593	48.5789999962
1090.0	0.000559	48.625
1090.0	0.000559	48.6570000648
1090.0	0.0005593	48.7039999962
1090.0	0.00056	48.75
1090.0	0.00056	48.7820000648
1090.0	0.0005603	48.8289999962
1090.0	0.0005603	48.875
1090.0	0.0005603	48.9070000648
1090.0	0.0005603	48.9539999962
1090.0	0.0005603	49.0
1090.0	0.0005605	49.0320000648
1090.0	0.0005605	49.0789999962
1090.0	0.0005605	49.1099998951
1100.0	0.0005665	49.3910000324
1100.0	0.000568	49.4379999638
1100.0	0.0005693	49.4689998627
1100.0	0.0005703	49.5160000324
1100.0	0.0005713	49.5629999638
1100.0	0.0005718	49.5939998627
1100.0	0.0005725	49.6410000324
1100.0	0.000573	49.6879999638
1100.0	0.0005733	49.7189998627
1100.0	0.0005733	49.7660000324
1100.0	0.0005738	49.8129999638
1100.0	0.0005738	49.8439998627
1100.0	0.0005738	49.8910000324
1100.0	0.0005738	49.9219999313
1100.0	0.0005738	49.9689998627
1100.0	0.0005733	50.0160000324
1100.0	0.0005738	50.0469999313
1100.0	0.0005738	50.0939998627
1100.0	0.0005738	50.1410000324
1100.0	0.0005738	50.1719999313
1100.0	0.0005733	50.2189998627
1100.0	0.000573	50.2660000324
1100.0	0.0005728	50.2969999313
1100.0	0.0005725	50.3439998627
1100.0	0.0005728	50.3910000324
1100.0	0.0005728	50.4219999313
1100.0	0.000573	50.4689998627
1100.0	0.000573	50.5
1100.0	0.000573	50.5469999313
1100.0	0.0005738	50.5939998627
1100.0	0.0005738	50.625
1100.0	0.0005738	50.6719999313
1100.0	0.000574	50.7189998627
1100.0	0.000574	50.75
1100.0	0.000574	50.7969999313
1100.0	0.000574	50.8439998627
1110.0	0.0005778	51.1099998951
1110.0	0.000579	51.1570000648
1110.0	0.0005803	51.2039999962
1110.0	0.0005813	51.2349998951
1110.0	0.000582	51.2820000648
1110.0	0.0005825	51.3289999962
1110.0	0.0005828	51.3599998951
1110.0	0.000583	51.4070000648
1110.0	0.000583	51.4379999638
1110.0	0.000583	51.4849998951
1110.0	0.000583	51.5320000648
1110.0	0.0005828	51.5629999638
1110.0	0.000583	51.6099998951
1110.0	0.000583	51.6570000648
1110.0	0.0005833	51.6879999638
1110.0	0.0005833	51.7349998951
1110.0	0.0005833	51.7660000324
1110.0	0.0005833	51.8129999638
1110.0	0.000583	51.8599998951
1110.0	0.0005828	51.8910000324
1110.0	0.0005828	51.9379999638
1110.0	0.000583	51.9849998951
1110.0	0.000583	52.0160000324
1110.0	0.000583	52.0629999638
1110.0	0.000583	52.0939998627
1110.0	0.0005833	52.1410000324
1110.0	0.0005838	52.1879999638
1110.0	0.0005838	52.2189998627
1110.0	0.0005838	52.2660000324
1110.0	0.000584	52.3129999638
1110.0	0.0005838	52.3439998627
1110.0	0.0005838	52.3910000324
1110.0	0.0005838	52.4219999313
1110.0	0.0005833	52.4689998627
1110.0	0.0005833	52.5160000324
1110.0	0.0005833	52.5629999638
1110.0	0.0005838	52.5939998627
1120.0	0.0005858	52.875
1120.0	0.0005868	52.9219999313
1120.0	0.0005878	52.9539999962
1120.0	0.000588	53.0
1120.0	0.0005888	53.0469999313
1120.0	0.000589	53.0789999962
1120.0	0.0005893	53.125
1120.0	0.00059	53.1719999313
1120.0	0.00059	53.2039999962
1120.0	0.0005903	53.25
1120.0	0.0005903	53.2820000648
1120.0	0.0005903	53.3289999962
1120.0	0.0005905	53.375
1120.0	0.0005905	53.4070000648
1120.0	0.0005905	53.4539999962
1120.0	0.0005905	53.5
1120.0	0.0005905	53.5320000648
1120.0	0.0005905	53.5789999962
1120.0	0.0005905	53.6099998951
1120.0	0.0005905	53.6570000648
1120.0	0.0005905	53.7039999962
1120.0	0.0005905	53.7349998951
1120.0	0.0005903	53.7820000648
1120.0	0.00059	53.8289999962
1120.0	0.0005903	53.8599998951
1120.0	0.0005903	53.9070000648
1120.0	0.0005903	53.9379999638
1120.0	0.0005905	53.9849998951
1120.0	0.0005905	54.0320000648
1120.0	0.0005908	54.0629999638
1120.0	0.0005905	54.1099998951
1120.0	0.0005905	54.1570000648
1120.0	0.0005903	54.1879999638
1120.0	0.00059	54.2349998951
1120.0	0.0005903	54.2660000324
1120.0	0.0005903	54.3129999638
1120.0	0.00059	54.3599998951
1130.0	0.000592	54.625
1130.0	0.0005928	54.6719999313
1130.0	0.0005933	54.7189998627
1130.0	0.0005943	54.75
1130.0	0.0005945	54.7969999313
1130.0	0.000595	54.8439998627
1130.0	0.0005955	54.875
1130.0	0.0005958	54.9219999313
1130.0	0.0005963	54.9539999962
1130.0	0.0005963	55.0
1130.0	0.0005963	55.0469999313
1130.0	0.0005963	55.0789999962
1130.0	0.0005963	55.125
1130.0	0.0005963	55.1719999313
1130.0	0.0005963	55.2039999962
1130.0	0.0005963	55.25
1130.0	0.0005963	55.2820000648
1130.0	0.0005963	55.3289999962
1130.0	0.0005965	55.375
1130.0	0.0005965	55.4070000648
1130.0	0.0005965	55.4539999962
1130.0	0.0005968	55.5
1130.0	0.0005968	55.5320000648
1130.0	0.0005968	55.5789999962
1130.0	0.0005968	55.6099998951
1130.0	0.000597	55.6570000648
1130.0	0.000597	55.7039999962
1130.0	0.0005975	55.7349998951
1130.0	0.0005975	55.7820000648
1130.0	0.0005975	55.8289999962
1130.0	0.0005975	55.8599998951
1130.0	0.0005975	55.9070000648
1130.0	0.0005978	55.9379999638
1130.0	0.0005978	55.9849998951
1130.0	0.0005978	56.0320000648
1130.0	0.000598	56.0629999638
1130.0	0.000598	56.1099998951
1140.0	0.0005993	56.375
1140.0	0.0005995	56.4219999313
1140.0	0.0006	56.4689998627
1140.0	0.0006	56.5
1140.0	0.0006003	56.5469999313
1140.0	0.0006005	56.5939998627
1140.0	0.0006008	56.625
1140.0	0.0006008	56.6719999313
1140.0	0.0006008	56.7039999962
1140.0	0.0006013	56.75
1140.0	0.0006013	56.7969999313
1140.0	0.0006013	56.8289999962
1140.0	0.0006013	56.875
1140.0	0.0006013	56.9219999313
1140.0	0.0006015	56.9539999962
1140.0	0.0006018	57.0
1140.0	0.000602	57.0320000648
1140.0	0.0006025	57.0789999962
1140.0	0.000602	57.125
1140.0	0.0006015	57.1570000648
1140.0	0.0006015	57.2039999962
1140.0	0.0006018	57.25
1140.0	0.0006015	57.2820000648
1140.0	0.0006018	57.3289999962
1140.0	0.0006018	57.3599998951
1140.0	0.0006018	57.4070000648
1140.0	0.000602	57.4539999962
1140.0	0.000602	57.4849998951
1140.0	0.0006025	57.5320000648
1140.0	0.000602	57.5789999962
1140.0	0.0006018	57.6099998951
1140.0	0.0006018	57.6570000648
1140.0	0.0006018	57.7039999962
1140.0	0.000602	57.7349998951
1140.0	0.000602	57.7820000648
1140.0	0.000602	57.8289999962
1140.0	0.000602	57.8599998951
1150.0	0.0006018	58.125
1150.0	0.000602	58.1719999313
1150.0	0.0006025	58.2189998627
1150.0	0.0006028	58.25
1150.0	0.0006028	58.2969999313
1150.0	0.000603	58.3289999962
1150.0	0.0006028	58.375
1150.0	0.0006025	58.4219999313
1150.0	0.000602	58.4539999962
1150.0	0.000602	58.5
1150.0	0.0006018	58.5469999313
1150.0	0.0006015	58.5789999962
1150.0	0.0006015	58.625
1150.0	0.0006018	58.6719999313
1150.0	0.0006015	58.7039999962
1150.0	0.0006015	58.75
1150.0	0.0006018	58.7820000648
1150.0	0.000602	58.8289999962
1150.0	0.0006025	58.875
1150.0	0.0006025	58.9070000648
1150.0	0.000602	58.9539999962
1150.0	0.0006025	59.0
1150.0	0.000602	59.0320000648
1150.0	0.0006025	59.0789999962
1150.0	0.0006025	59.1099998951
1150.0	0.000602	59.1570000648
1150.0	0.0006018	59.2039999962
1150.0	0.0006015	59.2349998951
1150.0	0.0006008	59.2820000648
1150.0	0.0006005	59.3289999962
1150.0	0.0006005	59.3599998951
1150.0	0.0006003	59.4070000648
1150.0	0.0006005	59.4379999638
1150.0	0.0006003	59.4849998951
1150.0	0.0006003	59.5320000648
1150.0	0.0006005	59.5629999638
1150.0	0.0006005	59.6099998951
1160.0	0.0006018	59.875
1160.0	0.0006025	59.9070000648
1160.0	0.0006025	59.9539999962
1160.0	0.0006028	60.0
1160.0	0.0006028	60.0320000648
1160.0	0.0006025	60.0789999962
1160.0	0.0006025	60.125
1160.0	0.0006025	60.1570000648
1160.0	0.0006028	60.2039999962
1160.0	0.000603	60.2349998951
1160.0	0.0006028	60.2820000648
1160.0	0.000603	60.3289999962
1160.0	0.0006028	60.375
1160.0	0.0006025	60.4070000648
1160.0	0.000602	60.4539999962
1160.0	0.0006025	60.4849998951
1160.0	0.0006025	60.5320000648
1160.0	0.0006025	60.5789999962
1160.0	0.0006025	60.6099998951
1160.0	0.0006028	60.6570000648
1160.0	0.0006033	60.7039999962
1160.0	0.0006033	60.7349998951
1160.0	0.0006038	60.7820000648
1160.0	0.0006038	60.8129999638
1160.0	0.000603	60.8599998951
1160.0	0.000603	60.9070000648
1160.0	0.0006033	60.9379999638
1160.0	0.0006033	60.9849998951
1160.0	0.0006033	61.0320000648
1160.0	0.0006033	61.0629999638
1160.0	0.0006033	61.1099998951
1160.0	0.000603	61.1570000648
1160.0	0.000603	61.1879999638
1160.0	0.000603	61.2349998951
1160.0	0.0006028	61.2660000324
1160.0	0.0006028	61.3129999638
1160.0	0.000603	61.3599998951
1170.0	0.000605	61.6099998951
1170.0	0.000605	61.6570000648
1170.0	0.0006053	61.7039999962
1170.0	0.0006055	61.7349998951
1170.0	0.0006058	61.7820000648
1170.0	0.0006063	61.8129999638
1170.0	0.0006065	61.8599998951
1170.0	0.0006065	61.9070000648
1170.0	0.0006058	61.9379999638
1170.0	0.0006055	61.9849998951
1170.0	0.0006053	62.0320000648
1170.0	0.000605	62.0789999962
1170.0	0.000605	62.1099998951
1170.0	0.0006053	62.1570000648
1170.0	0.0006055	62.2039999962
1170.0	0.0006058	62.2349998951
1170.0	0.0006063	62.2820000648
1170.0	0.0006065	62.3129999638
1170.0	0.0006065	62.3599998951
1170.0	0.0006068	62.4070000648
1170.0	0.0006068	62.4379999638
1170.0	0.0006068	62.4849998951
1170.0	0.0006065	62.5320000648
1170.0	0.0006063	62.5629999638
1170.0	0.0006063	62.6099998951
1170.0	0.0006055	62.6410000324
1170.0	0.0006055	62.6879999638
1170.0	0.0006053	62.7349998951
1170.0	0.0006055	62.7820000648
1170.0	0.0006058	62.8129999638
1170.0	0.0006063	62.8599998951
1170.0	0.0006065	62.9070000648
1170.0	0.0006065	62.9379999638
1170.0	0.0006063	62.9849998951
1170.0	0.0006063	63.0160000324
1170.0	0.0006063	63.0629999638
1170.0	0.0006058	63.1099998951
1180.0	0.0006058	63.3599998951
1180.0	0.0006063	63.4070000648
1180.0	0.0006063	63.4379999638
1180.0	0.0006058	63.4849998951
1180.0	0.0006058	63.5320000648
1180.0	0.0006063	63.5629999638
1180.0	0.0006065	63.6099998951
1180.0	0.0006065	63.6570000648
1180.0	0.0006065	63.6879999638
1180.0	0.0006068	63.7349998951
1180.0	0.0006068	63.7820000648
1180.0	0.000607	63.8129999638
1180.0	0.0006068	63.8599998951
1180.0	0.0006068	63.9070000648
1180.0	0.000607	63.9379999638
1180.0	0.000607	63.9849998951
1180.0	0.0006075	64.0320000648
1180.0	0.0006078	64.0629999638
1180.0	0.0006078	64.1099998951
1180.0	0.0006078	64.1410000324
1180.0	0.000608	64.1879999638
1180.0	0.0006078	64.2349998951
1180.0	0.0006078	64.2660000324
1180.0	0.0006078	64.3129999638
1180.0	0.0006078	64.3599998951
1180.0	0.000608	64.3910000324
1180.0	0.000608	64.4379999638
1180.0	0.000608	64.4689998627
1180.0	0.0006078	64.5160000324
1180.0	0.0006075	64.5629999638
1180.0	0.0006075	64.5939998627
1180.0	0.0006078	64.6410000324
1180.0	0.0006078	64.6879999638
1180.0	0.000608	64.7189998627
1180.0	0.0006078	64.7660000324
1180.0	0.0006075	64.8129999638
1180.0	0.0006075	64.8439998627
1190.0	0.000609	65.1099998951
1190.0	0.0006095	65.1410000324
1190.0	0.0006105	65.1879999638
1190.0	0.0006113	65.2349998951
1190.0	0.0006118	65.2660000324
1190.0	0.000612	65.3129999638
1190.0	0.0006125	65.3439998627
1190.0	0.0006128	65.3910000324
1190.0	0.000613	65.4379999638
1190.0	0.000613	65.4689998627
1190.0	0.0006133	65.5160000324
1190.0	0.000613	65.5629999638
1190.0	0.000613	65.5939998627
1190.0	0.0006133	65.6410000324
1190.0	0.0006138	65.6719999313
1190.0	0.0006133	65.7189998627
1190.0	0.0006133	65.7660000324
1190.0	0.000613	65.8129999638
1190.0	0.000613	65.8439998627
1190.0	0.0006133	65.8910000324
1190.0	0.0006138	65.9379999638
1190.0	0.0006138	65.9689998627
1190.0	0.0006133	66.0160000324
1190.0	0.0006133	66.0469999313
1190.0	0.0006133	66.0939998627
1190.0	0.0006133	66.1410000324
1190.0	0.0006133	66.1719999313
1190.0	0.0006138	66.2189998627
1190.0	0.0006138	66.2660000324
1190.0	0.000614	66.2969999313
1190.0	0.000614	66.3439998627
1190.0	0.0006138	66.375
1190.0	0.000614	66.4219999313
1190.0	0.0006138	66.4689998627
1190.0	0.0006133	66.5
1190.0	0.000613	66.5469999313
1190.0	0.0006128	66.5939998627
1200.0	0.000614	66.8439998627
1200.0	0.0006145	66.8910000324
1200.0	0.0006155	66.9379999638
1200.0	0.0006163	66.9689998627
1200.0	0.0006165	67.0160000324
1200.0	0.0006168	67.0629999638
1200.0	0.0006168	67.0939998627
1200.0	0.0006168	67.1410000324
1200.0	0.0006168	67.1879999638
1200.0	0.0006168	67.2349998951
1200.0	0.0006165	67.2660000324
1200.0	0.0006165	67.3129999638
1200.0	0.0006163	67.3439998627
1200.0	0.0006163	67.3910000324
1200.0	0.0006163	67.4379999638
1200.0	0.0006163	67.4689998627
1200.0	0.0006165	67.5160000324
1200.0	0.0006168	67.5629999638
1200.0	0.0006168	67.5939998627
1200.0	0.0006168	67.6410000324
1200.0	0.0006163	67.6719999313
1200.0	0.0006163	67.7189998627
1200.0	0.0006158	67.7660000324
1200.0	0.0006158	67.7969999313
1200.0	0.0006158	67.8439998627
1200.0	0.0006163	67.8910000324
1200.0	0.0006163	67.9219999313
1200.0	0.0006165	67.9689998627
1200.0	0.0006163	68.0160000324
1200.0	0.0006163	68.0469999313
1200.0	0.0006165	68.0939998627
1200.0	0.0006168	68.125
1200.0	0.000617	68.1719999313
1200.0	0.000617	68.2189998627
1200.0	0.000617	68.25
1200.0	0.000617	68.2969999313
1200.0	0.000617	68.3439998627
1210.0	0.0006203	68.6099998951
1210.0	0.0006218	68.6410000324
1210.0	0.0006228	68.6879999638
1210.0	0.0006233	68.7349998951
1210.0	0.0006238	68.7660000324
1210.0	0.000624	68.8129999638
1210.0	0.0006243	68.8439998627
1210.0	0.0006245	68.8910000324
1210.0	0.0006245	68.9379999638
1210.0	0.000625	68.9689998627
1210.0	0.0006253	69.0160000324
1210.0	0.0006255	69.0629999638
1210.0	0.0006263	69.0939998627
1210.0	0.0006263	69.1410000324
1210.0	0.0006265	69.1879999638
1210.0	0.0006265	69.2189998627
1210.0	0.0006265	69.2660000324
1210.0	0.0006268	69.3129999638
1210.0	0.0006268	69.3439998627
1210.0	0.0006265	69.3910000324
1210.0	0.0006265	69.4219999313
1210.0	0.0006265	69.4689998627
1210.0	0.0006265	69.5160000324
1210.0	0.0006268	69.5469999313
1210.0	0.0006268	69.5939998627
1210.0	0.0006268	69.6410000324
1210.0	0.0006268	69.6719999313
1210.0	0.0006268	69.7189998627
1210.0	0.0006268	69.7660000324
1210.0	0.0006268	69.7969999313
1210.0	0.0006268	69.8439998627
1210.0	0.0006268	69.875
1210.0	0.0006268	69.9219999313
1210.0	0.0006268	69.9689998627
1210.0	0.000627	70.0
1210.0	0.0006268	70.0469999313
1210.0	0.0006268	70.0939998627
1220.0	0.00063	70.3599998951
1220.0	0.0006313	70.3910000324
1220.0	0.000632	70.4379999638
1220.0	0.000633	70.4849998951
1220.0	0.000633	70.5160000324
1220.0	0.000634	70.5629999638
1220.0	0.000634	70.5939998627
1220.0	0.0006343	70.6410000324
1220.0	0.000634	70.6879999638
1220.0	0.0006338	70.7189998627
1220.0	0.0006338	70.7660000324
1220.0	0.0006338	70.8129999638
1220.0	0.0006338	70.8439998627
1220.0	0.0006338	70.8910000324
1220.0	0.0006338	70.9219999313
1220.0	0.0006338	70.9689998627
1220.0	0.0006338	71.0160000324
1220.0	0.000633	71.0469999313
1220.0	0.000633	71.0939998627
1220.0	0.0006333	71.1410000324
1220.0	0.0006338	71.1719999313
1220.0	0.0006338	71.2189998627
1220.0	0.0006338	71.25
1220.0	0.0006333	71.2969999313
1220.0	0.0006333	71.3439998627
1220.0	0.000633	71.375
1220.0	0.000633	71.4219999313
1220.0	0.000633	71.4689998627
1220.0	0.000633	71.5
1220.0	0.0006333	71.5469999313
1220.0	0.0006333	71.5939998627
1220.0	0.0006333	71.625
1220.0	0.0006338	71.6719999313
1220.0	0.000634	71.7039999962
1220.0	0.000634	71.75
1220.0	0.000634	71.7969999313
1220.0	0.000634	71.8289999962
1230.0	0.000638	72.1099998951
1230.0	0.0006398	72.1410000324
1230.0	0.0006405	72.1879999638
1230.0	0.0006418	72.2189998627
1230.0	0.0006425	72.2660000324
1230.0	0.0006435	72.3129999638
1230.0	0.0006443	72.3439998627
1230.0	0.0006448	72.3910000324
1230.0	0.000645	72.4379999638
1230.0	0.0006455	72.4689998627
1230.0	0.000646	72.5160000324
1230.0	0.000646	72.5629999638
1230.0	0.0006463	72.5939998627
1230.0	0.0006463	72.6410000324
1230.0	0.0006463	72.6719999313
1230.0	0.0006468	72.7189998627
1230.0	0.0006473	72.7660000324
1230.0	0.0006478	72.7969999313
1230.0	0.0006478	72.8439998627
1230.0	0.0006478	72.8910000324
1230.0	0.0006475	72.9219999313
1230.0	0.0006475	72.9689998627
1230.0	0.0006473	73.0
1230.0	0.0006473	73.0469999313
1230.0	0.0006465	73.0939998627
1230.0	0.0006468	73.125
1230.0	0.0006465	73.1719999313
1230.0	0.0006468	73.2189998627
1230.0	0.0006473	73.25
1230.0	0.0006473	73.2969999313
1230.0	0.0006468	73.3289999962
1230.0	0.0006465	73.375
1230.0	0.0006465	73.4219999313
1230.0	0.0006468	73.4539999962
1230.0	0.0006465	73.5
1230.0	0.0006465	73.5469999313
1230.0	0.0006463	73.5789999962
1240.0	0.0006503	73.8599998951
1240.0	0.0006515	73.8910000324
1240.0	0.0006528	73.9379999638
1240.0	0.0006538	73.9689998627
1240.0	0.000655	74.0160000324
1240.0	0.0006555	74.0629999638
1240.0	0.0006563	74.1099998951
1240.0	0.0006568	74.1410000324
1240.0	0.0006573	74.1879999638
1240.0	0.0006573	74.2349998951
1240.0	0.0006575	74.2660000324
1240.0	0.0006573	74.3129999638
1240.0	0.0006575	74.3439998627
1240.0	0.0006573	74.3910000324
1240.0	0.0006573	74.4379999638
1240.0	0.0006568	74.4689998627
1240.0	0.0006573	74.5160000324
1240.0	0.0006568	74.5629999638
1240.0	0.0006568	74.5939998627
1240.0	0.0006565	74.6410000324
1240.0	0.0006565	74.6719999313
1240.0	0.0006563	74.7189998627
1240.0	0.0006563	74.7660000324
1240.0	0.0006565	74.7969999313
1240.0	0.0006565	74.8439998627
1240.0	0.0006565	74.8910000324
1240.0	0.0006568	74.9219999313
1240.0	0.0006568	74.9689998627
1240.0	0.0006565	75.0160000324
1240.0	0.0006565	75.0469999313
1240.0	0.0006565	75.0939998627
1240.0	0.0006565	75.1410000324
1240.0	0.0006565	75.1719999313
1240.0	0.0006565	75.2189998627
1240.0	0.0006573	75.2660000324
1240.0	0.0006575	75.2969999313
1240.0	0.0006575	75.3439998627
1250.0	0.0006623	75.6099998951
1250.0	0.0006635	75.6570000648
1250.0	0.000665	75.6879999638
1250.0	0.0006663	75.7349998951
1250.0	0.0006668	75.7820000648
1250.0	0.0006673	75.8129999638
1250.0	0.0006678	75.8599998951
1250.0	0.000668	75.8910000324
1250.0	0.0006688	75.9379999638
1250.0	0.0006693	75.9849998951
1250.0	0.0006698	76.0160000324
1250.0	0.00067	76.0629999638
1250.0	0.0006703	76.1099998951
1250.0	0.0006703	76.1410000324
1250.0	0.0006703	76.1879999638
1250.0	0.0006703	76.2349998951
1250.0	0.0006703	76.2660000324
1250.0	0.0006703	76.3129999638
1250.0	0.00067	76.3439998627
1250.0	0.0006703	76.3910000324
1250.0	0.0006705	76.4379999638
1250.0	0.0006713	76.4689998627
1250.0	0.0006713	76.5160000324
1250.0	0.0006715	76.5629999638
1250.0	0.0006715	76.5939998627
1250.0	0.0006715	76.6410000324
1250.0	0.0006715	76.6719999313
1250.0	0.0006715	76.7189998627
1250.0	0.0006715	76.7660000324
1250.0	0.0006718	76.8129999638
1250.0	0.0006718	76.8439998627
1250.0	0.0006715	76.8910000324
1250.0	0.0006715	76.9219999313
1250.0	0.0006713	76.9689998627
1250.0	0.000671	77.0160000324
1250.0	0.0006713	77.0469999313
1250.0	0.0006715	77.0939998627
1260.0	0.0006765	77.3599998951
1260.0	0.0006785	77.4070000648
1260.0	0.0006798	77.4539999962
1260.0	0.0006803	77.4849998951
1260.0	0.0006813	77.5320000648
1260.0	0.0006818	77.5629999638
1260.0	0.0006823	77.6099998951
1260.0	0.0006828	77.6570000648
1260.0	0.0006828	77.6879999638
1260.0	0.000683	77.7349998951
1260.0	0.000683	77.7820000648
1260.0	0.0006835	77.8129999638
1260.0	0.0006838	77.8599998951
1260.0	0.0006835	77.8910000324
1260.0	0.0006835	77.9379999638
1260.0	0.0006835	77.9849998951
1260.0	0.000683	78.0160000324
1260.0	0.0006828	78.0629999638
1260.0	0.000683	78.1099998951
1260.0	0.0006828	78.1410000324
1260.0	0.0006828	78.1879999638
1260.0	0.0006828	78.2349998951
1260.0	0.0006828	78.2660000324
1260.0	0.0006828	78.3129999638
1260.0	0.0006823	78.3439998627
1260.0	0.0006818	78.3910000324
1260.0	0.0006818	78.4379999638
1260.0	0.0006818	78.4689998627
1260.0	0.0006815	78.5160000324
1260.0	0.0006813	78.5629999638
1260.0	0.0006813	78.5939998627
1260.0	0.0006813	78.6410000324
1260.0	0.0006813	78.6719999313
1260.0	0.0006813	78.7189998627
1260.0	0.0006813	78.7660000324
1260.0	0.0006815	78.7969999313
1260.0	0.0006815	78.8439998627
1270.0	0.000684	79.1099998951
1270.0	0.000686	79.1570000648
1270.0	0.0006873	79.1879999638
1270.0	0.0006878	79.2349998951
1270.0	0.0006888	79.2820000648
1270.0	0.000689	79.3129999638
1270.0	0.000689	79.3599998951
1270.0	0.0006893	79.3910000324
1270.0	0.0006898	79.4379999638
1270.0	0.0006898	79.4849998951
1270.0	0.0006898	79.5160000324
1270.0	0.0006898	79.5629999638
1270.0	0.0006903	79.6099998951
1270.0	0.0006903	79.6410000324
1270.0	0.0006903	79.6879999638
1270.0	0.0006905	79.7189998627
1270.0	0.000691	79.7660000324
1270.0	0.000691	79.8129999638
1270.0	0.0006913	79.8439998627
1270.0	0.0006915	79.8910000324
1270.0	0.0006913	79.9379999638
1270.0	0.0006915	79.9689998627
1270.0	0.0006915	80.0160000324
1270.0	0.0006918	80.0629999638
1270.0	0.0006918	80.0939998627
1270.0	0.0006918	80.1410000324
1270.0	0.0006915	80.1719999313
1270.0	0.0006918	80.2189998627
1270.0	0.0006915	80.2660000324
1270.0	0.0006918	80.3129999638
1270.0	0.0006915	80.3439998627
1270.0	0.0006915	80.3910000324
1270.0	0.0006915	80.4219999313
1270.0	0.0006915	80.4689998627
1270.0	0.0006913	80.5160000324
1270.0	0.0006913	80.5469999313
1270.0	0.000691	80.5939998627
1280.0	0.000694	80.8599998951
1280.0	0.0006955	80.9070000648
1280.0	0.0006965	80.9379999638
1280.0	0.0006975	80.9849998951
1280.0	0.0006978	81.0320000648
1280.0	0.0006985	81.0629999638
1280.0	0.0006985	81.1099998951
1280.0	0.0006985	81.1410000324
1280.0	0.0006988	81.1879999638
1280.0	0.000699	81.2349998951
1280.0	0.000699	81.2820000648
1280.0	0.0006993	81.3129999638
1280.0	0.0006993	81.3599998951
1280.0	0.000699	81.3910000324
1280.0	0.000699	81.4379999638
1280.0	0.000699	81.4849998951
1280.0	0.000699	81.5160000324
1280.0	0.000699	81.5629999638
1280.0	0.000699	81.6099998951
1280.0	0.0006993	81.6410000324
1280.0	0.000699	81.6879999638
1280.0	0.0006988	81.7189998627
1280.0	0.000699	81.7660000324
1280.0	0.000699	81.8129999638
1280.0	0.000699	81.8439998627
1280.0	0.000699	81.8910000324
1280.0	0.0006993	81.9379999638
1280.0	0.0006993	81.9689998627
1280.0	0.0007	82.0160000324
1280.0	0.0007	82.0629999638
1280.0	0.0006998	82.0939998627
1280.0	0.0007003	82.1410000324
1280.0	0.0007003	82.1719999313
1280.0	0.0007005	82.2189998627
1280.0	0.000701	82.2660000324
1280.0	0.0007005	82.2969999313
1280.0	0.0007005	82.3439998627
1290.0	0.0007018	82.6099998951
1290.0	0.0007025	82.6410000324
1290.0	0.0007028	82.6879999638
1290.0	0.000703	82.7349998951
1290.0	0.0007035	82.7660000324
1290.0	0.0007035	82.8129999638
1290.0	0.000703	82.8599998951
1290.0	0.000703	82.8910000324
1290.0	0.0007028	82.9379999638
1290.0	0.0007025	82.9849998951
1290.0	0.0007028	83.0160000324
1290.0	0.0007028	83.0629999638
1290.0	0.0007028	83.1099998951
1290.0	0.0007035	83.1410000324
1290.0	0.0007035	83.1879999638
1290.0	0.0007035	83.2189998627
1290.0	0.0007035	83.2660000324
1290.0	0.000703	83.3129999638
1290.0	0.000703	83.3439998627
1290.0	0.000703	83.3910000324
1290.0	0.0007028	83.4379999638
1290.0	0.0007028	83.4689998627
1290.0	0.0007025	83.5160000324
1290.0	0.0007025	83.5469999313
1290.0	0.0007025	83.5939998627
1290.0	0.0007025	83.6410000324
1290.0	0.0007023	83.6719999313
1290.0	0.0007023	83.7189998627
1290.0	0.0007018	83.7660000324
1290.0	0.0007018	83.7969999313
1290.0	0.0007015	83.8439998627
1290.0	0.0007018	83.875
1290.0	0.0007025	83.9219999313
1290.0	0.0007028	83.9689998627
1290.0	0.0007028	84.0
1290.0	0.000703	84.0469999313
1290.0	0.000703	84.0939998627
1300.0	0.0007015	84.3439998627
1300.0	0.000701	84.3910000324
1300.0	0.0007003	84.4379999638
1300.0	0.0007	84.4689998627
1300.0	0.0006998	84.5160000324
1300.0	0.0006998	84.5629999638
1300.0	0.0006998	84.5939998627
1300.0	0.0006993	84.6410000324
1300.0	0.0006993	84.6719999313
1300.0	0.0006993	84.7189998627
1300.0	0.000699	84.7660000324
1300.0	0.000699	84.7969999313
1300.0	0.000699	84.8439998627
1300.0	0.000699	84.8910000324
1300.0	0.000699	84.9219999313
1300.0	0.000699	84.9689998627
1300.0	0.0006988	85.0160000324
1300.0	0.0006988	85.0469999313
1300.0	0.0006985	85.0939998627
1300.0	0.0006985	85.125
1300.0	0.0006985	85.1719999313
1300.0	0.0006988	85.2189998627
1300.0	0.000699	85.25
1300.0	0.000699	85.2969999313
1300.0	0.0006998	85.3439998627
1300.0	0.0006993	85.375
1300.0	0.000699	85.4219999313
1300.0	0.000699	85.4539999962
1300.0	0.000699	85.5
1300.0	0.0006985	85.5469999313
1300.0	0.0006985	85.5789999962
1300.0	0.0006985	85.625
1300.0	0.0006985	85.6719999313
1300.0	0.0006985	85.7039999962
1300.0	0.0006985	85.75
1300.0	0.0006985	85.7969999313
1300.0	0.0006988	85.8289999962
1310.0	0.0006963	86.0939998627
1310.0	0.000695	86.1410000324
1310.0	0.000694	86.1719999313
1310.0	0.000693	86.2189998627
1310.0	0.0006925	86.25
1310.0	0.0006918	86.2969999313
1310.0	0.0006913	86.3439998627
1310.0	0.0006913	86.375
1310.0	0.000691	86.4219999313
1310.0	0.0006905	86.4689998627
1310.0	0.0006905	86.5
1310.0	0.000691	86.5469999313
1310.0	0.0006913	86.5789999962
1310.0	0.0006915	86.625
1310.0	0.0006915	86.6719999313
1310.0	0.0006915	86.7039999962
1310.0	0.0006913	86.75
1310.0	0.0006913	86.7969999313
1310.0	0.0006913	86.8289999962
1310.0	0.0006913	86.875
1310.0	0.0006915	86.9219999313
1310.0	0.0006918	86.9539999962
1310.0	0.0006918	87.0
1310.0	0.0006918	87.0320000648
1310.0	0.0006918	87.0789999962
1310.0	0.0006918	87.125
1310.0	0.0006918	87.1570000648
1310.0	0.0006918	87.2039999962
1310.0	0.0006918	87.2349998951
1310.0	0.0006918	87.2820000648
1310.0	0.0006923	87.3289999962
1310.0	0.0006918	87.3599998951
1310.0	0.0006915	87.4070000648
1310.0	0.0006915	87.4539999962
1310.0	0.0006915	87.4849998951
1310.0	0.0006915	87.5320000648
1310.0	0.0006915	87.5789999962
1320.0	0.0006873	87.8289999962
1320.0	0.0006853	87.875
1320.0	0.0006835	87.9070000648
1320.0	0.0006823	87.9539999962
1320.0	0.0006813	88.0
1320.0	0.0006805	88.0320000648
1320.0	0.0006803	88.0789999962
1320.0	0.0006803	88.1099998951
1320.0	0.00068	88.1570000648
1320.0	0.0006798	88.2039999962
1320.0	0.0006793	88.2349998951
1320.0	0.0006793	88.2820000648
1320.0	0.00068	88.3289999962
1320.0	0.0006803	88.3599998951
1320.0	0.0006803	88.4070000648
1320.0	0.00068	88.4379999638
1320.0	0.00068	88.4849998951
1320.0	0.00068	88.5320000648
1320.0	0.0006798	88.5629999638
1320.0	0.0006798	88.6099998951
1320.0	0.00068	88.6570000648
1320.0	0.0006803	88.6879999638
1320.0	0.0006803	88.7349998951
1320.0	0.0006803	88.7820000648
1320.0	0.0006803	88.8129999638
1320.0	0.0006803	88.8599998951
1320.0	0.0006798	88.8910000324
1320.0	0.0006798	88.9379999638
1320.0	0.0006793	88.9849998951
1320.0	0.000679	89.0160000324
1320.0	0.000679	89.0629999638
1320.0	0.0006793	89.1099998951
1320.0	0.0006793	89.1410000324
1320.0	0.000679	89.1879999638
1320.0	0.000679	89.2189998627
1320.0	0.000679	89.2660000324
1320.0	0.000679	89.3129999638
1330.0	0.0006735	89.5629999638
1330.0	0.000671	89.6099998951
1330.0	0.0006688	89.6570000648
1330.0	0.0006673	89.6879999638
1330.0	0.0006653	89.7349998951
1330.0	0.000664	89.7660000324
1330.0	0.000663	89.8129999638
1330.0	0.0006623	89.8599998951
1330.0	0.0006618	89.8910000324
1330.0	0.0006613	89.9379999638
1330.0	0.0006613	89.9849998951
1330.0	0.0006613	90.0160000324
1330.0	0.000661	90.0629999638
1330.0	0.000661	90.0939998627
1330.0	0.000661	90.1410000324
1330.0	0.000661	90.1879999638
1330.0	0.000661	90.2189998627
1330.0	0.000661	90.2660000324
1330.0	0.000661	90.3129999638
1330.0	0.000661	90.3439998627
1330.0	0.0006605	90.3910000324
1330.0	0.000661	90.4379999638
1330.0	0.000661	90.4689998627
1330.0	0.0006605	90.5160000324
1330.0	0.0006603	90.5629999638
1330.0	0.00066	90.5939998627
1330.0	0.00066	90.6410000324
1330.0	0.0006603	90.6879999638
1330.0	0.0006605	90.7189998627
1330.0	0.000661	90.7660000324
1330.0	0.000661	90.7969999313
1330.0	0.0006613	90.8439998627
1330.0	0.0006613	90.8910000324
1330.0	0.000661	90.9219999313
1330.0	0.000661	90.9689998627
1330.0	0.000661	91.0160000324
1330.0	0.000661	91.0469999313
1340.0	0.0006523	91.3129999638
1340.0	0.0006493	91.3599998951
1340.0	0.0006465	91.3910000324
1340.0	0.0006448	91.4379999638
1340.0	0.0006428	91.4849998951
1340.0	0.000641	91.5160000324
1340.0	0.00064	91.5629999638
1340.0	0.0006393	91.5939998627
1340.0	0.0006388	91.6410000324
1340.0	0.0006388	91.6879999638
1340.0	0.0006378	91.7189998627
1340.0	0.0006375	91.7660000324
1340.0	0.0006375	91.8129999638
1340.0	0.000637	91.8439998627
1340.0	0.0006375	91.8910000324
1340.0	0.0006368	91.9219999313
1340.0	0.0006368	91.9689998627
1340.0	0.0006368	92.0160000324
1340.0	0.0006365	92.0469999313
1340.0	0.0006363	92.0939998627
1340.0	0.0006363	92.1410000324
1340.0	0.0006358	92.1719999313
1340.0	0.0006358	92.2189998627
1340.0	0.0006363	92.25
1340.0	0.0006363	92.2969999313
1340.0	0.0006363	92.3439998627
1340.0	0.0006358	92.375
1340.0	0.0006358	92.4219999313
1340.0	0.0006358	92.4689998627
1340.0	0.0006355	92.5
1340.0	0.0006355	92.5469999313
1340.0	0.0006355	92.5939998627
1340.0	0.0006355	92.625
1340.0	0.0006353	92.6719999313
1340.0	0.0006353	92.7039999962
1340.0	0.0006355	92.75
1340.0	0.0006355	92.7969999313
1350.0	0.0006255	93.0469999313
1350.0	0.0006215	93.0939998627
1350.0	0.0006183	93.1410000324
1350.0	0.0006155	93.1719999313
1350.0	0.0006138	93.2189998627
1350.0	0.0006125	93.2660000324
1350.0	0.0006113	93.2969999313
1350.0	0.00061	93.3439998627
1350.0	0.0006095	93.3910000324
1350.0	0.0006093	93.4219999313
1350.0	0.000609	93.4689998627
1350.0	0.000609	93.5160000324
1350.0	0.000609	93.5469999313
1350.0	0.000609	93.5939998627
1350.0	0.0006088	93.6410000324
1350.0	0.0006083	93.6719999313
1350.0	0.0006083	93.7189998627
1350.0	0.000608	93.75
1350.0	0.0006083	93.7969999313
1350.0	0.0006083	93.8439998627
1350.0	0.0006083	93.875
1350.0	0.0006083	93.9219999313
1350.0	0.0006083	93.9689998627
1350.0	0.0006083	94.0
1350.0	0.000608	94.0469999313
1350.0	0.000608	94.0789999962
1350.0	0.000608	94.125
1350.0	0.000608	94.1719999313
1350.0	0.0006078	94.2039999962
1350.0	0.0006078	94.25
1350.0	0.0006078	94.2969999313
1350.0	0.0006078	94.3289999962
1350.0	0.0006078	94.375
1350.0	0.0006078	94.4219999313
1350.0	0.0006075	94.4539999962
1350.0	0.000607	94.5
1350.0	0.0006075	94.5320000648
1360.0	0.0005975	94.7969999313
1360.0	0.0005943	94.8439998627
1360.0	0.0005913	94.875
1360.0	0.000589	94.9219999313
1360.0	0.000587	94.9689998627
1360.0	0.0005855	95.0
1360.0	0.0005845	95.0469999313
1360.0	0.0005838	95.0939998627
1360.0	0.0005828	95.125
1360.0	0.000582	95.1719999313
1360.0	0.000582	95.2039999962
1360.0	0.0005818	95.25
1360.0	0.0005815	95.2969999313
1360.0	0.0005815	95.3439998627
1360.0	0.0005815	95.375
1360.0	0.0005815	95.4219999313
1360.0	0.0005815	95.4689998627
1360.0	0.0005808	95.5
1360.0	0.0005808	95.5469999313
1360.0	0.0005808	95.5789999962
1360.0	0.0005805	95.625
1360.0	0.0005813	95.6719999313
1360.0	0.0005813	95.7039999962
1360.0	0.0005813	95.75
1360.0	0.0005813	95.7969999313
1360.0	0.0005808	95.8289999962
1360.0	0.0005805	95.875
1360.0	0.0005813	95.9070000648
1360.0	0.0005813	95.9539999962
1360.0	0.0005813	96.0
1360.0	0.0005813	96.0469999313
1360.0	0.0005813	96.0789999962
1360.0	0.0005815	96.125
1360.0	0.0005815	96.1570000648
1360.0	0.0005813	96.2039999962
1360.0	0.0005813	96.25
1370.0	0.0005718	96.5160000324
1370.0	0.0005678	96.5469999313
1370.0	0.0005645	96.5939998627
1370.0	0.0005618	96.6410000324
1370.0	0.00056	96.6719999313
1370.0	0.0005588	96.7189998627
1370.0	0.0005575	96.7660000324
1370.0	0.000557	96.7969999313
1370.0	0.0005565	96.8439998627
1370.0	0.0005565	96.875
1370.0	0.0005563	96.9219999313
1370.0	0.0005563	96.9689998627
1370.0	0.0005563	97.0
1370.0	0.0005563	97.0469999313
1370.0	0.0005558	97.0939998627
1370.0	0.0005555	97.125
1370.0	0.0005555	97.1719999313
1370.0	0.0005553	97.2189998627
1370.0	0.0005553	97.25
1370.0	0.0005555	97.2969999313
1370.0	0.0005555	97.3439998627
1370.0	0.0005555	97.375
1370.0	0.0005553	97.4219999313
1370.0	0.000555	97.4689998627
1370.0	0.000555	97.5
1370.0	0.0005545	97.5469999313
1370.0	0.000555	97.5789999962
1370.0	0.0005555	97.625
1370.0	0.0005555	97.6719999313
1370.0	0.0005563	97.7039999962
1370.0	0.0005558	97.75
1370.0	0.0005558	97.7969999313
1370.0	0.0005555	97.8289999962
1370.0	0.0005555	97.875
1370.0	0.0005553	97.9070000648
1370.0	0.0005553	97.9539999962
1370.0	0.0005553	98.0
1380.0	0.0005458	98.2660000324
1380.0	0.0005425	98.2969999313
1380.0	0.000539	98.3439998627
1380.0	0.0005368	98.375
1380.0	0.000535	98.4219999313
1380.0	0.0005338	98.4689998627
1380.0	0.0005328	98.5
1380.0	0.0005318	98.5469999313
1380.0	0.0005313	98.5939998627
1380.0	0.0005313	98.625
1380.0	0.0005308	98.6719999313
1380.0	0.0005313	98.7039999962
1380.0	0.0005315	98.75
1380.0	0.0005313	98.7969999313
1380.0	0.0005313	98.8289999962
1380.0	0.0005313	98.875
1380.0	0.0005313	98.9219999313
1380.0	0.0005313	98.9539999962
1380.0	0.0005308	99.0
1380.0	0.0005308	99.0320000648
1380.0	0.0005305	99.0789999962
1380.0	0.0005305	99.125
1380.0	0.0005305	99.1570000648
1380.0	0.0005305	99.2039999962
1380.0	0.0005303	99.25
1380.0	0.00053	99.2820000648
1380.0	0.0005293	99.3289999962
1380.0	0.0005293	99.3599998951
1380.0	0.0005293	99.4070000648
1380.0	0.0005293	99.4539999962
1380.0	0.000529	99.4849998951
1380.0	0.000529	99.5320000648
1380.0	0.000529	99.5789999962
1380.0	0.0005293	99.6099998951
1380.0	0.0005295	99.6570000648
1380.0	0.00053	99.7039999962
1380.0	0.00053	99.7349998951
1390.0	0.0005208	100.0
1390.0	0.0005175	100.046999931
1390.0	0.000515	100.078999996
1390.0	0.0005125	100.125
1390.0	0.0005108	100.157000065
1390.0	0.0005093	100.203999996
1390.0	0.0005083	100.25
1390.0	0.0005078	100.282000065
1390.0	0.0005075	100.328999996
1390.0	0.0005068	100.375
1390.0	0.0005065	100.407000065
1390.0	0.0005058	100.453999996
1390.0	0.0005055	100.484999895
1390.0	0.0005055	100.532000065
1390.0	0.0005055	100.578999996
1390.0	0.0005055	100.609999895
1390.0	0.0005058	100.657000065
1390.0	0.0005058	100.703999996
1390.0	0.0005063	100.734999895
1390.0	0.0005063	100.782000065
1390.0	0.0005055	100.828999996
1390.0	0.0005055	100.859999895
1390.0	0.0005055	100.907000065
1390.0	0.0005055	100.937999964
1390.0	0.0005058	100.984999895
1390.0	0.0005053	101.032000065
1390.0	0.000505	101.062999964
1390.0	0.0005043	101.109999895
1390.0	0.0005043	101.157000065
1390.0	0.0005043	101.187999964
1390.0	0.0005043	101.234999895
1390.0	0.000505	101.266000032
1390.0	0.0005053	101.312999964
1390.0	0.0005055	101.359999895
1390.0	0.0005055	101.391000032
1390.0	0.0005055	101.437999964
1390.0	0.0005053	101.484999895
1400.0	0.0004978	101.734999895
1400.0	0.0004953	101.782000065
1400.0	0.000493	101.828999996
1400.0	0.0004918	101.859999895
1400.0	0.0004905	101.907000065
1400.0	0.0004895	101.953999996
1400.0	0.000489	101.984999895
1400.0	0.000488	102.032000065
1400.0	0.0004878	102.062999964
1400.0	0.000487	102.109999895
1400.0	0.0004868	102.157000065
1400.0	0.000487	102.187999964
1400.0	0.000487	102.234999895
1400.0	0.0004868	102.282000065
1400.0	0.0004865	102.312999964
1400.0	0.0004865	102.359999895
1400.0	0.0004863	102.391000032
1400.0	0.0004863	102.437999964
1400.0	0.0004863	102.484999895
1400.0	0.0004863	102.516000032
1400.0	0.0004863	102.562999964
1400.0	0.0004863	102.609999895
1400.0	0.0004863	102.641000032
1400.0	0.0004863	102.687999964
1400.0	0.0004863	102.734999895
1400.0	0.0004863	102.766000032
1400.0	0.0004865	102.812999964
1400.0	0.0004868	102.843999863
1400.0	0.0004875	102.891000032
1400.0	0.0004875	102.937999964
1400.0	0.0004878	102.968999863
1400.0	0.0004875	103.016000032
1400.0	0.0004875	103.062999964
1400.0	0.0004875	103.093999863
1400.0	0.000488	103.141000032
1400.0	0.000488	103.171999931
1400.0	0.0004883	103.218999863
1410.0	0.000482	103.484999895
1410.0	0.00048	103.532000065
1410.0	0.0004788	103.578999996
1410.0	0.0004778	103.609999895
1410.0	0.0004768	103.657000065
1410.0	0.0004763	103.687999964
1410.0	0.0004753	103.734999895
1410.0	0.000475	103.782000065
1410.0	0.0004743	103.812999964
1410.0	0.0004743	103.859999895
1410.0	0.000474	103.907000065
1410.0	0.0004743	103.937999964
1410.0	0.0004743	103.984999895
1410.0	0.0004745	104.032000065
1410.0	0.0004745	104.062999964
1410.0	0.0004745	104.109999895
1410.0	0.0004743	104.141000032
1410.0	0.0004743	104.187999964
1410.0	0.0004745	104.234999895
1410.0	0.0004745	104.266000032
1410.0	0.0004745	104.312999964
1410.0	0.0004745	104.359999895
1410.0	0.0004743	104.391000032
1410.0	0.0004743	104.437999964
1410.0	0.0004743	104.468999863
1410.0	0.000474	104.516000032
1410.0	0.000474	104.562999964
1410.0	0.0004743	104.593999863
1410.0	0.000474	104.641000032
1410.0	0.0004743	104.687999964
1410.0	0.000474	104.718999863
1410.0	0.0004738	104.766000032
1410.0	0.0004738	104.812999964
1410.0	0.0004738	104.843999863
1410.0	0.000474	104.891000032
1410.0	0.000474	104.921999931
1410.0	0.000474	104.968999863
1420.0	0.0004713	105.234999895
1420.0	0.0004693	105.282000065
1420.0	0.000468	105.312999964
1420.0	0.0004675	105.359999895
1420.0	0.0004665	105.407000065
1420.0	0.0004658	105.437999964
1420.0	0.0004658	105.484999895
1420.0	0.0004655	105.516000032
1420.0	0.0004653	105.562999964
1420.0	0.000465	105.609999895
1420.0	0.0004645	105.641000032
1420.0	0.0004645	105.687999964
1420.0	0.0004645	105.734999895
1420.0	0.0004645	105.766000032
1420.0	0.0004645	105.812999964
1420.0	0.0004645	105.859999895
1420.0	0.000465	105.891000032
1420.0	0.000465	105.937999964
1420.0	0.000465	105.968999863
1420.0	0.0004645	106.016000032
1420.0	0.0004643	106.062999964
1420.0	0.0004643	106.093999863
1420.0	0.0004643	106.141000032
1420.0	0.000464	106.187999964
1420.0	0.0004643	106.218999863
1420.0	0.0004643	106.266000032
1420.0	0.0004645	106.296999931
1420.0	0.0004645	106.343999863
1420.0	0.0004645	106.391000032
1420.0	0.0004645	106.421999931
1420.0	0.0004645	106.468999863
1420.0	0.0004643	106.516000032
1420.0	0.0004638	106.546999931
1420.0	0.0004638	106.593999863
1420.0	0.0004638	106.641000032
1420.0	0.0004643	106.671999931
1420.0	0.0004645	106.718999863
1430.0	0.0004613	106.984999895
1430.0	0.0004605	107.016000032
1430.0	0.00046	107.062999964
1430.0	0.0004595	107.109999895
1430.0	0.0004593	107.141000032
1430.0	0.0004588	107.187999964
1430.0	0.0004588	107.234999895
1430.0	0.0004588	107.266000032
1430.0	0.0004588	107.312999964
1430.0	0.000459	107.343999863
1430.0	0.0004588	107.391000032
1430.0	0.0004583	107.437999964
1430.0	0.0004583	107.468999863
1430.0	0.000458	107.516000032
1430.0	0.000458	107.562999964
1430.0	0.000458	107.593999863
1430.0	0.0004583	107.641000032
1430.0	0.0004588	107.687999964
1430.0	0.0004588	107.718999863
1430.0	0.0004588	107.766000032
1430.0	0.0004583	107.796999931
1430.0	0.0004588	107.843999863
1430.0	0.0004588	107.891000032
1430.0	0.000459	107.921999931
1430.0	0.000459	107.968999863
1430.0	0.000459	108.016000032
1430.0	0.0004588	108.046999931
1430.0	0.0004583	108.093999863
1430.0	0.000458	108.125
1430.0	0.000458	108.171999931
1430.0	0.000458	108.218999863
1430.0	0.0004578	108.25
1430.0	0.0004575	108.296999931
1430.0	0.0004578	108.343999863
1430.0	0.000458	108.375
1430.0	0.000458	108.421999931
1430.0	0.000458	108.453999996
1440.0	0.0004578	108.734999895
1440.0	0.0004578	108.766000032
1440.0	0.000458	108.812999964
1440.0	0.0004583	108.843999863
1440.0	0.0004583	108.891000032
1440.0	0.000458	108.937999964
1440.0	0.0004578	108.968999863
1440.0	0.0004575	109.016000032
1440.0	0.0004575	109.062999964
1440.0	0.0004578	109.093999863
1440.0	0.0004578	109.141000032
1440.0	0.000458	109.187999964
1440.0	0.000458	109.218999863
1440.0	0.0004583	109.266000032
1440.0	0.0004583	109.312999964
1440.0	0.0004588	109.343999863
1440.0	0.000459	109.391000032
1440.0	0.000459	109.437999964
1440.0	0.0004588	109.468999863
1440.0	0.0004588	109.516000032
1440.0	0.0004588	109.546999931
1440.0	0.0004588	109.593999863
1440.0	0.0004588	109.641000032
1440.0	0.0004588	109.671999931
1440.0	0.0004588	109.718999863
1440.0	0.0004583	109.766000032
1440.0	0.0004583	109.796999931
1440.0	0.0004583	109.843999863
1440.0	0.000458	109.875
1440.0	0.000458	109.921999931
1440.0	0.000458	109.968999863
1440.0	0.0004583	110.0
1440.0	0.0004588	110.046999931
1440.0	0.0004588	110.093999863
1440.0	0.0004588	110.125
1440.0	0.0004588	110.171999931
1440.0	0.0004588	110.203999996
1450.0	0.0004603	110.484999895
1450.0	0.0004608	110.516000032
1450.0	0.0004615	110.562999964
1450.0	0.000462	110.593999863
1450.0	0.0004628	110.641000032
1450.0	0.000463	110.687999964
1450.0	0.0004638	110.718999863
1450.0	0.0004643	110.766000032
1450.0	0.0004643	110.812999964
1450.0	0.0004643	110.843999863
1450.0	0.0004643	110.891000032
1450.0	0.0004643	110.921999931
1450.0	0.0004643	110.968999863
1450.0	0.0004643	111.016000032
1450.0	0.0004645	111.046999931
1450.0	0.000465	111.093999863
1450.0	0.000465	111.141000032
1450.0	0.0004645	111.171999931
1450.0	0.0004643	111.218999863
1450.0	0.0004643	111.25
1450.0	0.0004643	111.296999931
1450.0	0.0004643	111.343999863
1450.0	0.000464	111.375
1450.0	0.000464	111.421999931
1450.0	0.0004643	111.468999863
1450.0	0.0004645	111.516000032
1450.0	0.0004643	111.546999931
1450.0	0.0004645	111.593999863
1450.0	0.000465	111.625
1450.0	0.0004645	111.671999931
1450.0	0.0004645	111.718999863
1450.0	0.0004645	111.75
1450.0	0.0004645	111.796999931
1450.0	0.000465	111.843999863
1450.0	0.0004653	111.875
1450.0	0.0004653	111.921999931
1450.0	0.0004653	111.953999996
1460.0	0.0004688	112.234999895
1460.0	0.0004693	112.266000032
1460.0	0.00047	112.312999964
1460.0	0.0004708	112.343999863
1460.0	0.0004715	112.391000032
1460.0	0.0004718	112.437999964
1460.0	0.0004718	112.468999863
1460.0	0.000472	112.516000032
1460.0	0.0004725	112.562999964
1460.0	0.0004728	112.593999863
1460.0	0.000473	112.641000032
1460.0	0.0004733	112.671999931
1460.0	0.0004733	112.718999863
1460.0	0.0004738	112.766000032
1460.0	0.0004738	112.796999931
1460.0	0.0004738	112.843999863
1460.0	0.0004738	112.891000032
1460.0	0.0004738	112.921999931
1460.0	0.0004738	112.968999863
1460.0	0.0004738	113.0
1460.0	0.0004733	113.046999931
1460.0	0.0004733	113.093999863
1460.0	0.000473	113.125
1460.0	0.000473	113.171999931
1460.0	0.000473	113.218999863
1460.0	0.0004733	113.25
1460.0	0.0004733	113.296999931
1460.0	0.0004738	113.328999996
1460.0	0.0004738	113.375
1460.0	0.000474	113.421999931
1460.0	0.000474	113.453999996
1460.0	0.0004738	113.5
1460.0	0.0004738	113.546999931
1460.0	0.0004738	113.578999996
1460.0	0.000474	113.625
1460.0	0.0004743	113.671999931
1460.0	0.0004743	113.703999996
1470.0	0.0004778	113.968999863
1470.0	0.0004793	114.016000032
1470.0	0.00048	114.046999931
1470.0	0.0004805	114.093999863
1470.0	0.0004808	114.141000032
1470.0	0.0004813	114.171999931
1470.0	0.0004815	114.218999863
1470.0	0.0004815	114.266000032
1470.0	0.0004815	114.296999931
1470.0	0.0004815	114.343999863
1470.0	0.0004815	114.391000032
1470.0	0.0004818	114.421999931
1470.0	0.000482	114.468999863
1470.0	0.000482	114.5
1470.0	0.0004825	114.546999931
1470.0	0.000482	114.593999863
1470.0	0.000482	114.625
1470.0	0.0004825	114.671999931
1470.0	0.0004825	114.718999863
1470.0	0.0004825	114.75
1470.0	0.0004825	114.796999931
1470.0	0.0004825	114.828999996
1470.0	0.000482	114.875
1470.0	0.000482	114.921999931
1470.0	0.000482	114.968999863
1470.0	0.0004825	115.0
1470.0	0.0004825	115.046999931
1470.0	0.0004825	115.093999863
1470.0	0.0004825	115.125
1470.0	0.0004825	115.171999931
1470.0	0.0004828	115.203999996
1470.0	0.000483	115.25
1470.0	0.0004825	115.296999931
1470.0	0.0004828	115.328999996
1470.0	0.0004825	115.375
1470.0	0.0004825	115.421999931
1480.0	0.0004863	115.687999964
1480.0	0.0004875	115.718999863
1480.0	0.0004883	115.766000032
1480.0	0.0004893	115.812999964
1480.0	0.00049	115.843999863
1480.0	0.0004903	115.891000032
1480.0	0.0004905	115.937999964
1480.0	0.0004908	115.968999863
1480.0	0.0004915	116.016000032
1480.0	0.0004915	116.062999964
1480.0	0.0004915	116.093999863
1480.0	0.0004918	116.141000032
1480.0	0.0004918	116.171999931
1480.0	0.0004918	116.218999863
1480.0	0.0004918	116.266000032
1480.0	0.0004915	116.296999931
1480.0	0.0004913	116.343999863
1480.0	0.0004908	116.391000032
1480.0	0.0004908	116.421999931
1480.0	0.0004905	116.468999863
1480.0	0.0004905	116.5
1480.0	0.0004905	116.546999931
1480.0	0.0004905	116.593999863
1480.0	0.0004905	116.625
1480.0	0.0004908	116.671999931
1480.0	0.0004908	116.718999863
1480.0	0.0004908	116.75
1480.0	0.0004908	116.796999931
1480.0	0.0004905	116.828999996
1480.0	0.0004908	116.875
1480.0	0.0004913	116.921999931
1480.0	0.0004913	116.953999996
1480.0	0.0004915	117.0
1480.0	0.0004915	117.046999931
1480.0	0.0004913	117.078999996
1480.0	0.0004913	117.125
1480.0	0.0004913	117.171999931
1490.0	0.000495	117.437999964
1490.0	0.0004958	117.468999863
1490.0	0.0004965	117.516000032
1490.0	0.000497	117.562999964
1490.0	0.0004978	117.593999863
1490.0	0.000498	117.641000032
1490.0	0.0004988	117.687999964
1490.0	0.000499	117.718999863
1490.0	0.0004995	117.766000032
1490.0	0.0005	117.812999964
1490.0	0.0005	117.843999863
1490.0	0.0004995	117.891000032
1490.0	0.0004995	117.921999931
1490.0	0.0004995	117.968999863
1490.0	0.0004995	118.016000032
1490.0	0.0005	118.046999931
1490.0	0.0005	118.093999863
1490.0	0.0005003	118.141000032
1490.0	0.0005003	118.171999931
1490.0	0.0005	118.218999863
1490.0	0.0005003	118.25
1490.0	0.0005	118.296999931
1490.0	0.0005	118.343999863
1490.0	0.0005005	118.375
1490.0	0.0005005	118.421999931
1490.0	0.0005005	118.468999863
1490.0	0.0005005	118.5
1490.0	0.0005005	118.546999931
1490.0	0.0005005	118.578999996
1490.0	0.0005005	118.625
1490.0	0.0005005	118.671999931
1490.0	0.0005005	118.703999996
1490.0	0.0005003	118.75
1490.0	0.0005003	118.796999931
1490.0	0.0005005	118.828999996
1490.0	0.0005005	118.875
1490.0	0.0005008	118.907000065
1500.0	0.000504	119.187999964
1500.0	0.0005053	119.218999863
1500.0	0.0005063	119.266000032
1500.0	0.000507	119.312999964
1500.0	0.0005075	119.343999863
1500.0	0.000508	119.391000032
1500.0	0.000508	119.437999964
1500.0	0.0005083	119.468999863
1500.0	0.0005083	119.516000032
1500.0	0.000508	119.546999931
1500.0	0.0005078	119.593999863
1500.0	0.0005078	119.641000032
1500.0	0.0005078	119.671999931
1500.0	0.0005078	119.718999863
1500.0	0.0005078	119.766000032
1500.0	0.0005075	119.796999931
1500.0	0.0005078	119.843999863
1500.0	0.000508	119.891000032
1500.0	0.0005078	119.921999931
1500.0	0.000508	119.968999863
1500.0	0.000508	120.0
1500.0	0.0005083	120.046999931
1500.0	0.0005083	120.093999863
1500.0	0.0005088	120.125
1500.0	0.0005088	120.171999931
1500.0	0.0005088	120.218999863
1500.0	0.0005088	120.25
1500.0	0.0005088	120.296999931
1500.0	0.000509	120.328999996
1500.0	0.000509	120.375
1500.0	0.0005088	120.421999931
1500.0	0.0005088	120.453999996
1500.0	0.0005088	120.5
1500.0	0.0005088	120.546999931
1500.0	0.0005088	120.578999996
1500.0	0.000509	120.625
1500.0	0.0005093	120.657000065
1510.0	0.0005115	120.937999964
1510.0	0.0005125	120.968999863
1510.0	0.000513	121.016000032
1510.0	0.0005138	121.062999964
1510.0	0.0005143	121.109999895
1510.0	0.0005143	121.141000032
1510.0	0.0005145	121.187999964
1510.0	0.0005143	121.218999863
1510.0	0.000514	121.266000032
1510.0	0.0005138	121.312999964
1510.0	0.0005138	121.343999863
1510.0	0.0005138	121.391000032
1510.0	0.0005138	121.437999964
1510.0	0.0005138	121.468999863
1510.0	0.000514	121.516000032
1510.0	0.000514	121.546999931
1510.0	0.000514	121.593999863
1510.0	0.0005143	121.641000032
1510.0	0.0005145	121.671999931
1510.0	0.0005143	121.718999863
1510.0	0.0005143	121.766000032
1510.0	0.0005143	121.796999931
1510.0	0.000514	121.843999863
1510.0	0.0005143	121.891000032
1510.0	0.0005143	121.921999931
1510.0	0.0005143	121.968999863
1510.0	0.000514	122.0
1510.0	0.000514	122.046999931
1510.0	0.0005138	122.093999863
1510.0	0.0005138	122.125
1510.0	0.0005133	122.171999931
1510.0	0.000513	122.218999863
1510.0	0.000513	122.25
1510.0	0.000513	122.296999931
1510.0	0.0005128	122.328999996
1510.0	0.0005125	122.375
1510.0	0.000513	122.421999931
1520.0	0.0005138	122.687999964
1520.0	0.0005138	122.734999895
1520.0	0.0005143	122.766000032
1520.0	0.0005143	122.812999964
1520.0	0.0005145	122.859999895
1520.0	0.000515	122.891000032
1520.0	0.000515	122.937999964
1520.0	0.000515	122.968999863
1520.0	0.0005145	123.016000032
1520.0	0.0005145	123.062999964
1520.0	0.0005143	123.109999895
1520.0	0.000514	123.141000032
1520.0	0.0005138	123.187999964
1520.0	0.0005138	123.218999863
1520.0	0.0005138	123.266000032
1520.0	0.0005138	123.312999964
1520.0	0.000514	123.343999863
1520.0	0.000514	123.391000032
1520.0	0.0005143	123.437999964
1520.0	0.0005143	123.468999863
1520.0	0.0005143	123.516000032
1520.0	0.0005143	123.546999931
1520.0	0.000514	123.593999863
1520.0	0.000514	123.641000032
1520.0	0.0005143	123.671999931
1520.0	0.000514	123.718999863
1520.0	0.0005143	123.766000032
1520.0	0.000514	123.796999931
1520.0	0.000514	123.843999863
1520.0	0.000514	123.891000032
1520.0	0.000514	123.921999931
1520.0	0.000514	123.968999863
1520.0	0.0005143	124.0
1520.0	0.0005143	124.046999931
1520.0	0.0005143	124.093999863
1520.0	0.0005145	124.125
1520.0	0.000515	124.171999931
1530.0	0.0005155	124.453999996
1530.0	0.0005153	124.484999895
1530.0	0.0005153	124.532000065
1530.0	0.000515	124.562999964
1530.0	0.000515	124.609999895
1530.0	0.0005153	124.657000065
1530.0	0.000515	124.687999964
1530.0	0.000515	124.734999895
1530.0	0.0005153	124.782000065
1530.0	0.0005153	124.812999964
1530.0	0.0005153	124.859999895
1530.0	0.0005153	124.891000032
1530.0	0.0005155	124.937999964
1530.0	0.0005163	124.984999895
1530.0	0.0005163	125.016000032
1530.0	0.0005163	125.062999964
1530.0	0.0005168	125.109999895
1530.0	0.0005168	125.141000032
1530.0	0.0005165	125.187999964
1530.0	0.0005168	125.218999863
1530.0	0.0005168	125.266000032
1530.0	0.000517	125.312999964
1530.0	0.0005175	125.343999863
1530.0	0.0005175	125.391000032
1530.0	0.0005178	125.437999964
1530.0	0.0005175	125.468999863
1530.0	0.0005178	125.516000032
1530.0	0.0005178	125.562999964
1530.0	0.0005175	125.593999863
1530.0	0.000517	125.641000032
1530.0	0.0005175	125.671999931
1530.0	0.000517	125.718999863
1530.0	0.000517	125.766000032
1530.0	0.000517	125.796999931
1530.0	0.0005168	125.843999863
1530.0	0.0005168	125.891000032
1530.0	0.0005168	125.921999931
1540.0	0.0005155	126.203999996
1540.0	0.0005153	126.234999895
1540.0	0.0005153	126.282000065
1540.0	0.0005153	126.328999996
1540.0	0.0005153	126.359999895
1540.0	0.0005145	126.407000065
1540.0	0.0005145	126.453999996
1540.0	0.0005143	126.484999895
1540.0	0.0005138	126.532000065
1540.0	0.0005138	126.578999996
1540.0	0.0005133	126.609999895
1540.0	0.000513	126.657000065
1540.0	0.000513	126.703999996
1540.0	0.000513	126.734999895
1540.0	0.0005128	126.782000065
1540.0	0.0005125	126.812999964
1540.0	0.0005125	126.859999895
1540.0	0.0005128	126.907000065
1540.0	0.0005125	126.937999964
1540.0	0.0005125	126.984999895
1540.0	0.0005125	127.032000065
1540.0	0.000512	127.062999964
1540.0	0.000512	127.109999895
1540.0	0.000512	127.141000032
1540.0	0.000512	127.187999964
1540.0	0.0005118	127.234999895
1540.0	0.000512	127.266000032
1540.0	0.0005118	127.312999964
1540.0	0.000512	127.359999895
1540.0	0.0005118	127.391000032
1540.0	0.000512	127.437999964
1540.0	0.000512	127.484999895
1540.0	0.0005118	127.516000032
1540.0	0.0005118	127.562999964
1540.0	0.0005118	127.593999863
1540.0	0.0005118	127.641000032
1540.0	0.0005118	127.687999964
1550.0	0.0005093	127.953999996
1550.0	0.0005088	128.0
1550.0	0.000508	128.046999931
1550.0	0.0005075	128.078999996
1550.0	0.000507	128.125
1550.0	0.0005068	128.171999931
1550.0	0.000507	128.203999996
1550.0	0.0005075	128.25
1550.0	0.000507	128.296999931
1550.0	0.0005068	128.328999996
1550.0	0.0005068	128.375
1550.0	0.0005068	128.407000065
1550.0	0.0005068	128.453999996
1550.0	0.0005065	128.5
1550.0	0.0005063	128.532000065
1550.0	0.0005063	128.578999996
1550.0	0.0005063	128.625
1550.0	0.0005063	128.657000065
1550.0	0.0005065	128.703999996
1550.0	0.0005065	128.734999895
1550.0	0.0005068	128.782000065
1550.0	0.0005068	128.828999996
1550.0	0.0005068	128.859999895
1550.0	0.0005068	128.907000065
1550.0	0.000507	128.953999996
1550.0	0.0005075	128.984999895
1550.0	0.0005078	129.032000065
1550.0	0.000508	129.062999964
1550.0	0.000508	129.109999895
1550.0	0.0005088	129.157000065
1550.0	0.0005088	129.187999964
1550.0	0.0005083	129.234999895
1550.0	0.0005083	129.282000065
1550.0	0.000508	129.312999964
1550.0	0.000508	129.359999895
1550.0	0.0005083	129.407000065
1550.0	0.000508	129.437999964
1560.0	0.000505	129.718999863
1560.0	0.0005038	129.75
1560.0	0.0005028	129.796999931
1560.0	0.0005018	129.828999996
1560.0	0.0005008	129.875
1560.0	0.0005003	129.921999931
1560.0	0.0005	129.953999996
1560.0	0.0004993	130.0
1560.0	0.0004993	130.046999931
1560.0	0.000499	130.078999996
1560.0	0.000499	130.125
1560.0	0.0004988	130.171999931
1560.0	0.000498	130.203999996
1560.0	0.0004975	130.25
1560.0	0.0004975	130.296999931
1560.0	0.000497	130.328999996
1560.0	0.000497	130.375
1560.0	0.000497	130.407000065
1560.0	0.0004975	130.453999996
1560.0	0.0004975	130.5
1560.0	0.000497	130.532000065
1560.0	0.000497	130.578999996
1560.0	0.000497	130.625
1560.0	0.000497	130.657000065
1560.0	0.000497	130.703999996
1560.0	0.0004968	130.734999895
1560.0	0.0004965	130.782000065
1560.0	0.0004965	130.828999996
1560.0	0.0004965	130.859999895
1560.0	0.0004965	130.907000065
1560.0	0.0004963	130.953999996
1560.0	0.0004963	130.984999895
1560.0	0.0004958	131.032000065
1560.0	0.0004958	131.078999996
1560.0	0.0004963	131.109999895
1560.0	0.0004963	131.157000065
1560.0	0.0004965	131.234999895
1570.0	0.0004918	131.5
1570.0	0.0004895	131.546999931
1570.0	0.000488	131.578999996
1570.0	0.000487	131.625
1570.0	0.0004855	131.657000065
1570.0	0.0004843	131.703999996
1570.0	0.0004838	131.75
1570.0	0.0004828	131.782000065
1570.0	0.000482	131.828999996
1570.0	0.0004825	131.859999895
1570.0	0.0004825	131.907000065
1570.0	0.0004828	131.953999996
1570.0	0.0004828	131.984999895
1570.0	0.000483	132.032000065
1570.0	0.0004833	132.078999996
1570.0	0.0004838	132.109999895
1570.0	0.000484	132.157000065
1570.0	0.000484	132.203999996
1570.0	0.0004838	132.234999895
1570.0	0.0004838	132.282000065
1570.0	0.0004838	132.312999964
1570.0	0.0004838	132.359999895
1570.0	0.0004838	132.407000065
1570.0	0.0004833	132.437999964
1570.0	0.0004833	132.484999895
1570.0	0.0004833	132.532000065
1570.0	0.0004833	132.562999964
1570.0	0.000484	132.609999895
1570.0	0.0004843	132.641000032
1570.0	0.0004845	132.687999964
1570.0	0.0004845	132.734999895
1570.0	0.0004845	132.766000032
1570.0	0.000485	132.812999964
1570.0	0.000485	132.859999895
1570.0	0.000485	132.891000032
1570.0	0.0004845	132.937999964
1570.0	0.0004845	132.984999895
1580.0	0.0004788	133.25
1580.0	0.0004765	133.296999931
1580.0	0.0004743	133.343999863
1580.0	0.0004728	133.375
1580.0	0.0004715	133.421999931
1580.0	0.0004705	133.468999863
1580.0	0.0004695	133.5
1580.0	0.000469	133.546999931
1580.0	0.000468	133.593999863
1580.0	0.0004678	133.625
1580.0	0.0004678	133.671999931
1580.0	0.0004678	133.718999863
1580.0	0.0004678	133.75
1580.0	0.0004675	133.796999931
1580.0	0.0004675	133.828999996
1580.0	0.000467	133.875
1580.0	0.0004668	133.921999931
1580.0	0.0004668	133.953999996
1580.0	0.0004668	134.0
1580.0	0.0004665	134.046999931
1580.0	0.0004665	134.078999996
1580.0	0.0004665	134.125
1580.0	0.0004663	134.157000065
1580.0	0.0004663	134.203999996
1580.0	0.0004658	134.25
1580.0	0.0004658	134.282000065
1580.0	0.0004663	134.328999996
1580.0	0.0004655	134.375
1580.0	0.0004655	134.407000065
1580.0	0.0004653	134.453999996
1580.0	0.0004653	134.5
1580.0	0.0004655	134.532000065
1580.0	0.0004655	134.578999996
1580.0	0.0004653	134.625
1580.0	0.0004653	134.657000065
1580.0	0.000465	134.703999996
1580.0	0.000465	134.75
1590.0	0.000457	135.016000032
1590.0	0.0004543	135.062999964
1590.0	0.000452	135.093999863
1590.0	0.0004503	135.141000032
1590.0	0.0004488	135.187999964
1590.0	0.0004478	135.218999863
1590.0	0.0004468	135.266000032
1590.0	0.0004458	135.312999964
1590.0	0.0004453	135.343999863
1590.0	0.0004445	135.391000032
1590.0	0.0004443	135.421999931
1590.0	0.0004438	135.468999863
1590.0	0.0004438	135.516000032
1590.0	0.000444	135.546999931
1590.0	0.0004443	135.593999863
1590.0	0.0004445	135.641000032
1590.0	0.0004443	135.671999931
1590.0	0.0004443	135.718999863
1590.0	0.0004443	135.75
1590.0	0.000444	135.796999931
1590.0	0.000444	135.843999863
1590.0	0.000444	135.875
1590.0	0.000444	135.921999931
1590.0	0.0004443	135.968999863
1590.0	0.0004443	136.0
1590.0	0.0004445	136.046999931
1590.0	0.0004445	136.078999996
1590.0	0.0004445	136.125
1590.0	0.000445	136.171999931
1590.0	0.0004453	136.203999996
1590.0	0.0004455	136.25
1590.0	0.0004455	136.296999931
1590.0	0.0004458	136.328999996
1590.0	0.0004458	136.375
1590.0	0.0004463	136.407000065
1590.0	0.0004463	136.453999996
1590.0	0.0004463	136.5
1600.0	0.0004363	136.766000032
1600.0	0.0004325	136.812999964
1600.0	0.00043	136.859999895
1600.0	0.0004275	136.891000032
1600.0	0.0004253	136.937999964
1600.0	0.0004238	136.984999895
1600.0	0.0004228	137.016000032
1600.0	0.0004218	137.062999964
1600.0	0.0004213	137.093999863
1600.0	0.0004208	137.141000032
1600.0	0.0004203	137.187999964
1600.0	0.00042	137.218999863
1600.0	0.0004195	137.266000032
1600.0	0.000419	137.312999964
1600.0	0.0004188	137.343999863
1600.0	0.0004188	137.391000032
1600.0	0.0004188	137.421999931
1600.0	0.0004183	137.468999863
1600.0	0.0004178	137.516000032
1600.0	0.000418	137.546999931
1600.0	0.000418	137.593999863
1600.0	0.000418	137.641000032
1600.0	0.0004183	137.671999931
1600.0	0.0004183	137.718999863
1600.0	0.0004183	137.766000032
1600.0	0.0004188	137.796999931
1600.0	0.000419	137.843999863
1600.0	0.000419	137.875
1600.0	0.000419	137.921999931
1600.0	0.0004188	137.968999863
1600.0	0.0004183	138.0
1600.0	0.000418	138.046999931
1600.0	0.000418	138.093999863
1600.0	0.0004178	138.125
1600.0	0.0004178	138.171999931
1600.0	0.0004178	138.203999996
1600.0	0.0004178	138.25
1610.0	0.0004063	138.532000065
1610.0	0.0004025	138.562999964
1610.0	0.0004	138.609999895
1610.0	0.0003975	138.657000065
1610.0	0.0003953	138.687999964
1610.0	0.000393	138.734999895
1610.0	0.0003918	138.766000032
1610.0	0.0003908	138.812999964
1610.0	0.00039	138.859999895
1610.0	0.0003895	138.891000032
1610.0	0.0003893	138.937999964
1610.0	0.0003895	138.984999895
1610.0	0.00039	139.016000032
1610.0	0.0003903	139.062999964
1610.0	0.0003905	139.093999863
1610.0	0.0003908	139.141000032
1610.0	0.0003913	139.187999964
1610.0	0.0003913	139.218999863
1610.0	0.0003908	139.266000032
1610.0	0.00039	139.312999964
1610.0	0.00039	139.343999863
1610.0	0.00039	139.391000032
1610.0	0.0003903	139.421999931
1610.0	0.0003905	139.468999863
1610.0	0.0003908	139.516000032
1610.0	0.0003908	139.546999931
1610.0	0.0003908	139.593999863
1610.0	0.0003908	139.641000032
1610.0	0.0003905	139.671999931
1610.0	0.0003908	139.718999863
1610.0	0.0003908	139.75
1610.0	0.0003908	139.796999931
1610.0	0.0003908	139.843999863
1610.0	0.0003905	139.875
1610.0	0.0003905	139.921999931
1610.0	0.0003905	139.968999863
1610.0	0.0003908	140.0
1620.0	0.0003793	140.282000065
1620.0	0.0003745	140.328999996
1620.0	0.0003715	140.359999895
1620.0	0.0003683	140.407000065
1620.0	0.0003663	140.453999996
1620.0	0.0003645	140.484999895
1620.0	0.000363	140.532000065
1620.0	0.000362	140.578999996
1620.0	0.0003615	140.609999895
1620.0	0.0003605	140.657000065
1620.0	0.0003603	140.703999996
1620.0	0.00036	140.734999895
1620.0	0.0003595	140.782000065
1620.0	0.0003593	140.828999996
1620.0	0.000359	140.859999895
1620.0	0.000359	140.907000065
1620.0	0.0003588	140.937999964
1620.0	0.0003583	140.984999895
1620.0	0.0003588	141.032000065
1620.0	0.0003583	141.062999964
1620.0	0.0003588	141.109999895
1620.0	0.0003588	141.157000065
1620.0	0.0003588	141.187999964
1620.0	0.0003583	141.234999895
1620.0	0.0003583	141.266000032
1620.0	0.0003583	141.312999964
1620.0	0.0003583	141.359999895
1620.0	0.0003583	141.391000032
1620.0	0.000358	141.437999964
1620.0	0.0003578	141.484999895
1620.0	0.0003578	141.516000032
1620.0	0.0003575	141.562999964
1620.0	0.0003578	141.609999895
1620.0	0.000358	141.641000032
1620.0	0.0003583	141.687999964
1620.0	0.0003583	141.718999863
1620.0	0.0003583	141.766000032
1630.0	0.000344	142.046999931
1630.0	0.0003393	142.093999863
1630.0	0.0003358	142.125
1630.0	0.000333	142.171999931
1630.0	0.0003308	142.218999863
1630.0	0.0003293	142.266000032
1630.0	0.000328	142.296999931
1630.0	0.000327	142.343999863
1630.0	0.0003263	142.375
1630.0	0.0003263	142.421999931
1630.0	0.0003258	142.468999863
1630.0	0.0003258	142.5
1630.0	0.0003263	142.546999931
1630.0	0.0003263	142.593999863
1630.0	0.0003258	142.625
1630.0	0.0003258	142.671999931
1630.0	0.0003263	142.718999863
1630.0	0.0003263	142.75
1630.0	0.0003263	142.796999931
1630.0	0.0003263	142.828999996
1630.0	0.0003263	142.875
1630.0	0.0003258	142.921999931
1630.0	0.0003258	142.953999996
1630.0	0.0003255	143.0
1630.0	0.0003255	143.032000065
1630.0	0.0003255	143.078999996
1630.0	0.0003253	143.125
1630.0	0.0003255	143.157000065
1630.0	0.0003258	143.203999996
1630.0	0.0003265	143.25
1630.0	0.0003268	143.282000065
1630.0	0.0003265	143.328999996
1630.0	0.0003265	143.375
1630.0	0.0003268	143.407000065
1630.0	0.0003268	143.453999996
1630.0	0.0003268	143.484999895
1630.0	0.0003268	143.532000065
1640.0	0.000313	143.812999964
1640.0	0.0003088	143.859999895
1640.0	0.0003053	143.891000032
1640.0	0.0003025	143.937999964
1640.0	0.0003	143.984999895
1640.0	0.0002988	144.032000065
1640.0	0.0002975	144.062999964
1640.0	0.0002963	144.109999895
1640.0	0.0002955	144.141000032
1640.0	0.0002953	144.187999964
1640.0	0.0002945	144.234999895
1640.0	0.0002943	144.266000032
1640.0	0.0002943	144.312999964
1640.0	0.000294	144.359999895
1640.0	0.000294	144.391000032
1640.0	0.0002938	144.437999964
1640.0	0.0002933	144.468999863
1640.0	0.0002938	144.516000032
1640.0	0.0002933	144.562999964
1640.0	0.000293	144.593999863
1640.0	0.000293	144.641000032
1640.0	0.000293	144.687999964
1640.0	0.000293	144.718999863
1640.0	0.0002928	144.766000032
1640.0	0.0002928	144.812999964
1640.0	0.000293	144.843999863
1640.0	0.000293	144.891000032
1640.0	0.000293	144.921999931
1640.0	0.0002928	144.968999863
1640.0	0.0002925	145.016000032
1640.0	0.0002918	145.046999931
1640.0	0.0002918	145.093999863
1640.0	0.0002915	145.141000032
1640.0	0.0002915	145.171999931
1640.0	0.0002915	145.218999863
1640.0	0.0002915	145.25
1640.0	0.0002915	145.296999931
1650.0	0.0002783	145.578999996
1650.0	0.0002743	145.625
1650.0	0.0002708	145.657000065
1650.0	0.000268	145.703999996
1650.0	0.0002655	145.75
1650.0	0.0002633	145.782000065
1650.0	0.000262	145.828999996
1650.0	0.0002613	145.875
1650.0	0.0002608	145.907000065
1650.0	0.0002603	145.953999996
1650.0	0.0002603	145.984999895
1650.0	0.00026	146.032000065
1650.0	0.0002595	146.078999996
1650.0	0.0002593	146.109999895
1650.0	0.0002593	146.157000065
1650.0	0.00026	146.203999996
1650.0	0.0002595	146.25
1650.0	0.00026	146.282000065
1650.0	0.00026	146.328999996
1650.0	0.0002603	146.359999895
1650.0	0.0002605	146.407000065
1650.0	0.0002605	146.453999996
1650.0	0.0002605	146.484999895
1650.0	0.0002608	146.532000065
1650.0	0.0002613	146.578999996
1650.0	0.0002613	146.609999895
1650.0	0.0002618	146.657000065
1650.0	0.0002615	146.687999964
1650.0	0.0002615	146.734999895
1650.0	0.0002618	146.782000065
1650.0	0.0002618	146.812999964
1650.0	0.0002615	146.859999895
1650.0	0.0002615	146.907000065
1650.0	0.0002615	146.937999964
1650.0	0.0002618	146.984999895
1650.0	0.0002618	147.016000032
1660.0	0.0002495	147.312999964
1660.0	0.0002455	147.343999863
1660.0	0.0002425	147.391000032
1660.0	0.0002403	147.437999964
1660.0	0.000238	147.468999863
1660.0	0.0002365	147.516000032
1660.0	0.0002353	147.546999931
1660.0	0.0002343	147.593999863
1660.0	0.0002338	147.641000032
1660.0	0.0002328	147.671999931
1660.0	0.0002325	147.718999863
1660.0	0.000232	147.766000032
1660.0	0.0002318	147.796999931
1660.0	0.0002315	147.843999863
1660.0	0.0002315	147.875
1660.0	0.0002315	147.921999931
1660.0	0.0002313	147.968999863
1660.0	0.0002313	148.0
1660.0	0.0002308	148.046999931
1660.0	0.0002305	148.093999863
1660.0	0.0002305	148.125
1660.0	0.0002305	148.171999931
1660.0	0.0002305	148.203999996
1660.0	0.0002305	148.25
1660.0	0.0002303	148.296999931
1660.0	0.0002305	148.328999996
1660.0	0.0002305	148.375
1660.0	0.0002308	148.421999931
1660.0	0.0002313	148.453999996
1660.0	0.0002308	148.5
1660.0	0.0002305	148.532000065
1660.0	0.0002305	148.578999996
1660.0	0.0002303	148.625
1660.0	0.0002303	148.657000065
1660.0	0.00023	148.703999996
1660.0	0.0002295	148.75
1660.0	0.0002295	148.782000065
1670.0	0.0002178	149.062999964
1670.0	0.000214	149.109999895
1670.0	0.0002108	149.157000065
1670.0	0.0002088	149.187999964
1670.0	0.000207	149.234999895
1670.0	0.0002058	149.282000065
1670.0	0.0002053	149.312999964
1670.0	0.0002043	149.359999895
1670.0	0.000204	149.391000032
1670.0	0.0002038	149.437999964
1670.0	0.0002038	149.484999895
1670.0	0.0002033	149.516000032
1670.0	0.000203	149.562999964
1670.0	0.0002028	149.609999895
1670.0	0.0002028	149.641000032
1670.0	0.0002028	149.687999964
1670.0	0.0002025	149.718999863
1670.0	0.0002025	149.766000032
1670.0	0.0002025	149.812999964
1670.0	0.0002025	149.843999863
1670.0	0.0002025	149.891000032
1670.0	0.0002028	149.937999964
1670.0	0.0002028	149.968999863
1670.0	0.000203	150.016000032
1670.0	0.000203	150.062999964
1670.0	0.000203	150.109999895
1670.0	0.000203	150.157000065
1670.0	0.000203	150.187999964
1670.0	0.0002033	150.234999895
1670.0	0.0002033	150.266000032
1670.0	0.0002033	150.312999964
1670.0	0.0002038	150.359999895
1670.0	0.0002038	150.391000032
1670.0	0.0002038	150.437999964
1670.0	0.000204	150.484999895
1670.0	0.0002043	150.516000032
1670.0	0.0002043	150.562999964
1680.0	0.0001945	150.843999863
1680.0	0.0001913	150.891000032
1680.0	0.0001888	150.921999931
1680.0	0.000187	150.968999863
1680.0	0.0001853	151.016000032
1680.0	0.000184	151.062999964
1680.0	0.0001833	151.109999895
1680.0	0.0001825	151.141000032
1680.0	0.000182	151.187999964
1680.0	0.0001815	151.218999863
1680.0	0.0001813	151.266000032
1680.0	0.0001808	151.312999964
1680.0	0.0001813	151.343999863
1680.0	0.0001813	151.391000032
1680.0	0.0001808	151.437999964
1680.0	0.0001808	151.468999863
1680.0	0.0001808	151.516000032
1680.0	0.0001803	151.562999964
1680.0	0.0001805	151.593999863
1680.0	0.0001805	151.641000032
1680.0	0.0001805	151.687999964
1680.0	0.0001805	151.718999863
1680.0	0.0001805	151.766000032
1680.0	0.0001805	151.796999931
1680.0	0.0001803	151.843999863
1680.0	0.00018	151.891000032
1680.0	0.0001795	151.921999931
1680.0	0.0001793	151.968999863
1680.0	0.0001793	152.016000032
1680.0	0.0001793	152.046999931
1680.0	0.0001795	152.093999863
1680.0	0.00018	152.141000032
1680.0	0.00018	152.171999931
1680.0	0.00018	152.218999863
1680.0	0.0001795	152.25
1680.0	0.0001793	152.296999931
1690.0	0.0001693	152.578999996
1690.0	0.0001665	152.625
1690.0	0.000164	152.671999931
1690.0	0.0001625	152.703999996
1690.0	0.0001613	152.75
1690.0	0.00016	152.782000065
1690.0	0.000159	152.828999996
1690.0	0.0001583	152.875
1690.0	0.0001578	152.907000065
1690.0	0.0001575	152.953999996
1690.0	0.0001575	153.0
1690.0	0.0001575	153.046999931
1690.0	0.0001578	153.078999996
1690.0	0.0001578	153.125
1690.0	0.0001578	153.157000065
1690.0	0.000158	153.203999996
1690.0	0.0001578	153.25
1690.0	0.000158	153.282000065
1690.0	0.000158	153.328999996
1690.0	0.0001583	153.375
1690.0	0.0001583	153.407000065
1690.0	0.0001583	153.453999996
1690.0	0.000159	153.484999895
1690.0	0.000159	153.532000065
1690.0	0.000159	153.578999996
1690.0	0.000159	153.609999895
1690.0	0.000159	153.657000065
1690.0	0.000159	153.703999996
1690.0	0.000159	153.734999895
1690.0	0.0001588	153.782000065
1690.0	0.0001588	153.812999964
1690.0	0.000159	153.859999895
1690.0	0.000159	153.907000065
1690.0	0.0001593	153.937999964
1690.0	0.0001593	153.984999895
1690.0	0.0001593	154.032000065
1690.0	0.0001595	154.062999964
1700.0	0.0001525	154.359999895
1700.0	0.00015	154.391000032
1700.0	0.000148	154.437999964
1700.0	0.0001465	154.484999895
1700.0	0.0001453	154.516000032
1700.0	0.0001443	154.562999964
1700.0	0.0001438	154.593999863
1700.0	0.0001438	154.641000032
1700.0	0.000143	154.687999964
1700.0	0.0001425	154.718999863
1700.0	0.000142	154.766000032
1700.0	0.000142	154.812999964
1700.0	0.000142	154.843999863
1700.0	0.0001425	154.891000032
1700.0	0.0001425	154.921999931
1700.0	0.0001425	154.968999863
1700.0	0.000142	155.016000032
1700.0	0.000142	155.046999931
1700.0	0.0001418	155.093999863
1700.0	0.0001418	155.141000032
1700.0	0.0001415	155.187999964
1700.0	0.0001415	155.218999863
1700.0	0.0001413	155.266000032
1700.0	0.0001413	155.296999931
1700.0	0.0001408	155.343999863
1700.0	0.0001408	155.391000032
1700.0	0.0001408	155.421999931
1700.0	0.0001405	155.468999863
1700.0	0.0001405	155.516000032
1700.0	0.0001405	155.546999931
1700.0	0.0001405	155.593999863
1700.0	0.0001405	155.625
1700.0	0.0001405	155.671999931
1700.0	0.0001403	155.718999863
1700.0	0.0001403	155.75
1700.0	0.0001403	155.796999931
1700.0	0.0001405	155.843999863
1710.0	0.0001333	156.125
1710.0	0.0001313	156.171999931
1710.0	0.0001295	156.203999996
1710.0	0.000128	156.25
1710.0	0.000127	156.296999931
1710.0	0.0001268	156.328999996
1710.0	0.0001263	156.375
1710.0	0.0001258	156.407000065
1710.0	0.0001255	156.453999996
1710.0	0.0001253	156.5
1710.0	0.0001255	156.532000065
1710.0	0.0001255	156.578999996
1710.0	0.0001253	156.625
1710.0	0.000125	156.657000065
1710.0	0.0001245	156.703999996
1710.0	0.0001243	156.734999895
1710.0	0.0001243	156.782000065
1710.0	0.0001243	156.828999996
1710.0	0.0001243	156.859999895
1710.0	0.0001245	156.907000065
1710.0	0.0001243	156.953999996
1710.0	0.0001243	156.984999895
1710.0	0.0001243	157.032000065
1710.0	0.0001245	157.062999964
1710.0	0.0001245	157.109999895
1710.0	0.0001245	157.157000065
1710.0	0.000125	157.187999964
1710.0	0.0001253	157.234999895
1710.0	0.0001255	157.282000065
1710.0	0.0001258	157.312999964
1710.0	0.0001258	157.359999895
1710.0	0.0001263	157.391000032
1710.0	0.0001265	157.437999964
1710.0	0.0001265	157.484999895
1710.0	0.0001265	157.516000032
1710.0	0.0001268	157.562999964
1710.0	0.0001268	157.609999895
1720.0	0.0001215	157.891000032
1720.0	0.0001195	157.937999964
1720.0	0.0001188	157.968999863
1720.0	0.0001175	158.016000032
1720.0	0.0001165	158.062999964
1720.0	0.0001155	158.093999863
1720.0	0.000115	158.141000032
1720.0	0.0001145	158.171999931
1720.0	0.0001145	158.218999863
1720.0	0.0001145	158.266000032
1720.0	0.0001143	158.296999931
1720.0	0.0001143	158.343999863
1720.0	0.000114	158.391000032
1720.0	0.0001138	158.421999931
1720.0	0.0001133	158.468999863
1720.0	0.0001133	158.5
1720.0	0.0001133	158.546999931
1720.0	0.0001133	158.593999863
1720.0	0.0001133	158.625
1720.0	0.0001133	158.671999931
1720.0	0.0001133	158.718999863
1720.0	0.0001133	158.75
1720.0	0.000113	158.796999931
1720.0	0.0001128	158.828999996
1720.0	0.0001125	158.875
1720.0	0.0001128	158.921999931
1720.0	0.0001128	158.953999996
1720.0	0.0001128	159.0
1720.0	0.0001128	159.046999931
1720.0	0.0001128	159.093999863
1720.0	0.0001128	159.125
1720.0	0.0001128	159.171999931
1720.0	0.0001128	159.203999996
1720.0	0.000113	159.25
1720.0	0.0001128	159.296999931
1720.0	0.0001125	159.328999996
1720.0	0.000112	159.375
1730.0	0.0001058	159.671999931
1730.0	0.0001043	159.703999996
1730.0	0.0001033	159.75
1730.0	0.0001028	159.782000065
1730.0	0.000102	159.828999996
1730.0	0.0001015	159.875
1730.0	0.0001015	159.907000065
1730.0	0.0001013	159.953999996
1730.0	0.0001005	160.0
1730.0	0.0001005	160.032000065
1730.0	0.0001003	160.078999996
1730.0	0.0001003	160.109999895
1730.0	0.0001003	160.157000065
1730.0	0.0001003	160.203999996
1730.0	0.0001003	160.234999895
1730.0	0.0001	160.282000065
1730.0	9.95e-05	160.328999996
1730.0	0.0001	160.359999895
1730.0	0.0001	160.407000065
1730.0	0.0001003	160.453999996
1730.0	0.0001	160.484999895
1730.0	0.0001	160.532000065
1730.0	0.0001003	160.562999964
1730.0	0.0001003	160.609999895
1730.0	0.0001003	160.657000065
1730.0	0.0001005	160.687999964
1730.0	0.0001005	160.734999895
1730.0	0.0001013	160.782000065
1730.0	0.0001015	160.812999964
1730.0	0.0001015	160.859999895
1730.0	0.0001018	160.891000032
1730.0	0.0001018	160.937999964
1730.0	0.0001015	160.984999895
1730.0	0.0001015	161.016000032
1730.0	0.0001015	161.062999964
1730.0	0.0001015	161.109999895
1730.0	0.0001015	161.141000032
1740.0	9.78e-05	161.437999964
1740.0	9.65e-05	161.468999863
1740.0	9.58e-05	161.516000032
1740.0	9.53e-05	161.562999964
1740.0	9.45e-05	161.593999863
1740.0	9.43e-05	161.641000032
1740.0	9.4e-05	161.687999964
1740.0	9.4e-05	161.718999863
1740.0	9.33e-05	161.766000032
1740.0	9.3e-05	161.812999964
1740.0	9.28e-05	161.843999863
1740.0	9.25e-05	161.891000032
1740.0	9.25e-05	161.921999931
1740.0	9.25e-05	161.968999863
1740.0	9.25e-05	162.016000032
1740.0	9.25e-05	162.046999931
1740.0	9.25e-05	162.093999863
1740.0	9.25e-05	162.141000032
1740.0	9.2e-05	162.171999931
1740.0	9.2e-05	162.218999863
1740.0	9.25e-05	162.25
1740.0	9.25e-05	162.296999931
1740.0	9.25e-05	162.343999863
1740.0	9.2e-05	162.375
1740.0	9.18e-05	162.421999931
1740.0	9.2e-05	162.468999863
1740.0	9.2e-05	162.5
1740.0	9.2e-05	162.546999931
1740.0	9.2e-05	162.578999996
1740.0	9.2e-05	162.625
1740.0	9.2e-05	162.671999931
1740.0	9.18e-05	162.703999996
1740.0	9.13e-05	162.75
1740.0	9.13e-05	162.796999931
1740.0	9.13e-05	162.828999996
1740.0	9.13e-05	162.875
1740.0	9.08e-05	162.907000065
1750.0	8.78e-05	163.203999996
1750.0	8.63e-05	163.25
1750.0	8.55e-05	163.296999931
1750.0	8.45e-05	163.328999996
1750.0	8.4e-05	163.375
1750.0	8.33e-05	163.421999931
1750.0	8.28e-05	163.453999996
1750.0	8.25e-05	163.5
1750.0	8.2e-05	163.532000065
1750.0	8.18e-05	163.578999996
1750.0	8.2e-05	163.625
1750.0	8.2e-05	163.657000065
1750.0	8.2e-05	163.703999996
1750.0	8.25e-05	163.75
1750.0	8.2e-05	163.782000065
1750.0	8.2e-05	163.828999996
1750.0	8.18e-05	163.859999895
1750.0	8.18e-05	163.907000065
1750.0	8.2e-05	163.953999996
1750.0	8.2e-05	163.984999895
1750.0	8.18e-05	164.032000065
1750.0	8.2e-05	164.078999996
1750.0	8.2e-05	164.109999895
1750.0	8.2e-05	164.157000065
1750.0	8.18e-05	164.203999996
1750.0	8.15e-05	164.234999895
1750.0	8.18e-05	164.282000065
1750.0	8.2e-05	164.328999996
1750.0	8.2e-05	164.359999895
1750.0	8.25e-05	164.407000065
1750.0	8.25e-05	164.453999996
1750.0	8.25e-05	164.484999895
1750.0	8.28e-05	164.532000065
1750.0	8.28e-05	164.562999964
1750.0	8.28e-05	164.609999895
1750.0	8.28e-05	164.657000065
1750.0	8.28e-05	164.687999964
1760.0	7.9e-05	164.984999895
1760.0	7.8e-05	165.032000065
1760.0	7.75e-05	165.078999996
1760.0	7.68e-05	165.109999895
1760.0	7.65e-05	165.157000065
1760.0	7.63e-05	165.203999996
1760.0	7.63e-05	165.234999895
1760.0	7.63e-05	165.282000065
1760.0	7.63e-05	165.312999964
1760.0	7.58e-05	165.359999895
1760.0	7.58e-05	165.407000065
1760.0	7.63e-05	165.437999964
1760.0	7.58e-05	165.484999895
1760.0	7.58e-05	165.532000065
1760.0	7.55e-05	165.562999964
1760.0	7.58e-05	165.609999895
1760.0	7.58e-05	165.657000065
1760.0	7.58e-05	165.687999964
1760.0	7.58e-05	165.734999895
1760.0	7.55e-05	165.766000032
1760.0	7.53e-05	165.812999964
1760.0	7.55e-05	165.859999895
1760.0	7.55e-05	165.891000032
1760.0	7.58e-05	165.937999964
1760.0	7.63e-05	165.984999895
1760.0	7.63e-05	166.016000032
1760.0	7.58e-05	166.062999964
1760.0	7.58e-05	166.093999863
1760.0	7.55e-05	166.141000032
1760.0	7.55e-05	166.187999964
1760.0	7.55e-05	166.218999863
1760.0	7.53e-05	166.266000032
1760.0	7.53e-05	166.312999964
1760.0	7.53e-05	166.343999863
1760.0	7.5e-05	166.391000032
1760.0	7.43e-05	166.437999964
1760.0	7.43e-05	166.468999863
1770.0	7.18e-05	166.782000065
1770.0	7.05e-05	166.812999964
1770.0	7e-05	166.859999895
1770.0	6.9e-05	166.891000032
1770.0	6.83e-05	166.937999964
1770.0	6.78e-05	166.984999895
1770.0	6.68e-05	167.016000032
1770.0	6.68e-05	167.062999964
1770.0	6.68e-05	167.109999895
1770.0	6.65e-05	167.141000032
1770.0	6.63e-05	167.187999964
1770.0	6.58e-05	167.234999895
1770.0	6.55e-05	167.266000032
1770.0	6.58e-05	167.312999964
1770.0	6.58e-05	167.343999863
1770.0	6.55e-05	167.391000032
1770.0	6.55e-05	167.437999964
1770.0	6.55e-05	167.468999863
1770.0	6.53e-05	167.516000032
1770.0	6.55e-05	167.562999964
1770.0	6.55e-05	167.593999863
1770.0	6.55e-05	167.641000032
1770.0	6.58e-05	167.671999931
1770.0	6.55e-05	167.718999863
1770.0	6.55e-05	167.766000032
1770.0	6.58e-05	167.796999931
1770.0	6.58e-05	167.843999863
1770.0	6.58e-05	167.891000032
1770.0	6.58e-05	167.921999931
1770.0	6.58e-05	167.968999863
1770.0	6.63e-05	168.0
1770.0	6.63e-05	168.046999931
1770.0	6.65e-05	168.093999863
1770.0	6.68e-05	168.125
1770.0	6.65e-05	168.171999931
1770.0	6.65e-05	168.218999863
1770.0	6.63e-05	168.25
1780.0	6.38e-05	168.562999964
1780.0	6.25e-05	168.593999863
1780.0	6.18e-05	168.641000032
1780.0	6.13e-05	168.687999964
1780.0	6.03e-05	168.718999863
1780.0	6.03e-05	168.766000032
1780.0	6.05e-05	168.812999964
1780.0	6.05e-05	168.843999863
1780.0	6.08e-05	168.891000032
1780.0	6.08e-05	168.937999964
1780.0	6.08e-05	168.968999863
1780.0	6.08e-05	169.016000032
1780.0	6.13e-05	169.046999931
1780.0	6.13e-05	169.093999863
1780.0	6.15e-05	169.141000032
1780.0	6.15e-05	169.171999931
1780.0	6.18e-05	169.218999863
1780.0	6.15e-05	169.266000032
1780.0	6.13e-05	169.296999931
1780.0	6.13e-05	169.343999863
1780.0	6.05e-05	169.391000032
1780.0	6.03e-05	169.421999931
1780.0	6.03e-05	169.468999863
1780.0	6e-05	169.5
1780.0	6e-05	169.546999931
1780.0	6e-05	169.593999863
1780.0	5.95e-05	169.625
1780.0	5.93e-05	169.671999931
1780.0	5.95e-05	169.718999863
1780.0	5.95e-05	169.75
1780.0	6e-05	169.796999931
1780.0	6.03e-05	169.828999996
1780.0	6.05e-05	169.875
1780.0	6.05e-05	169.921999931
1780.0	6.05e-05	169.953999996
1780.0	6.05e-05	170.0
1780.0	6.03e-05	170.046999931
1790.0	5.65e-05	170.343999863
1790.0	5.55e-05	170.391000032
1790.0	5.5e-05	170.437999964
1790.0	5.43e-05	170.468999863
1790.0	5.33e-05	170.516000032
1790.0	5.3e-05	170.546999931
1790.0	5.28e-05	170.593999863
1790.0	5.25e-05	170.641000032
1790.0	5.25e-05	170.671999931
1790.0	5.2e-05	170.718999863
1790.0	5.18e-05	170.766000032
1790.0	5.18e-05	170.796999931
1790.0	5.18e-05	170.843999863
1790.0	5.18e-05	170.875
1790.0	5.2e-05	170.921999931
1790.0	5.2e-05	170.968999863
1790.0	5.15e-05	171.0
1790.0	5.15e-05	171.046999931
1790.0	5.15e-05	171.093999863
1790.0	5.13e-05	171.125
1790.0	5.13e-05	171.171999931
1790.0	5.15e-05	171.218999863
1790.0	5.15e-05	171.25
1790.0	5.15e-05	171.296999931
1790.0	5.15e-05	171.343999863
1790.0	5.18e-05	171.375
1790.0	5.18e-05	171.421999931
1790.0	5.18e-05	171.468999863
1790.0	5.15e-05	171.5
1790.0	5.13e-05	171.546999931
1790.0	5.13e-05	171.578999996
1790.0	5.08e-05	171.625
1790.0	5.08e-05	171.671999931
1790.0	5.13e-05	171.703999996
1790.0	5.13e-05	171.75
1790.0	5.15e-05	171.796999931
1800.0	4.93e-05	172.093999863
1800.0	4.88e-05	172.141000032
1800.0	4.8e-05	172.171999931
1800.0	4.7e-05	172.218999863
1800.0	4.68e-05	172.266000032
1800.0	4.68e-05	172.296999931
1800.0	4.63e-05	172.343999863
1800.0	4.65e-05	172.375
1800.0	4.63e-05	172.421999931
1800.0	4.63e-05	172.468999863
1800.0	4.65e-05	172.5
1800.0	4.65e-05	172.546999931
1800.0	4.63e-05	172.593999863
1800.0	4.65e-05	172.625
1800.0	4.65e-05	172.671999931
1800.0	4.63e-05	172.718999863
1800.0	4.63e-05	172.75
1800.0	4.65e-05	172.796999931
1800.0	4.65e-05	172.843999863
1800.0	4.63e-05	172.875
1800.0	4.63e-05	172.921999931
1800.0	4.65e-05	172.968999863
1800.0	4.65e-05	173.0
1800.0	4.68e-05	173.046999931
1800.0	4.68e-05	173.078999996
1800.0	4.68e-05	173.125
1800.0	4.68e-05	173.171999931
1800.0	4.7e-05	173.203999996
1800.0	4.7e-05	173.25
1800.0	4.7e-05	173.282000065
1800.0	4.7e-05	173.328999996
1800.0	4.75e-05	173.375
1800.0	4.78e-05	173.407000065
1800.0	4.8e-05	173.453999996
1800.0	4.8e-05	173.5
1800.0	4.78e-05	173.532000065
1800.0	4.78e-05	173.578999996
