Your edit line - do NOT delete this line
Wavelength [nm], Voltage [V], Elapsed time [s]
900.0	0.0002455	14.0940001011
900.0	0.0002405	14.1400001049
900.0	0.000237	14.1719999313
900.0	0.0002343	14.2190001011
900.0	0.0002328	14.2650001049
900.0	0.0002305	14.2969999313
900.0	0.0002293	14.3440001011
900.0	0.000228	14.375
900.0	0.0002275	14.4219999313
900.0	0.0002268	14.4690001011
900.0	0.0002263	14.5
900.0	0.0002258	14.5469999313
900.0	0.0002258	14.5940001011
900.0	0.0002258	14.625
900.0	0.0002258	14.6719999313
900.0	0.0002258	14.7190001011
900.0	0.0002258	14.75
900.0	0.0002258	14.7969999313
900.0	0.0002258	14.8280000687
900.0	0.0002258	14.875
900.0	0.0002263	14.9219999313
900.0	0.0002263	14.9530000687
900.0	0.0002258	15.0
900.0	0.0002258	15.0469999313
900.0	0.0002263	15.0780000687
900.0	0.0002263	15.125
900.0	0.0002265	15.1560001373
900.0	0.0002265	15.2030000687
900.0	0.0002265	15.25
900.0	0.0002263	15.2810001373
900.0	0.0002265	15.3280000687
900.0	0.0002265	15.375
900.0	0.0002268	15.4060001373
900.0	0.0002268	15.4530000687
900.0	0.0002268	15.4839999676
900.0	0.000227	15.5310001373
900.0	0.0002275	15.5780000687
910.0	0.000237	15.875
910.0	0.0002405	15.9219999313
910.0	0.0002433	15.9690001011
910.0	0.0002453	16.0150001049
910.0	0.000247	16.0469999313
910.0	0.0002488	16.0940001011
910.0	0.0002493	16.125
910.0	0.0002505	16.1719999313
910.0	0.0002513	16.2190001011
910.0	0.0002515	16.25
910.0	0.0002518	16.2969999313
910.0	0.000252	16.3440001011
910.0	0.000252	16.375
910.0	0.0002525	16.4219999313
910.0	0.0002525	16.4690001011
910.0	0.0002525	16.5
910.0	0.0002525	16.5469999313
910.0	0.0002525	16.5940001011
910.0	0.0002528	16.625
910.0	0.0002525	16.6719999313
910.0	0.0002525	16.7190001011
910.0	0.0002525	16.75
910.0	0.0002525	16.7969999313
910.0	0.0002528	16.8280000687
910.0	0.0002528	16.875
910.0	0.0002528	16.9219999313
910.0	0.0002528	16.9530000687
910.0	0.0002528	17.0
910.0	0.0002528	17.0469999313
910.0	0.0002528	17.0780000687
910.0	0.0002528	17.125
910.0	0.0002525	17.1560001373
910.0	0.0002525	17.2030000687
910.0	0.0002525	17.25
910.0	0.0002525	17.2810001373
910.0	0.000252	17.3280000687
910.0	0.0002525	17.375
920.0	0.000264	17.6719999313
920.0	0.0002675	17.7190001011
920.0	0.0002703	17.75
920.0	0.0002725	17.7969999313
920.0	0.0002743	17.8440001011
920.0	0.0002755	17.875
920.0	0.0002768	17.9219999313
920.0	0.000277	17.9690001011
920.0	0.0002778	18.0
920.0	0.000278	18.0469999313
920.0	0.0002788	18.0940001011
920.0	0.000279	18.125
920.0	0.0002793	18.1719999313
920.0	0.0002793	18.2190001011
920.0	0.0002793	18.25
920.0	0.0002793	18.2969999313
920.0	0.000279	18.3440001011
920.0	0.000279	18.375
920.0	0.0002788	18.4219999313
920.0	0.0002788	18.4530000687
920.0	0.0002788	18.5
920.0	0.0002788	18.5469999313
920.0	0.0002788	18.5780000687
920.0	0.0002788	18.625
920.0	0.0002788	18.6719999313
920.0	0.0002783	18.7030000687
920.0	0.0002783	18.75
920.0	0.0002783	18.7969999313
920.0	0.0002783	18.8280000687
920.0	0.000278	18.875
920.0	0.000278	18.9060001373
920.0	0.000278	18.9530000687
920.0	0.0002783	19.0
920.0	0.0002783	19.0310001373
920.0	0.0002783	19.0780000687
920.0	0.000278	19.125
930.0	0.0002905	19.4219999313
930.0	0.0002938	19.4530000687
930.0	0.0002965	19.5
930.0	0.0002993	19.5469999313
930.0	0.0003015	19.5780000687
930.0	0.000303	19.625
930.0	0.000304	19.6719999313
930.0	0.0003045	19.7030000687
930.0	0.0003058	19.75
930.0	0.0003065	19.7810001373
930.0	0.000307	19.8280000687
930.0	0.0003075	19.875
930.0	0.0003075	19.9060001373
930.0	0.0003075	19.9530000687
930.0	0.0003078	20.0
930.0	0.000308	20.0310001373
930.0	0.0003083	20.0780000687
930.0	0.0003088	20.1089999676
930.0	0.0003088	20.1560001373
930.0	0.000309	20.2030000687
930.0	0.000309	20.2339999676
930.0	0.0003088	20.2810001373
930.0	0.0003088	20.3280000687
930.0	0.0003083	20.3589999676
930.0	0.0003083	20.4060001373
930.0	0.0003083	20.4370000362
930.0	0.000308	20.4839999676
930.0	0.000308	20.5310001373
930.0	0.0003083	20.5620000362
930.0	0.0003083	20.6089999676
930.0	0.0003088	20.6560001373
930.0	0.0003088	20.6870000362
930.0	0.000309	20.7339999676
930.0	0.000309	20.7650001049
930.0	0.000309	20.8120000362
930.0	0.0003088	20.8589999676
930.0	0.000309	20.8900001049
940.0	0.000322	21.1870000362
940.0	0.0003265	21.2339999676
940.0	0.0003295	21.2810001373
940.0	0.0003325	21.3120000362
940.0	0.0003345	21.3589999676
940.0	0.0003365	21.3900001049
940.0	0.0003378	21.4370000362
940.0	0.0003388	21.4839999676
940.0	0.0003393	21.5150001049
940.0	0.00034	21.5620000362
940.0	0.0003403	21.6089999676
940.0	0.0003405	21.6400001049
940.0	0.0003405	21.6870000362
940.0	0.0003403	21.7190001011
940.0	0.0003403	21.7650001049
940.0	0.0003405	21.8120000362
940.0	0.0003408	21.8440001011
940.0	0.0003408	21.8900001049
940.0	0.0003413	21.9370000362
940.0	0.0003413	21.9690001011
940.0	0.0003413	22.0150001049
940.0	0.0003413	22.0469999313
940.0	0.0003413	22.0940001011
940.0	0.0003413	22.1400001049
940.0	0.0003418	22.1719999313
940.0	0.0003418	22.2190001011
940.0	0.0003418	22.2650001049
940.0	0.0003418	22.2969999313
940.0	0.0003418	22.3440001011
940.0	0.0003415	22.3900001049
940.0	0.0003415	22.4219999313
940.0	0.0003413	22.4690001011
940.0	0.0003405	22.5
940.0	0.00034	22.5469999313
940.0	0.00034	22.5940001011
940.0	0.0003395	22.625
940.0	0.00034	22.6719999313
950.0	0.0003525	22.9690001011
950.0	0.0003568	23.0
950.0	0.0003603	23.0469999313
950.0	0.0003628	23.0940001011
950.0	0.0003645	23.125
950.0	0.0003663	23.1719999313
950.0	0.000367	23.2190001011
950.0	0.0003678	23.25
950.0	0.0003683	23.2969999313
950.0	0.000369	23.3440001011
950.0	0.0003693	23.375
950.0	0.0003693	23.4219999313
950.0	0.0003693	23.4530000687
950.0	0.0003693	23.5
950.0	0.0003693	23.5469999313
950.0	0.0003693	23.5780000687
950.0	0.000369	23.625
950.0	0.000369	23.6719999313
950.0	0.000369	23.7030000687
950.0	0.000369	23.75
950.0	0.0003693	23.7810001373
950.0	0.000369	23.8280000687
950.0	0.000369	23.875
950.0	0.0003688	23.9060001373
950.0	0.000369	23.9530000687
950.0	0.000369	24.0
950.0	0.0003693	24.0310001373
950.0	0.0003693	24.0780000687
950.0	0.0003693	24.1089999676
950.0	0.0003695	24.1560001373
950.0	0.00037	24.2030000687
950.0	0.00037	24.25
950.0	0.00037	24.2810001373
950.0	0.0003693	24.3280000687
950.0	0.0003693	24.375
950.0	0.0003693	24.4060001373
950.0	0.0003693	24.4530000687
960.0	0.000382	24.7339999676
960.0	0.0003863	24.7810001373
960.0	0.0003895	24.8120000362
960.0	0.0003925	24.8589999676
960.0	0.0003943	24.9060001373
960.0	0.0003963	24.9370000362
960.0	0.000397	24.9839999676
960.0	0.000398	25.0310001373
960.0	0.0003988	25.0620000362
960.0	0.0003993	25.1089999676
960.0	0.0004	25.1400001049
960.0	0.0004003	25.1870000362
960.0	0.0004008	25.2339999676
960.0	0.0004008	25.2650001049
960.0	0.0004013	25.3120000362
960.0	0.0004015	25.3589999676
960.0	0.0004018	25.3900001049
960.0	0.000402	25.4370000362
960.0	0.0004025	25.4690001011
960.0	0.000402	25.5150001049
960.0	0.0004018	25.5620000362
960.0	0.0004018	25.5940001011
960.0	0.0004018	25.6400001049
960.0	0.0004018	25.6870000362
960.0	0.0004018	25.7190001011
960.0	0.0004018	25.7650001049
960.0	0.000402	25.8120000362
960.0	0.000402	25.8440001011
960.0	0.000402	25.8900001049
960.0	0.000402	25.9219999313
960.0	0.000402	25.9690001011
960.0	0.000402	26.0150001049
960.0	0.000402	26.0469999313
960.0	0.000402	26.0940001011
960.0	0.000402	26.1400001049
960.0	0.0004025	26.1719999313
960.0	0.0004025	26.2190001011
970.0	0.000415	26.5
970.0	0.0004193	26.5469999313
970.0	0.0004228	26.5780000687
970.0	0.0004255	26.625
970.0	0.0004278	26.6560001373
970.0	0.0004293	26.7030000687
970.0	0.0004308	26.75
970.0	0.0004315	26.7810001373
970.0	0.0004325	26.8280000687
970.0	0.000433	26.875
970.0	0.0004333	26.9060001373
970.0	0.0004338	26.9530000687
970.0	0.0004338	26.9839999676
970.0	0.0004338	27.0310001373
970.0	0.0004338	27.0780000687
970.0	0.0004338	27.1089999676
970.0	0.0004333	27.1560001373
970.0	0.0004333	27.2030000687
970.0	0.0004333	27.2339999676
970.0	0.0004333	27.2810001373
970.0	0.0004338	27.3280000687
970.0	0.0004338	27.3589999676
970.0	0.0004338	27.4060001373
970.0	0.0004333	27.4370000362
970.0	0.0004333	27.4839999676
970.0	0.000433	27.5310001373
970.0	0.0004328	27.5780000687
970.0	0.0004325	27.6089999676
970.0	0.0004328	27.6560001373
970.0	0.0004328	27.6870000362
970.0	0.0004328	27.7339999676
970.0	0.0004325	27.7810001373
970.0	0.0004325	27.8120000362
970.0	0.0004325	27.8589999676
970.0	0.0004325	27.9060001373
970.0	0.000432	27.9370000362
970.0	0.0004325	27.9839999676
980.0	0.0004438	28.2650001049
980.0	0.000448	28.2969999313
980.0	0.0004515	28.3440001011
980.0	0.0004543	28.3900001049
980.0	0.0004563	28.4219999313
980.0	0.000458	28.4690001011
980.0	0.0004593	28.5
980.0	0.00046	28.5469999313
980.0	0.0004608	28.5940001011
980.0	0.0004613	28.625
980.0	0.0004608	28.6719999313
980.0	0.0004613	28.7190001011
980.0	0.0004615	28.75
980.0	0.0004615	28.7969999313
980.0	0.0004618	28.8440001011
980.0	0.0004615	28.875
980.0	0.0004615	28.9219999313
980.0	0.0004615	28.9530000687
980.0	0.0004615	29.0
980.0	0.0004615	29.0469999313
980.0	0.0004618	29.0780000687
980.0	0.0004618	29.125
980.0	0.0004618	29.1719999313
980.0	0.0004618	29.2030000687
980.0	0.0004618	29.25
980.0	0.0004618	29.2810001373
980.0	0.0004615	29.3280000687
980.0	0.0004615	29.375
980.0	0.0004618	29.4060001373
980.0	0.0004618	29.4530000687
980.0	0.000462	29.5
980.0	0.000462	29.5310001373
980.0	0.000462	29.5780000687
980.0	0.0004618	29.625
980.0	0.000462	29.6560001373
980.0	0.0004625	29.7030000687
980.0	0.000463	29.75
990.0	0.000475	30.0150001049
990.0	0.0004795	30.0620000362
990.0	0.0004833	30.1089999676
990.0	0.0004863	30.1400001049
990.0	0.0004888	30.1870000362
990.0	0.0004903	30.2339999676
990.0	0.0004915	30.2650001049
990.0	0.0004928	30.3120000362
990.0	0.0004933	30.3440001011
990.0	0.0004943	30.3900001049
990.0	0.0004945	30.4370000362
990.0	0.0004953	30.4690001011
990.0	0.0004953	30.5150001049
990.0	0.0004955	30.5620000362
990.0	0.0004955	30.5940001011
990.0	0.0004958	30.6400001049
990.0	0.0004955	30.6870000362
990.0	0.0004953	30.7190001011
990.0	0.0004953	30.7650001049
990.0	0.0004953	30.7969999313
990.0	0.0004955	30.8440001011
990.0	0.0004958	30.8900001049
990.0	0.0004958	30.9219999313
990.0	0.0004958	30.9690001011
990.0	0.0004958	31.0150001049
990.0	0.0004963	31.0469999313
990.0	0.0004963	31.0940001011
990.0	0.0004963	31.1400001049
990.0	0.0004963	31.1719999313
990.0	0.0004963	31.2190001011
990.0	0.0004963	31.2650001049
990.0	0.0004965	31.2969999313
990.0	0.0004965	31.3440001011
990.0	0.0004965	31.375
990.0	0.0004965	31.4219999313
990.0	0.0004965	31.4690001011
990.0	0.0004965	31.5
1000.0	0.0005083	31.7810001373
1000.0	0.000513	31.8280000687
1000.0	0.0005163	31.8589999676
1000.0	0.000519	31.9060001373
1000.0	0.0005215	31.9530000687
1000.0	0.000523	31.9839999676
1000.0	0.0005243	32.0310001373
1000.0	0.000525	32.0780000687
1000.0	0.0005255	32.1089999676
1000.0	0.0005263	32.1560001373
1000.0	0.0005265	32.2030000687
1000.0	0.0005268	32.2339999676
1000.0	0.0005268	32.2810001373
1000.0	0.0005268	32.3120000362
1000.0	0.0005268	32.3589999676
1000.0	0.0005268	32.4060001373
1000.0	0.000527	32.4370000362
1000.0	0.000527	32.4839999676
1000.0	0.000527	32.5310001373
1000.0	0.0005268	32.5620000362
1000.0	0.0005268	32.6089999676
1000.0	0.0005268	32.6400001049
1000.0	0.0005268	32.6870000362
1000.0	0.0005268	32.7339999676
1000.0	0.0005268	32.7650001049
1000.0	0.0005268	32.8120000362
1000.0	0.0005268	32.8589999676
1000.0	0.000527	32.8900001049
1000.0	0.0005268	32.9370000362
1000.0	0.0005268	32.9839999676
1000.0	0.0005265	33.0150001049
1000.0	0.0005263	33.0620000362
1000.0	0.0005258	33.1089999676
1000.0	0.0005255	33.1400001049
1000.0	0.0005255	33.1870000362
1000.0	0.0005258	33.2190001011
1010.0	0.0005378	33.5
1010.0	0.0005418	33.5469999313
1010.0	0.0005453	33.5940001011
1010.0	0.0005478	33.625
1010.0	0.0005495	33.6719999313
1010.0	0.0005513	33.7190001011
1010.0	0.0005528	33.75
1010.0	0.0005538	33.7969999313
1010.0	0.0005543	33.8280000687
1010.0	0.0005543	33.875
1010.0	0.000555	33.9219999313
1010.0	0.0005553	33.9530000687
1010.0	0.0005553	34.0
1010.0	0.0005553	34.0469999313
1010.0	0.0005555	34.0780000687
1010.0	0.0005558	34.125
1010.0	0.0005558	34.1560001373
1010.0	0.0005555	34.2030000687
1010.0	0.0005555	34.25
1010.0	0.0005555	34.2810001373
1010.0	0.0005555	34.3280000687
1010.0	0.0005558	34.375
1010.0	0.0005555	34.4060001373
1010.0	0.0005555	34.4530000687
1010.0	0.0005555	34.4839999676
1010.0	0.0005553	34.5310001373
1010.0	0.0005553	34.5780000687
1010.0	0.0005553	34.6089999676
1010.0	0.0005555	34.6560001373
1010.0	0.0005555	34.7030000687
1010.0	0.0005553	34.7339999676
1010.0	0.0005553	34.7810001373
1010.0	0.0005553	34.8280000687
1010.0	0.0005553	34.8589999676
1010.0	0.0005553	34.9060001373
1010.0	0.0005555	34.9370000362
1010.0	0.0005555	34.9839999676
1020.0	0.0005683	35.2650001049
1020.0	0.0005725	35.3120000362
1020.0	0.0005763	35.3440001011
1020.0	0.000579	35.3900001049
1020.0	0.0005813	35.4370000362
1020.0	0.0005828	35.4690001011
1020.0	0.000584	35.5150001049
1020.0	0.0005845	35.5620000362
1020.0	0.0005853	35.5940001011
1020.0	0.0005855	35.6400001049
1020.0	0.0005858	35.6719999313
1020.0	0.0005863	35.7190001011
1020.0	0.0005863	35.7650001049
1020.0	0.0005868	35.7969999313
1020.0	0.0005868	35.8440001011
1020.0	0.0005868	35.8900001049
1020.0	0.000587	35.9219999313
1020.0	0.000587	35.9690001011
1020.0	0.0005878	36.0
1020.0	0.000588	36.0469999313
1020.0	0.0005883	36.0940001011
1020.0	0.0005888	36.125
1020.0	0.0005888	36.1719999313
1020.0	0.000589	36.2190001011
1020.0	0.0005888	36.25
1020.0	0.0005883	36.2969999313
1020.0	0.0005883	36.3280000687
1020.0	0.0005888	36.375
1020.0	0.0005888	36.4219999313
1020.0	0.0005888	36.4530000687
1020.0	0.000589	36.5
1020.0	0.000589	36.5469999313
1020.0	0.000589	36.5780000687
1020.0	0.000589	36.625
1020.0	0.000589	36.6719999313
1020.0	0.000589	36.7030000687
1020.0	0.000589	36.75
1030.0	0.000602	37.0310001373
1030.0	0.0006065	37.0780000687
1030.0	0.0006095	37.1089999676
1030.0	0.0006128	37.1560001373
1030.0	0.000615	37.1870000362
1030.0	0.000617	37.2339999676
1030.0	0.000619	37.2810001373
1030.0	0.00062	37.3120000362
1030.0	0.0006208	37.3589999676
1030.0	0.0006215	37.4060001373
1030.0	0.0006218	37.4370000362
1030.0	0.0006218	37.4839999676
1030.0	0.0006218	37.5150001049
1030.0	0.000622	37.5620000362
1030.0	0.0006225	37.6089999676
1030.0	0.000622	37.6400001049
1030.0	0.0006225	37.6870000362
1030.0	0.0006225	37.7339999676
1030.0	0.0006225	37.7650001049
1030.0	0.0006225	37.8120000362
1030.0	0.000622	37.8440001011
1030.0	0.000622	37.8900001049
1030.0	0.0006218	37.9370000362
1030.0	0.0006218	37.9690001011
1030.0	0.0006218	38.0150001049
1030.0	0.000622	38.0620000362
1030.0	0.0006225	38.0940001011
1030.0	0.0006228	38.1400001049
1030.0	0.000623	38.1719999313
1030.0	0.0006228	38.2190001011
1030.0	0.000623	38.2650001049
1030.0	0.000623	38.2969999313
1030.0	0.0006228	38.3440001011
1030.0	0.0006228	38.3900001049
1030.0	0.0006225	38.4219999313
1030.0	0.0006228	38.4690001011
1030.0	0.0006228	38.5150001049
1040.0	0.0006355	38.7969999313
1040.0	0.0006395	38.8280000687
1040.0	0.0006428	38.875
1040.0	0.000646	38.9219999313
1040.0	0.000648	38.9530000687
1040.0	0.0006498	39.0
1040.0	0.000651	39.0310001373
1040.0	0.0006515	39.0780000687
1040.0	0.0006518	39.125
1040.0	0.0006523	39.1719999313
1040.0	0.0006525	39.2030000687
1040.0	0.0006525	39.25
1040.0	0.0006525	39.2969999313
1040.0	0.0006528	39.3280000687
1040.0	0.0006528	39.375
1040.0	0.0006528	39.4060001373
1040.0	0.0006525	39.4530000687
1040.0	0.0006525	39.5
1040.0	0.0006523	39.5310001373
1040.0	0.0006518	39.5780000687
1040.0	0.0006518	39.625
1040.0	0.0006518	39.6560001373
1040.0	0.0006518	39.7030000687
1040.0	0.0006518	39.7339999676
1040.0	0.0006518	39.7810001373
1040.0	0.0006518	39.8280000687
1040.0	0.0006518	39.8589999676
1040.0	0.0006518	39.9060001373
1040.0	0.0006523	39.9530000687
1040.0	0.0006525	39.9839999676
1040.0	0.0006523	40.0310001373
1040.0	0.0006523	40.0620000362
1040.0	0.0006515	40.1089999676
1040.0	0.0006513	40.1560001373
1040.0	0.0006513	40.1870000362
1040.0	0.000651	40.2339999676
1040.0	0.000651	40.2810001373
1050.0	0.0006638	40.5620000362
1050.0	0.0006678	40.6089999676
1050.0	0.000671	40.6400001049
1050.0	0.0006735	40.6870000362
1050.0	0.0006755	40.7190001011
1050.0	0.0006773	40.7650001049
1050.0	0.000678	40.8120000362
1050.0	0.000679	40.8440001011
1050.0	0.00068	40.8900001049
1050.0	0.0006805	40.9370000362
1050.0	0.000681	40.9690001011
1050.0	0.000681	41.0150001049
1050.0	0.0006813	41.0620000362
1050.0	0.0006815	41.0940001011
1050.0	0.0006815	41.1400001049
1050.0	0.0006815	41.1719999313
1050.0	0.0006815	41.2190001011
1050.0	0.0006815	41.2650001049
1050.0	0.0006818	41.3120000362
1050.0	0.0006818	41.3440001011
1050.0	0.0006818	41.3900001049
1050.0	0.0006823	41.4219999313
1050.0	0.0006823	41.4690001011
1050.0	0.0006818	41.5150001049
1050.0	0.0006815	41.5469999313
1050.0	0.0006815	41.5940001011
1050.0	0.0006815	41.6400001049
1050.0	0.0006815	41.6719999313
1050.0	0.0006818	41.7190001011
1050.0	0.0006818	41.75
1050.0	0.0006818	41.7969999313
1050.0	0.0006815	41.8440001011
1050.0	0.0006813	41.875
1050.0	0.000681	41.9219999313
1050.0	0.000681	41.9690001011
1050.0	0.000681	42.0
1050.0	0.000681	42.0469999313
1060.0	0.0006935	42.3280000687
1060.0	0.0006978	42.375
1060.0	0.000701	42.4060001373
1060.0	0.0007035	42.4530000687
1060.0	0.0007055	42.5
1060.0	0.0007075	42.5310001373
1060.0	0.0007085	42.5780000687
1060.0	0.000709	42.6089999676
1060.0	0.00071	42.6560001373
1060.0	0.0007103	42.7030000687
1060.0	0.000711	42.7339999676
1060.0	0.0007115	42.7810001373
1060.0	0.0007115	42.8280000687
1060.0	0.0007123	42.8589999676
1060.0	0.0007123	42.9060001373
1060.0	0.0007123	42.9370000362
1060.0	0.0007125	42.9839999676
1060.0	0.0007125	43.0310001373
1060.0	0.0007128	43.0620000362
1060.0	0.000713	43.1089999676
1060.0	0.0007135	43.1560001373
1060.0	0.0007135	43.1870000362
1060.0	0.0007135	43.2339999676
1060.0	0.0007135	43.2650001049
1060.0	0.000713	43.3120000362
1060.0	0.000713	43.3589999676
1060.0	0.0007128	43.3900001049
1060.0	0.0007128	43.4370000362
1060.0	0.0007128	43.4839999676
1060.0	0.000713	43.5150001049
1060.0	0.0007135	43.5620000362
1060.0	0.0007138	43.6089999676
1060.0	0.0007135	43.6400001049
1060.0	0.0007138	43.6870000362
1060.0	0.0007138	43.7339999676
1060.0	0.000714	43.7650001049
1060.0	0.000714	43.8120000362
1070.0	0.0007253	44.0940001011
1070.0	0.0007293	44.1400001049
1070.0	0.0007325	44.1719999313
1070.0	0.000735	44.2190001011
1070.0	0.0007368	44.2650001049
1070.0	0.0007385	44.2969999313
1070.0	0.0007393	44.3440001011
1070.0	0.0007405	44.375
1070.0	0.0007415	44.4219999313
1070.0	0.0007425	44.4690001011
1070.0	0.0007428	44.5
1070.0	0.000743	44.5469999313
1070.0	0.0007438	44.5940001011
1070.0	0.0007438	44.625
1070.0	0.0007438	44.6719999313
1070.0	0.0007435	44.7030000687
1070.0	0.0007435	44.75
1070.0	0.0007438	44.7969999313
1070.0	0.0007435	44.8280000687
1070.0	0.0007435	44.875
1070.0	0.000743	44.9219999313
1070.0	0.0007435	44.9530000687
1070.0	0.0007435	45.0
1070.0	0.0007438	45.0310001373
1070.0	0.0007438	45.0780000687
1070.0	0.0007435	45.125
1070.0	0.0007435	45.1719999313
1070.0	0.0007435	45.2030000687
1070.0	0.0007435	45.25
1070.0	0.0007438	45.2969999313
1070.0	0.000744	45.3280000687
1070.0	0.0007443	45.375
1070.0	0.0007448	45.4060001373
1070.0	0.0007448	45.4530000687
1070.0	0.0007448	45.5
1070.0	0.0007448	45.5310001373
1070.0	0.000745	45.5780000687
1080.0	0.000756	45.8589999676
1080.0	0.0007598	45.9060001373
1080.0	0.0007628	45.9370000362
1080.0	0.000765	45.9839999676
1080.0	0.0007665	46.0310001373
1080.0	0.0007678	46.0620000362
1080.0	0.0007688	46.1089999676
1080.0	0.0007693	46.1400001049
1080.0	0.00077	46.1870000362
1080.0	0.0007703	46.2339999676
1080.0	0.000771	46.2650001049
1080.0	0.0007713	46.3120000362
1080.0	0.0007718	46.3589999676
1080.0	0.0007718	46.3900001049
1080.0	0.0007718	46.4370000362
1080.0	0.0007718	46.4690001011
1080.0	0.0007718	46.5150001049
1080.0	0.0007715	46.5620000362
1080.0	0.0007718	46.5940001011
1080.0	0.0007718	46.6400001049
1080.0	0.0007723	46.6870000362
1080.0	0.0007723	46.7190001011
1080.0	0.0007718	46.7650001049
1080.0	0.0007718	46.8120000362
1080.0	0.0007715	46.8440001011
1080.0	0.0007718	46.8900001049
1080.0	0.0007715	46.9370000362
1080.0	0.0007715	46.9690001011
1080.0	0.0007715	47.0150001049
1080.0	0.0007715	47.0620000362
1080.0	0.0007713	47.0940001011
1080.0	0.0007715	47.1400001049
1080.0	0.0007715	47.1719999313
1080.0	0.0007718	47.2190001011
1080.0	0.0007723	47.2650001049
1080.0	0.0007723	47.2969999313
1080.0	0.0007723	47.3440001011
1090.0	0.0007813	47.625
1090.0	0.0007848	47.6719999313
1090.0	0.0007873	47.7030000687
1090.0	0.000789	47.75
1090.0	0.0007905	47.7969999313
1090.0	0.0007913	47.8280000687
1090.0	0.0007918	47.875
1090.0	0.0007928	47.9219999313
1090.0	0.0007935	47.9530000687
1090.0	0.0007938	48.0
1090.0	0.0007938	48.0310001373
1090.0	0.000794	48.0780000687
1090.0	0.0007948	48.125
1090.0	0.000795	48.1560001373
1090.0	0.0007953	48.2030000687
1090.0	0.0007955	48.25
1090.0	0.0007955	48.2810001373
1090.0	0.0007953	48.3280000687
1090.0	0.000795	48.3589999676
1090.0	0.0007948	48.4060001373
1090.0	0.0007948	48.4530000687
1090.0	0.000795	48.5
1090.0	0.0007953	48.5310001373
1090.0	0.0007953	48.5780000687
1090.0	0.0007953	48.6089999676
1090.0	0.000795	48.6560001373
1090.0	0.0007948	48.7030000687
1090.0	0.0007948	48.7339999676
1090.0	0.0007948	48.7810001373
1090.0	0.0007953	48.8280000687
1090.0	0.0007955	48.8589999676
1090.0	0.000796	48.9060001373
1090.0	0.000796	48.9530000687
1090.0	0.0007955	48.9839999676
1090.0	0.0007953	49.0310001373
1090.0	0.000795	49.0780000687
1100.0	0.0008035	49.3440001011
1100.0	0.0008065	49.3900001049
1100.0	0.0008085	49.4370000362
1100.0	0.0008103	49.4690001011
1100.0	0.0008115	49.5150001049
1100.0	0.0008128	49.5620000362
1100.0	0.000814	49.5940001011
1100.0	0.000815	49.6400001049
1100.0	0.0008155	49.6870000362
1100.0	0.0008163	49.7190001011
1100.0	0.0008165	49.7650001049
1100.0	0.0008173	49.7969999313
1100.0	0.0008173	49.8440001011
1100.0	0.0008168	49.8900001049
1100.0	0.0008168	49.9219999313
1100.0	0.0008173	49.9690001011
1100.0	0.0008173	50.0150001049
1100.0	0.0008173	50.0469999313
1100.0	0.0008173	50.0940001011
1100.0	0.0008168	50.125
1100.0	0.0008173	50.1719999313
1100.0	0.0008173	50.2190001011
1100.0	0.0008173	50.25
1100.0	0.0008173	50.2969999313
1100.0	0.0008173	50.3440001011
1100.0	0.0008173	50.375
1100.0	0.0008173	50.4219999313
1100.0	0.0008173	50.4690001011
1100.0	0.0008178	50.5
1100.0	0.0008178	50.5469999313
1100.0	0.0008178	50.5940001011
1100.0	0.0008185	50.625
1100.0	0.0008185	50.6719999313
1100.0	0.000818	50.7030000687
1100.0	0.000818	50.75
1100.0	0.000818	50.7969999313
1100.0	0.0008178	50.8280000687
1110.0	0.000826	51.1089999676
1110.0	0.0008288	51.1560001373
1110.0	0.0008305	51.2030000687
1110.0	0.0008323	51.2339999676
1110.0	0.0008338	51.2810001373
1110.0	0.0008348	51.3120000362
1110.0	0.0008353	51.3589999676
1110.0	0.000836	51.4060001373
1110.0	0.0008365	51.4370000362
1110.0	0.0008365	51.4839999676
1110.0	0.0008368	51.5310001373
1110.0	0.0008373	51.5620000362
1110.0	0.0008375	51.6089999676
1110.0	0.000838	51.6400001049
1110.0	0.000838	51.6870000362
1110.0	0.000838	51.7339999676
1110.0	0.000838	51.7650001049
1110.0	0.0008378	51.8120000362
1110.0	0.000838	51.8589999676
1110.0	0.0008378	51.8900001049
1110.0	0.0008375	51.9370000362
1110.0	0.0008373	51.9690001011
1110.0	0.0008368	52.0150001049
1110.0	0.0008375	52.0620000362
1110.0	0.0008378	52.0940001011
1110.0	0.0008385	52.1400001049
1110.0	0.0008385	52.1870000362
1110.0	0.0008388	52.2190001011
1110.0	0.000839	52.2650001049
1110.0	0.0008393	52.2969999313
1110.0	0.000839	52.3440001011
1110.0	0.000839	52.3900001049
1110.0	0.000839	52.4219999313
1110.0	0.0008388	52.4690001011
1110.0	0.0008385	52.5150001049
1110.0	0.0008385	52.5469999313
1110.0	0.0008385	52.5940001011
1120.0	0.000846	52.875
1120.0	0.0008485	52.9060001373
1120.0	0.0008505	52.9530000687
1120.0	0.0008523	53.0
1120.0	0.0008535	53.0310001373
1120.0	0.0008543	53.0780000687
1120.0	0.0008548	53.125
1120.0	0.0008553	53.1560001373
1120.0	0.000856	53.2030000687
1120.0	0.0008563	53.2339999676
1120.0	0.0008563	53.2810001373
1120.0	0.0008563	53.3280000687
1120.0	0.0008568	53.3589999676
1120.0	0.0008573	53.4060001373
1120.0	0.0008575	53.4530000687
1120.0	0.0008573	53.4839999676
1120.0	0.0008568	53.5310001373
1120.0	0.0008568	53.5620000362
1120.0	0.0008563	53.6089999676
1120.0	0.0008563	53.6560001373
1120.0	0.0008565	53.7030000687
1120.0	0.0008573	53.7339999676
1120.0	0.0008575	53.7810001373
1120.0	0.0008575	53.8280000687
1120.0	0.0008573	53.8589999676
1120.0	0.0008573	53.9060001373
1120.0	0.0008573	53.9370000362
1120.0	0.0008573	53.9839999676
1120.0	0.0008568	54.0310001373
1120.0	0.0008573	54.0620000362
1120.0	0.0008573	54.1089999676
1120.0	0.0008573	54.1560001373
1120.0	0.0008573	54.1870000362
1120.0	0.0008573	54.2339999676
1120.0	0.0008573	54.2650001049
1120.0	0.0008575	54.3120000362
1120.0	0.0008573	54.3589999676
1130.0	0.0008638	54.625
1130.0	0.000866	54.6719999313
1130.0	0.0008678	54.7190001011
1130.0	0.000869	54.75
1130.0	0.00087	54.7969999313
1130.0	0.0008705	54.8440001011
1130.0	0.0008713	54.875
1130.0	0.0008715	54.9219999313
1130.0	0.0008718	54.9690001011
1130.0	0.0008725	55.0
1130.0	0.0008728	55.0469999313
1130.0	0.0008735	55.0780000687
1130.0	0.0008735	55.125
1130.0	0.0008735	55.1719999313
1130.0	0.0008738	55.2030000687
1130.0	0.0008735	55.25
1130.0	0.0008735	55.2969999313
1130.0	0.0008735	55.3280000687
1130.0	0.0008735	55.375
1130.0	0.0008735	55.4219999313
1130.0	0.0008735	55.4690001011
1130.0	0.000873	55.5
1130.0	0.0008725	55.5469999313
1130.0	0.0008725	55.5940001011
1130.0	0.0008728	55.625
1130.0	0.0008735	55.6719999313
1130.0	0.0008735	55.7030000687
1130.0	0.0008735	55.75
1130.0	0.0008735	55.7969999313
1130.0	0.0008735	55.8280000687
1130.0	0.0008735	55.875
1130.0	0.0008738	55.9219999313
1130.0	0.000874	55.9530000687
1130.0	0.0008743	56.0
1130.0	0.0008748	56.0310001373
1130.0	0.0008743	56.0780000687
1140.0	0.0008788	56.3440001011
1140.0	0.0008803	56.3900001049
1140.0	0.0008815	56.4370000362
1140.0	0.0008828	56.4690001011
1140.0	0.0008838	56.5150001049
1140.0	0.0008848	56.5620000362
1140.0	0.0008853	56.5940001011
1140.0	0.0008855	56.6400001049
1140.0	0.000886	56.6719999313
1140.0	0.0008863	56.7190001011
1140.0	0.000886	56.7650001049
1140.0	0.0008865	56.7969999313
1140.0	0.0008868	56.8440001011
1140.0	0.0008868	56.8900001049
1140.0	0.0008868	56.9219999313
1140.0	0.0008865	56.9690001011
1140.0	0.0008868	57.0
1140.0	0.0008863	57.0469999313
1140.0	0.000886	57.0940001011
1140.0	0.0008855	57.125
1140.0	0.000886	57.1719999313
1140.0	0.0008853	57.2190001011
1140.0	0.0008853	57.25
1140.0	0.0008853	57.2969999313
1140.0	0.0008855	57.3440001011
1140.0	0.0008855	57.375
1140.0	0.0008853	57.4219999313
1140.0	0.0008855	57.4690001011
1140.0	0.0008853	57.5
1140.0	0.0008853	57.5469999313
1140.0	0.0008853	57.5940001011
1140.0	0.0008855	57.625
1140.0	0.000886	57.6719999313
1140.0	0.000886	57.7030000687
1140.0	0.000886	57.75
1140.0	0.000886	57.7969999313
1140.0	0.000886	57.8280000687
1150.0	0.00089	58.0940001011
1150.0	0.0008915	58.1400001049
1150.0	0.0008928	58.1870000362
1150.0	0.000894	58.2339999676
1150.0	0.0008948	58.2650001049
1150.0	0.000895	58.3120000362
1150.0	0.000895	58.3589999676
1150.0	0.000895	58.3900001049
1150.0	0.0008953	58.4370000362
1150.0	0.0008953	58.4839999676
1150.0	0.0008955	58.5150001049
1150.0	0.000896	58.5620000362
1150.0	0.0008963	58.5940001011
1150.0	0.000896	58.6400001049
1150.0	0.000896	58.6870000362
1150.0	0.000896	58.7190001011
1150.0	0.0008955	58.7650001049
1150.0	0.000896	58.8120000362
1150.0	0.000896	58.8440001011
1150.0	0.0008963	58.8900001049
1150.0	0.0008965	58.9219999313
1150.0	0.0008965	58.9690001011
1150.0	0.0008963	59.0150001049
1150.0	0.000896	59.0469999313
1150.0	0.0008963	59.0940001011
1150.0	0.0008963	59.1400001049
1150.0	0.000896	59.1719999313
1150.0	0.0008955	59.2190001011
1150.0	0.0008955	59.2650001049
1150.0	0.0008953	59.2969999313
1150.0	0.000895	59.3440001011
1150.0	0.000895	59.375
1150.0	0.0008953	59.4219999313
1150.0	0.0008953	59.4690001011
1150.0	0.0008955	59.5
1150.0	0.0008955	59.5469999313
1150.0	0.0008955	59.5940001011
1160.0	0.0008985	59.8440001011
1160.0	0.0008998	59.8900001049
1160.0	0.000901	59.9370000362
1160.0	0.0009015	59.9690001011
1160.0	0.0009023	60.0150001049
1160.0	0.0009028	60.0620000362
1160.0	0.000903	60.0940001011
1160.0	0.0009038	60.1400001049
1160.0	0.000904	60.1719999313
1160.0	0.0009043	60.2190001011
1160.0	0.0009048	60.2650001049
1160.0	0.000905	60.2969999313
1160.0	0.0009048	60.3440001011
1160.0	0.0009048	60.3900001049
1160.0	0.0009048	60.4219999313
1160.0	0.0009043	60.4690001011
1160.0	0.0009048	60.5
1160.0	0.0009043	60.5469999313
1160.0	0.0009048	60.5940001011
1160.0	0.0009048	60.625
1160.0	0.000905	60.6719999313
1160.0	0.000905	60.7190001011
1160.0	0.000905	60.75
1160.0	0.000905	60.7969999313
1160.0	0.0009048	60.8280000687
1160.0	0.0009048	60.875
1160.0	0.000905	60.9219999313
1160.0	0.0009053	60.9530000687
1160.0	0.000905	61.0
1160.0	0.0009048	61.0469999313
1160.0	0.0009048	61.0780000687
1160.0	0.0009043	61.125
1160.0	0.0009043	61.1719999313
1160.0	0.0009043	61.2030000687
1160.0	0.000904	61.25
1160.0	0.000904	61.2810001373
1160.0	0.000904	61.3280000687
1170.0	0.0009073	61.5940001011
1170.0	0.0009085	61.625
1170.0	0.0009093	61.6719999313
1170.0	0.00091	61.7030000687
1170.0	0.0009105	61.75
1170.0	0.0009115	61.7969999313
1170.0	0.0009123	61.8280000687
1170.0	0.0009125	61.875
1170.0	0.0009128	61.9219999313
1170.0	0.0009135	61.9530000687
1170.0	0.0009138	62.0
1170.0	0.000914	62.0469999313
1170.0	0.000914	62.0780000687
1170.0	0.000914	62.125
1170.0	0.000914	62.1560001373
1170.0	0.0009143	62.2030000687
1170.0	0.000914	62.25
1170.0	0.000914	62.2810001373
1170.0	0.000914	62.3280000687
1170.0	0.0009138	62.375
1170.0	0.0009138	62.4060001373
1170.0	0.0009135	62.4530000687
1170.0	0.0009138	62.4839999676
1170.0	0.000914	62.5310001373
1170.0	0.000914	62.5780000687
1170.0	0.000914	62.6089999676
1170.0	0.000914	62.6560001373
1170.0	0.0009138	62.7030000687
1170.0	0.0009138	62.7339999676
1170.0	0.0009138	62.7810001373
1170.0	0.000913	62.8280000687
1170.0	0.000913	62.8589999676
1170.0	0.000913	62.9060001373
1170.0	0.000913	62.9530000687
1170.0	0.0009135	62.9839999676
1170.0	0.0009138	63.0310001373
1170.0	0.0009143	63.0620000362
1180.0	0.0009168	63.3280000687
1180.0	0.0009178	63.375
1180.0	0.000919	63.4060001373
1180.0	0.00092	63.4530000687
1180.0	0.0009213	63.5
1180.0	0.0009218	63.5310001373
1180.0	0.0009223	63.5780000687
1180.0	0.0009223	63.6089999676
1180.0	0.0009228	63.6560001373
1180.0	0.000923	63.7030000687
1180.0	0.000923	63.7339999676
1180.0	0.0009235	63.7810001373
1180.0	0.0009235	63.8280000687
1180.0	0.0009235	63.8589999676
1180.0	0.0009238	63.9060001373
1180.0	0.0009238	63.9370000362
1180.0	0.0009238	63.9839999676
1180.0	0.0009238	64.0310001373
1180.0	0.0009238	64.0620000362
1180.0	0.0009238	64.1089999676
1180.0	0.0009235	64.1560001373
1180.0	0.0009235	64.1870000362
1180.0	0.0009238	64.2339999676
1180.0	0.0009235	64.2650001049
1180.0	0.0009235	64.3120000362
1180.0	0.0009235	64.3589999676
1180.0	0.000923	64.4060001373
1180.0	0.000923	64.4370000362
1180.0	0.0009235	64.4839999676
1180.0	0.0009238	64.5150001049
1180.0	0.000924	64.5620000362
1180.0	0.0009243	64.6089999676
1180.0	0.0009243	64.6400001049
1180.0	0.0009248	64.6870000362
1180.0	0.0009243	64.7339999676
1180.0	0.0009248	64.7650001049
1180.0	0.0009248	64.8120000362
1190.0	0.0009278	65.0780000687
1190.0	0.0009293	65.1089999676
1190.0	0.0009303	65.1560001373
1190.0	0.0009313	65.1870000362
1190.0	0.0009318	65.2339999676
1190.0	0.0009325	65.2810001373
1190.0	0.000933	65.3120000362
1190.0	0.0009335	65.3589999676
1190.0	0.0009338	65.3900001049
1190.0	0.0009343	65.4370000362
1190.0	0.0009348	65.4839999676
1190.0	0.0009348	65.5150001049
1190.0	0.0009353	65.5620000362
1190.0	0.0009353	65.6089999676
1190.0	0.0009353	65.6400001049
1190.0	0.0009353	65.6870000362
1190.0	0.0009355	65.7339999676
1190.0	0.000936	65.7650001049
1190.0	0.000936	65.8120000362
1190.0	0.000936	65.8440001011
1190.0	0.0009365	65.8900001049
1190.0	0.0009365	65.9370000362
1190.0	0.0009363	65.9839999676
1190.0	0.0009363	66.0150001049
1190.0	0.0009363	66.0620000362
1190.0	0.0009363	66.0940001011
1190.0	0.0009363	66.1400001049
1190.0	0.000936	66.1870000362
1190.0	0.000936	66.2190001011
1190.0	0.000936	66.2650001049
1190.0	0.0009363	66.3120000362
1190.0	0.0009365	66.3440001011
1190.0	0.0009365	66.3900001049
1190.0	0.0009363	66.4219999313
1190.0	0.0009363	66.4690001011
1190.0	0.0009363	66.5150001049
1190.0	0.0009363	66.5469999313
1200.0	0.0009405	66.8120000362
1200.0	0.0009415	66.8589999676
1200.0	0.0009425	66.8900001049
1200.0	0.0009435	66.9370000362
1200.0	0.0009443	66.9839999676
1200.0	0.000945	67.0150001049
1200.0	0.0009455	67.0620000362
1200.0	0.000946	67.1089999676
1200.0	0.000946	67.1400001049
1200.0	0.000946	67.1870000362
1200.0	0.0009463	67.2190001011
1200.0	0.0009463	67.2650001049
1200.0	0.0009463	67.3120000362
1200.0	0.0009463	67.3440001011
1200.0	0.0009465	67.3900001049
1200.0	0.0009468	67.4370000362
1200.0	0.0009465	67.4690001011
1200.0	0.0009465	67.5150001049
1200.0	0.0009465	67.5620000362
1200.0	0.0009465	67.5940001011
1200.0	0.0009465	67.6400001049
1200.0	0.0009468	67.6719999313
1200.0	0.0009475	67.7190001011
1200.0	0.0009473	67.7650001049
1200.0	0.0009473	67.7969999313
1200.0	0.0009468	67.8440001011
1200.0	0.0009465	67.8900001049
1200.0	0.0009465	67.9219999313
1200.0	0.0009463	67.9690001011
1200.0	0.0009465	68.0
1200.0	0.0009463	68.0469999313
1200.0	0.0009463	68.0940001011
1200.0	0.000946	68.125
1200.0	0.000946	68.1719999313
1200.0	0.000946	68.2190001011
1200.0	0.000946	68.25
1200.0	0.0009453	68.2969999313
1210.0	0.0009485	68.5620000362
1210.0	0.00095	68.6089999676
1210.0	0.0009513	68.6400001049
1210.0	0.0009523	68.6870000362
1210.0	0.0009535	68.7339999676
1210.0	0.000954	68.7650001049
1210.0	0.0009543	68.8120000362
1210.0	0.0009548	68.8589999676
1210.0	0.0009553	68.8900001049
1210.0	0.0009553	68.9370000362
1210.0	0.0009553	68.9690001011
1210.0	0.0009553	69.0150001049
1210.0	0.000955	69.0620000362
1210.0	0.0009548	69.0940001011
1210.0	0.0009543	69.1400001049
1210.0	0.000954	69.1870000362
1210.0	0.000954	69.2190001011
1210.0	0.0009543	69.2650001049
1210.0	0.0009543	69.2969999313
1210.0	0.0009543	69.3440001011
1210.0	0.000954	69.3900001049
1210.0	0.000954	69.4370000362
1210.0	0.0009543	69.4690001011
1210.0	0.0009543	69.5150001049
1210.0	0.0009543	69.5620000362
1210.0	0.000954	69.5940001011
1210.0	0.0009543	69.6400001049
1210.0	0.000954	69.6719999313
1210.0	0.000954	69.7190001011
1210.0	0.000954	69.7650001049
1210.0	0.0009538	69.7969999313
1210.0	0.000954	69.8440001011
1210.0	0.0009538	69.8900001049
1210.0	0.0009535	69.9219999313
1210.0	0.0009535	69.9690001011
1210.0	0.0009535	70.0
1220.0	0.0009573	70.2810001373
1220.0	0.0009585	70.3280000687
1220.0	0.0009598	70.3589999676
1220.0	0.000961	70.4060001373
1220.0	0.0009618	70.4530000687
1220.0	0.0009625	70.4839999676
1220.0	0.000963	70.5310001373
1220.0	0.0009638	70.5780000687
1220.0	0.0009643	70.6089999676
1220.0	0.0009643	70.6560001373
1220.0	0.0009648	70.7030000687
1220.0	0.000965	70.7339999676
1220.0	0.0009653	70.7810001373
1220.0	0.0009655	70.8120000362
1220.0	0.000966	70.8589999676
1220.0	0.000966	70.9060001373
1220.0	0.0009663	70.9370000362
1220.0	0.0009663	70.9839999676
1220.0	0.0009663	71.0310001373
1220.0	0.0009663	71.0620000362
1220.0	0.0009655	71.1089999676
1220.0	0.000966	71.1400001049
1220.0	0.000966	71.1870000362
1220.0	0.000966	71.2339999676
1220.0	0.000966	71.2650001049
1220.0	0.0009663	71.3120000362
1220.0	0.0009665	71.3589999676
1220.0	0.0009665	71.3900001049
1220.0	0.0009665	71.4370000362
1220.0	0.0009668	71.4690001011
1220.0	0.0009673	71.5150001049
1220.0	0.0009673	71.5620000362
1220.0	0.0009675	71.5940001011
1220.0	0.0009675	71.6400001049
1220.0	0.0009675	71.6870000362
1220.0	0.0009675	71.7190001011
1220.0	0.0009675	71.7650001049
1230.0	0.0009725	72.0310001373
1230.0	0.000974	72.0780000687
1230.0	0.0009755	72.125
1230.0	0.0009765	72.1560001373
1230.0	0.0009773	72.2030000687
1230.0	0.0009778	72.25
1230.0	0.000978	72.2810001373
1230.0	0.0009785	72.3280000687
1230.0	0.0009788	72.375
1230.0	0.0009788	72.4060001373
1230.0	0.0009788	72.4530000687
1230.0	0.000979	72.4839999676
1230.0	0.000979	72.5310001373
1230.0	0.0009788	72.5780000687
1230.0	0.0009788	72.6089999676
1230.0	0.0009788	72.6560001373
1230.0	0.0009788	72.7030000687
1230.0	0.0009785	72.7339999676
1230.0	0.000978	72.7810001373
1230.0	0.000978	72.8280000687
1230.0	0.0009785	72.8589999676
1230.0	0.0009778	72.9060001373
1230.0	0.000978	72.9370000362
1230.0	0.000978	72.9839999676
1230.0	0.000978	73.0310001373
1230.0	0.0009785	73.0620000362
1230.0	0.0009785	73.1089999676
1230.0	0.0009785	73.1400001049
1230.0	0.0009785	73.1870000362
1230.0	0.0009778	73.2339999676
1230.0	0.0009778	73.2650001049
1230.0	0.0009775	73.3120000362
1230.0	0.0009768	73.3589999676
1230.0	0.0009768	73.3900001049
1230.0	0.0009768	73.4370000362
1230.0	0.0009765	73.4839999676
1230.0	0.000976	73.5150001049
1240.0	0.0009798	73.7969999313
1240.0	0.000981	73.8280000687
1240.0	0.0009823	73.875
1240.0	0.000983	73.9060001373
1240.0	0.0009838	73.9530000687
1240.0	0.0009848	74.0
1240.0	0.0009853	74.0310001373
1240.0	0.000986	74.0780000687
1240.0	0.0009863	74.125
1240.0	0.0009863	74.1560001373
1240.0	0.0009865	74.2030000687
1240.0	0.000986	74.25
1240.0	0.000986	74.2810001373
1240.0	0.000986	74.3280000687
1240.0	0.000986	74.375
1240.0	0.0009865	74.4060001373
1240.0	0.0009868	74.4530000687
1240.0	0.0009868	74.4839999676
1240.0	0.0009868	74.5310001373
1240.0	0.0009865	74.5780000687
1240.0	0.0009865	74.6089999676
1240.0	0.0009868	74.6560001373
1240.0	0.0009868	74.7030000687
1240.0	0.0009865	74.7339999676
1240.0	0.0009868	74.7810001373
1240.0	0.0009865	74.8280000687
1240.0	0.0009865	74.8589999676
1240.0	0.0009865	74.9060001373
1240.0	0.0009865	74.9370000362
1240.0	0.0009868	74.9839999676
1240.0	0.0009873	75.0310001373
1240.0	0.0009875	75.0620000362
1240.0	0.0009875	75.1089999676
1240.0	0.0009875	75.1400001049
1240.0	0.0009878	75.1870000362
1240.0	0.0009885	75.2339999676
1240.0	0.0009885	75.2650001049
1250.0	0.000993	75.5469999313
1250.0	0.0009943	75.5780000687
1250.0	0.0009953	75.625
1250.0	0.0009963	75.6719999313
1250.0	0.0009973	75.7030000687
1250.0	0.000998	75.75
1250.0	0.0009985	75.7969999313
1250.0	0.0009988	75.8280000687
1250.0	0.000999	75.875
1250.0	0.0009993	75.9219999313
1250.0	0.0009998	75.9690001011
1250.0	0.001	76.0
1250.0	0.001	76.0469999313
1250.0	0.001	76.0780000687
1250.0	0.0010003	76.125
1250.0	0.0010003	76.1719999313
1250.0	0.0010005	76.2030000687
1250.0	0.0010005	76.25
1250.0	0.0010005	76.2969999313
1250.0	0.0010005	76.3280000687
1250.0	0.0010003	76.375
1250.0	0.0009998	76.4060001373
1250.0	0.0009993	76.4530000687
1250.0	0.0009988	76.5
1250.0	0.0009985	76.5310001373
1250.0	0.0009985	76.5780000687
1250.0	0.0009985	76.625
1250.0	0.0009985	76.6560001373
1250.0	0.0009985	76.7030000687
1250.0	0.0009988	76.75
1250.0	0.0009988	76.7810001373
1250.0	0.0009988	76.8280000687
1250.0	0.0009985	76.8589999676
1250.0	0.0009985	76.9060001373
1250.0	0.000998	76.9530000687
1250.0	0.0009978	76.9839999676
1250.0	0.0009978	77.0310001373
1260.0	0.0010005	77.2969999313
1260.0	0.0010015	77.3440001011
1260.0	0.0010028	77.3900001049
1260.0	0.0010038	77.4219999313
1260.0	0.0010043	77.4690001011
1260.0	0.0010053	77.5
1260.0	0.0010055	77.5469999313
1260.0	0.0010055	77.5940001011
1260.0	0.0010053	77.625
1260.0	0.0010055	77.6719999313
1260.0	0.0010055	77.7190001011
1260.0	0.001006	77.75
1260.0	0.001006	77.7969999313
1260.0	0.0010063	77.8280000687
1260.0	0.0010065	77.875
1260.0	0.0010065	77.9219999313
1260.0	0.0010068	77.9530000687
1260.0	0.0010068	78.0
1260.0	0.0010068	78.0469999313
1260.0	0.0010068	78.0780000687
1260.0	0.0010073	78.125
1260.0	0.0010075	78.1560001373
1260.0	0.0010078	78.2030000687
1260.0	0.0010078	78.25
1260.0	0.0010078	78.2810001373
1260.0	0.001008	78.3280000687
1260.0	0.0010085	78.375
1260.0	0.0010085	78.4060001373
1260.0	0.0010085	78.4530000687
1260.0	0.001008	78.5
1260.0	0.001008	78.5310001373
1260.0	0.001008	78.5780000687
1260.0	0.0010078	78.6089999676
1260.0	0.001008	78.6560001373
1260.0	0.0010085	78.7030000687
1260.0	0.0010088	78.7339999676
1260.0	0.001009	78.7810001373
1270.0	0.0010105	79.0469999313
1270.0	0.0010115	79.0940001011
1270.0	0.0010128	79.125
1270.0	0.0010135	79.1719999313
1270.0	0.0010138	79.2190001011
1270.0	0.001014	79.25
1270.0	0.0010138	79.2969999313
1270.0	0.0010138	79.3280000687
1270.0	0.0010135	79.375
1270.0	0.0010135	79.4219999313
1270.0	0.0010135	79.4530000687
1270.0	0.0010135	79.5
1270.0	0.0010135	79.5469999313
1270.0	0.0010138	79.5780000687
1270.0	0.001014	79.625
1270.0	0.001014	79.6560001373
1270.0	0.001014	79.7030000687
1270.0	0.001014	79.75
1270.0	0.0010138	79.7810001373
1270.0	0.0010135	79.8280000687
1270.0	0.001013	79.875
1270.0	0.0010128	79.9060001373
1270.0	0.0010128	79.9530000687
1270.0	0.0010125	79.9839999676
1270.0	0.0010123	80.0310001373
1270.0	0.0010125	80.0780000687
1270.0	0.0010123	80.1089999676
1270.0	0.0010118	80.1560001373
1270.0	0.0010118	80.2030000687
1270.0	0.0010113	80.2339999676
1270.0	0.0010113	80.2810001373
1270.0	0.001011	80.3120000362
1270.0	0.0010113	80.3589999676
1270.0	0.0010115	80.4060001373
1270.0	0.0010115	80.4370000362
1270.0	0.0010113	80.4839999676
1270.0	0.0010113	80.5310001373
1280.0	0.0010123	80.7969999313
1280.0	0.0010128	80.8280000687
1280.0	0.0010128	80.875
1280.0	0.001013	80.9219999313
1280.0	0.0010138	80.9530000687
1280.0	0.0010143	81.0
1280.0	0.0010148	81.0310001373
1280.0	0.001015	81.0780000687
1280.0	0.0010153	81.125
1280.0	0.0010153	81.1560001373
1280.0	0.0010155	81.2030000687
1280.0	0.0010163	81.25
1280.0	0.0010165	81.2810001373
1280.0	0.0010168	81.3280000687
1280.0	0.0010168	81.375
1280.0	0.0010173	81.4060001373
1280.0	0.0010168	81.4530000687
1280.0	0.0010165	81.4839999676
1280.0	0.0010173	81.5310001373
1280.0	0.0010173	81.5780000687
1280.0	0.0010178	81.6089999676
1280.0	0.0010175	81.6560001373
1280.0	0.0010175	81.7030000687
1280.0	0.0010178	81.7339999676
1280.0	0.001018	81.7810001373
1280.0	0.0010185	81.8120000362
1280.0	0.0010185	81.8589999676
1280.0	0.001019	81.9060001373
1280.0	0.001019	81.9370000362
1280.0	0.001019	81.9839999676
1280.0	0.001019	82.0310001373
1280.0	0.0010188	82.0620000362
1280.0	0.0010185	82.1089999676
1280.0	0.0010185	82.1400001049
1280.0	0.0010185	82.1870000362
1280.0	0.0010178	82.2339999676
1280.0	0.0010178	82.2650001049
1290.0	0.0010165	82.5310001373
1290.0	0.0010163	82.5780000687
1290.0	0.001016	82.6089999676
1290.0	0.0010155	82.6560001373
1290.0	0.0010153	82.7030000687
1290.0	0.0010153	82.7339999676
1290.0	0.001015	82.7810001373
1290.0	0.0010148	82.8280000687
1290.0	0.0010148	82.8589999676
1290.0	0.0010148	82.9060001373
1290.0	0.0010143	82.9370000362
1290.0	0.0010143	82.9839999676
1290.0	0.001014	83.0310001373
1290.0	0.001014	83.0620000362
1290.0	0.001014	83.1089999676
1290.0	0.0010138	83.1560001373
1290.0	0.0010135	83.1870000362
1290.0	0.001013	83.2339999676
1290.0	0.0010128	83.2650001049
1290.0	0.0010125	83.3120000362
1290.0	0.0010128	83.3589999676
1290.0	0.0010128	83.3900001049
1290.0	0.0010128	83.4370000362
1290.0	0.0010128	83.4839999676
1290.0	0.0010128	83.5150001049
1290.0	0.001013	83.5620000362
1290.0	0.001013	83.6089999676
1290.0	0.001013	83.6400001049
1290.0	0.0010128	83.6870000362
1290.0	0.001013	83.7339999676
1290.0	0.0010135	83.7650001049
1290.0	0.0010135	83.8120000362
1290.0	0.0010138	83.8589999676
1290.0	0.001014	83.8900001049
1290.0	0.0010143	83.9370000362
1290.0	0.0010143	83.9690001011
1290.0	0.0010143	84.0150001049
1300.0	0.0010118	84.2810001373
1300.0	0.001011	84.3280000687
1300.0	0.00101	84.3589999676
1300.0	0.0010098	84.4060001373
1300.0	0.0010093	84.4370000362
1300.0	0.001009	84.4839999676
1300.0	0.0010088	84.5310001373
1300.0	0.0010085	84.5620000362
1300.0	0.0010085	84.6089999676
1300.0	0.001008	84.6560001373
1300.0	0.001008	84.6870000362
1300.0	0.001008	84.7339999676
1300.0	0.0010085	84.7650001049
1300.0	0.0010085	84.8120000362
1300.0	0.001009	84.8589999676
1300.0	0.001009	84.9060001373
1300.0	0.0010093	84.9370000362
1300.0	0.0010098	84.9839999676
1300.0	0.0010098	85.0150001049
1300.0	0.0010098	85.0620000362
1300.0	0.00101	85.1089999676
1300.0	0.00101	85.1400001049
1300.0	0.00101	85.1870000362
1300.0	0.00101	85.2339999676
1300.0	0.00101	85.2650001049
1300.0	0.0010103	85.3120000362
1300.0	0.0010103	85.3440001011
1300.0	0.0010103	85.3900001049
1300.0	0.0010103	85.4370000362
1300.0	0.0010105	85.4690001011
1300.0	0.0010105	85.5150001049
1300.0	0.001011	85.5620000362
1300.0	0.0010115	85.6089999676
1300.0	0.0010115	85.6400001049
1300.0	0.0010115	85.6870000362
1300.0	0.0010113	85.7339999676
1310.0	0.0010063	85.9839999676
1310.0	0.001004	86.0310001373
1310.0	0.0010025	86.0780000687
1310.0	0.0010013	86.1089999676
1310.0	0.0009998	86.1560001373
1310.0	0.0009985	86.1870000362
1310.0	0.0009978	86.2339999676
1310.0	0.0009968	86.2810001373
1310.0	0.0009965	86.3120000362
1310.0	0.0009965	86.3589999676
1310.0	0.0009963	86.3900001049
1310.0	0.0009955	86.4370000362
1310.0	0.0009953	86.4839999676
1310.0	0.0009948	86.5150001049
1310.0	0.0009948	86.5620000362
1310.0	0.0009943	86.6089999676
1310.0	0.000994	86.6400001049
1310.0	0.000994	86.6870000362
1310.0	0.0009938	86.7339999676
1310.0	0.0009938	86.7650001049
1310.0	0.000994	86.8120000362
1310.0	0.0009943	86.8440001011
1310.0	0.0009948	86.8900001049
1310.0	0.0009948	86.9370000362
1310.0	0.0009948	86.9690001011
1310.0	0.000995	87.0150001049
1310.0	0.000995	87.0620000362
1310.0	0.000995	87.0940001011
1310.0	0.0009948	87.1400001049
1310.0	0.0009948	87.1719999313
1310.0	0.0009948	87.2190001011
1310.0	0.0009948	87.2650001049
1310.0	0.0009943	87.3120000362
1310.0	0.0009943	87.3440001011
1310.0	0.0009943	87.3900001049
1310.0	0.0009943	87.4219999313
1310.0	0.000994	87.4690001011
1320.0	0.0009873	87.7339999676
1320.0	0.0009848	87.7810001373
1320.0	0.0009825	87.8120000362
1320.0	0.0009805	87.8589999676
1320.0	0.000979	87.8900001049
1320.0	0.0009778	87.9370000362
1320.0	0.0009765	87.9839999676
1320.0	0.000976	88.0150001049
1320.0	0.000976	88.0620000362
1320.0	0.000976	88.1089999676
1320.0	0.000976	88.1400001049
1320.0	0.0009763	88.1870000362
1320.0	0.000976	88.2339999676
1320.0	0.000976	88.2650001049
1320.0	0.000976	88.3120000362
1320.0	0.0009763	88.3589999676
1320.0	0.0009763	88.3900001049
1320.0	0.0009765	88.4370000362
1320.0	0.0009765	88.4839999676
1320.0	0.0009768	88.5150001049
1320.0	0.0009768	88.5620000362
1320.0	0.0009768	88.5940001011
1320.0	0.0009765	88.6400001049
1320.0	0.0009765	88.6870000362
1320.0	0.0009765	88.7190001011
1320.0	0.0009765	88.7650001049
1320.0	0.0009768	88.8120000362
1320.0	0.0009775	88.8440001011
1320.0	0.0009778	88.8900001049
1320.0	0.0009778	88.9219999313
1320.0	0.0009778	88.9690001011
1320.0	0.0009778	89.0150001049
1320.0	0.0009785	89.0469999313
1320.0	0.0009785	89.0940001011
1320.0	0.0009788	89.1400001049
1320.0	0.000978	89.1719999313
1320.0	0.000978	89.2190001011
1330.0	0.0009693	89.4839999676
1330.0	0.0009655	89.5150001049
1330.0	0.0009625	89.5620000362
1330.0	0.0009598	89.6089999676
1330.0	0.000958	89.6400001049
1330.0	0.0009568	89.6870000362
1330.0	0.000956	89.7190001011
1330.0	0.000955	89.7650001049
1330.0	0.0009543	89.8120000362
1330.0	0.000954	89.8440001011
1330.0	0.0009538	89.8900001049
1330.0	0.0009535	89.9370000362
1330.0	0.0009535	89.9690001011
1330.0	0.0009538	90.0150001049
1330.0	0.0009538	90.0469999313
1330.0	0.0009535	90.0940001011
1330.0	0.000953	90.1400001049
1330.0	0.0009528	90.1719999313
1330.0	0.0009525	90.2190001011
1330.0	0.0009525	90.2650001049
1330.0	0.0009523	90.2969999313
1330.0	0.0009518	90.3440001011
1330.0	0.0009518	90.375
1330.0	0.0009515	90.4219999313
1330.0	0.0009513	90.4690001011
1330.0	0.000951	90.5
1330.0	0.000951	90.5469999313
1330.0	0.000951	90.5940001011
1330.0	0.000951	90.625
1330.0	0.0009505	90.6719999313
1330.0	0.0009505	90.7030000687
1330.0	0.0009505	90.75
1330.0	0.0009503	90.7969999313
1330.0	0.0009503	90.8280000687
1330.0	0.0009503	90.875
1330.0	0.0009503	90.9219999313
1330.0	0.00095	90.9530000687
1340.0	0.0009388	91.2190001011
1340.0	0.0009343	91.2650001049
1340.0	0.0009303	91.2969999313
1340.0	0.0009273	91.3440001011
1340.0	0.0009253	91.3900001049
1340.0	0.0009235	91.4370000362
1340.0	0.0009223	91.4690001011
1340.0	0.0009215	91.5150001049
1340.0	0.000921	91.5469999313
1340.0	0.0009205	91.5940001011
1340.0	0.0009203	91.6400001049
1340.0	0.0009198	91.6719999313
1340.0	0.0009198	91.7190001011
1340.0	0.000919	91.7650001049
1340.0	0.000919	91.7969999313
1340.0	0.000919	91.8440001011
1340.0	0.0009188	91.875
1340.0	0.0009188	91.9219999313
1340.0	0.0009188	91.9690001011
1340.0	0.0009185	92.0
1340.0	0.0009185	92.0469999313
1340.0	0.0009185	92.0940001011
1340.0	0.0009188	92.125
1340.0	0.000919	92.1719999313
1340.0	0.000919	92.2030000687
1340.0	0.000919	92.25
1340.0	0.000919	92.2969999313
1340.0	0.0009193	92.3280000687
1340.0	0.0009193	92.375
1340.0	0.0009198	92.4219999313
1340.0	0.000919	92.4530000687
1340.0	0.000919	92.5
1340.0	0.0009188	92.5469999313
1340.0	0.0009185	92.5780000687
1340.0	0.0009185	92.625
1340.0	0.000918	92.6560001373
1340.0	0.0009178	92.7030000687
1350.0	0.0009078	92.9690001011
1350.0	0.000903	93.0150001049
1350.0	0.000899	93.0469999313
1350.0	0.0008963	93.0940001011
1350.0	0.0008938	93.1400001049
1350.0	0.0008923	93.1719999313
1350.0	0.0008913	93.2190001011
1350.0	0.0008903	93.2650001049
1350.0	0.0008893	93.2969999313
1350.0	0.0008888	93.3440001011
1350.0	0.0008885	93.375
1350.0	0.000888	93.4219999313
1350.0	0.000888	93.4690001011
1350.0	0.0008878	93.5
1350.0	0.0008878	93.5469999313
1350.0	0.0008875	93.5940001011
1350.0	0.0008875	93.625
1350.0	0.0008873	93.6719999313
1350.0	0.0008868	93.7030000687
1350.0	0.0008865	93.75
1350.0	0.0008868	93.7969999313
1350.0	0.0008873	93.8440001011
1350.0	0.0008875	93.875
1350.0	0.0008875	93.9219999313
1350.0	0.0008873	93.9530000687
1350.0	0.0008873	94.0
1350.0	0.0008875	94.0469999313
1350.0	0.0008878	94.0780000687
1350.0	0.0008878	94.125
1350.0	0.0008878	94.1719999313
1350.0	0.000888	94.2030000687
1350.0	0.000888	94.25
1350.0	0.000888	94.2969999313
1350.0	0.000888	94.3280000687
1350.0	0.0008885	94.375
1350.0	0.0008888	94.4060001373
1350.0	0.000889	94.4530000687
1360.0	0.0008768	94.7190001011
1360.0	0.0008725	94.75
1360.0	0.0008688	94.7969999313
1360.0	0.0008653	94.8440001011
1360.0	0.0008625	94.875
1360.0	0.0008605	94.9219999313
1360.0	0.0008598	94.9690001011
1360.0	0.000859	95.0
1360.0	0.0008585	95.0469999313
1360.0	0.0008578	95.0780000687
1360.0	0.0008578	95.125
1360.0	0.0008575	95.1719999313
1360.0	0.0008575	95.2030000687
1360.0	0.0008573	95.25
1360.0	0.0008568	95.2969999313
1360.0	0.0008563	95.3280000687
1360.0	0.0008563	95.375
1360.0	0.0008565	95.4219999313
1360.0	0.0008565	95.4530000687
1360.0	0.0008568	95.5
1360.0	0.0008568	95.5469999313
1360.0	0.0008568	95.5780000687
1360.0	0.0008568	95.625
1360.0	0.0008568	95.6719999313
1360.0	0.0008568	95.7030000687
1360.0	0.0008573	95.75
1360.0	0.0008573	95.7810001373
1360.0	0.0008573	95.8280000687
1360.0	0.0008573	95.875
1360.0	0.0008565	95.9060001373
1360.0	0.0008565	95.9530000687
1360.0	0.0008568	96.0
1360.0	0.0008568	96.0310001373
1360.0	0.0008565	96.0780000687
1360.0	0.0008565	96.1089999676
1360.0	0.0008565	96.1560001373
1360.0	0.0008568	96.2030000687
1370.0	0.000846	96.4690001011
1370.0	0.0008415	96.5
1370.0	0.0008378	96.5469999313
1370.0	0.0008348	96.5780000687
1370.0	0.0008318	96.625
1370.0	0.0008303	96.6719999313
1370.0	0.0008288	96.7030000687
1370.0	0.0008278	96.75
1370.0	0.0008273	96.7969999313
1370.0	0.0008265	96.8280000687
1370.0	0.000826	96.875
1370.0	0.0008255	96.9060001373
1370.0	0.0008253	96.9530000687
1370.0	0.000825	97.0
1370.0	0.0008248	97.0310001373
1370.0	0.0008248	97.0780000687
1370.0	0.000825	97.125
1370.0	0.0008248	97.1719999313
1370.0	0.0008243	97.2030000687
1370.0	0.0008243	97.25
1370.0	0.0008248	97.2810001373
1370.0	0.000825	97.3280000687
1370.0	0.000825	97.375
1370.0	0.0008248	97.4060001373
1370.0	0.0008248	97.4530000687
1370.0	0.0008248	97.5
1370.0	0.000825	97.5310001373
1370.0	0.000825	97.5780000687
1370.0	0.0008248	97.6089999676
1370.0	0.0008248	97.6560001373
1370.0	0.0008248	97.7030000687
1370.0	0.000825	97.75
1370.0	0.000825	97.7810001373
1370.0	0.0008253	97.8280000687
1370.0	0.0008253	97.8589999676
1370.0	0.0008253	97.9060001373
1370.0	0.0008253	97.9530000687
1380.0	0.0008148	98.2030000687
1380.0	0.0008113	98.25
1380.0	0.0008085	98.2969999313
1380.0	0.0008055	98.3280000687
1380.0	0.0008035	98.375
1380.0	0.0008015	98.4060001373
1380.0	0.0008003	98.4530000687
1380.0	0.000799	98.5
1380.0	0.0007988	98.5310001373
1380.0	0.0007985	98.5780000687
1380.0	0.0007978	98.625
1380.0	0.0007973	98.6560001373
1380.0	0.0007968	98.7030000687
1380.0	0.0007965	98.7339999676
1380.0	0.0007968	98.7810001373
1380.0	0.0007973	98.8280000687
1380.0	0.0007973	98.8589999676
1380.0	0.0007973	98.9060001373
1380.0	0.0007973	98.9530000687
1380.0	0.0007973	98.9839999676
1380.0	0.0007968	99.0310001373
1380.0	0.0007973	99.0620000362
1380.0	0.0007973	99.1089999676
1380.0	0.0007973	99.1560001373
1380.0	0.0007973	99.1870000362
1380.0	0.0007973	99.2339999676
1380.0	0.0007968	99.2810001373
1380.0	0.0007968	99.3120000362
1380.0	0.0007965	99.3589999676
1380.0	0.0007965	99.3900001049
1380.0	0.0007963	99.4370000362
1380.0	0.0007965	99.4839999676
1380.0	0.0007968	99.5150001049
1380.0	0.0007973	99.5620000362
1380.0	0.0007973	99.6089999676
1380.0	0.0007973	99.6400001049
1380.0	0.0007973	99.6870000362
1390.0	0.0007885	99.9530000687
1390.0	0.000785	99.9839999676
1390.0	0.0007818	100.031000137
1390.0	0.0007798	100.078000069
1390.0	0.0007775	100.108999968
1390.0	0.000776	100.156000137
1390.0	0.000775	100.187000036
1390.0	0.0007743	100.233999968
1390.0	0.000774	100.281000137
1390.0	0.0007738	100.312000036
1390.0	0.0007738	100.358999968
1390.0	0.000773	100.406000137
1390.0	0.0007728	100.437000036
1390.0	0.0007723	100.483999968
1390.0	0.0007723	100.515000105
1390.0	0.0007723	100.562000036
1390.0	0.0007723	100.608999968
1390.0	0.0007725	100.640000105
1390.0	0.0007728	100.687000036
1390.0	0.0007728	100.733999968
1390.0	0.0007725	100.765000105
1390.0	0.0007728	100.812000036
1390.0	0.0007728	100.858999968
1390.0	0.000773	100.890000105
1390.0	0.0007735	100.937000036
1390.0	0.0007735	100.969000101
1390.0	0.0007735	101.015000105
1390.0	0.0007735	101.062000036
1390.0	0.0007735	101.094000101
1390.0	0.0007735	101.140000105
1390.0	0.0007735	101.187000036
1390.0	0.000773	101.219000101
1390.0	0.000773	101.265000105
1390.0	0.0007728	101.296999931
1390.0	0.0007728	101.344000101
1390.0	0.0007728	101.390000105
1390.0	0.0007728	101.421999931
1400.0	0.0007665	101.687000036
1400.0	0.000764	101.733999968
1400.0	0.0007618	101.781000137
1400.0	0.0007603	101.812000036
1400.0	0.0007588	101.858999968
1400.0	0.0007578	101.906000137
1400.0	0.0007573	101.937000036
1400.0	0.0007565	101.983999968
1400.0	0.000756	102.015000105
1400.0	0.000756	102.062000036
1400.0	0.0007555	102.108999968
1400.0	0.0007553	102.140000105
1400.0	0.0007553	102.187000036
1400.0	0.000755	102.233999968
1400.0	0.0007553	102.265000105
1400.0	0.0007553	102.312000036
1400.0	0.0007553	102.344000101
1400.0	0.0007553	102.390000105
1400.0	0.000755	102.437000036
1400.0	0.000755	102.469000101
1400.0	0.000755	102.515000105
1400.0	0.0007548	102.562000036
1400.0	0.0007548	102.594000101
1400.0	0.0007548	102.640000105
1400.0	0.0007548	102.671999931
1400.0	0.0007543	102.719000101
1400.0	0.0007543	102.765000105
1400.0	0.0007548	102.796999931
1400.0	0.0007548	102.844000101
1400.0	0.000755	102.890000105
1400.0	0.0007555	102.921999931
1400.0	0.0007555	102.969000101
1400.0	0.0007555	103.015000105
1400.0	0.0007555	103.046999931
1400.0	0.0007555	103.094000101
1400.0	0.0007555	103.125
1400.0	0.0007555	103.171999931
1410.0	0.00075	103.437000036
1410.0	0.0007485	103.483999968
1410.0	0.0007473	103.515000105
1410.0	0.000746	103.562000036
1410.0	0.0007453	103.608999968
1410.0	0.0007443	103.640000105
1410.0	0.000744	103.687000036
1410.0	0.0007435	103.733999968
1410.0	0.0007428	103.765000105
1410.0	0.0007425	103.812000036
1410.0	0.0007425	103.844000101
1410.0	0.0007428	103.890000105
1410.0	0.0007428	103.937000036
1410.0	0.0007428	103.969000101
1410.0	0.000743	104.015000105
1410.0	0.0007428	104.062000036
1410.0	0.0007428	104.094000101
1410.0	0.0007425	104.140000105
1410.0	0.0007428	104.171999931
1410.0	0.0007425	104.219000101
1410.0	0.0007425	104.265000105
1410.0	0.0007428	104.296999931
1410.0	0.000743	104.344000101
1410.0	0.000743	104.390000105
1410.0	0.000743	104.421999931
1410.0	0.000743	104.469000101
1410.0	0.0007435	104.5
1410.0	0.000743	104.546999931
1410.0	0.000743	104.594000101
1410.0	0.0007428	104.625
1410.0	0.0007425	104.671999931
1410.0	0.0007425	104.719000101
1410.0	0.0007423	104.75
1410.0	0.0007418	104.796999931
1410.0	0.0007423	104.844000101
1410.0	0.0007423	104.875
1410.0	0.0007415	104.921999931
1420.0	0.0007388	105.187000036
1420.0	0.0007378	105.233999968
1420.0	0.0007373	105.265000105
1420.0	0.0007368	105.312000036
1420.0	0.0007365	105.358999968
1420.0	0.0007365	105.390000105
1420.0	0.0007365	105.437000036
1420.0	0.0007365	105.469000101
1420.0	0.0007368	105.515000105
1420.0	0.0007368	105.562000036
1420.0	0.0007365	105.594000101
1420.0	0.0007363	105.640000105
1420.0	0.000736	105.687000036
1420.0	0.000736	105.719000101
1420.0	0.0007355	105.765000105
1420.0	0.0007353	105.812000036
1420.0	0.0007353	105.844000101
1420.0	0.0007353	105.890000105
1420.0	0.0007353	105.921999931
1420.0	0.000735	105.969000101
1420.0	0.0007348	106.015000105
1420.0	0.0007343	106.046999931
1420.0	0.0007343	106.094000101
1420.0	0.0007343	106.140000105
1420.0	0.0007348	106.171999931
1420.0	0.0007353	106.219000101
1420.0	0.0007353	106.25
1420.0	0.0007355	106.296999931
1420.0	0.0007353	106.344000101
1420.0	0.000735	106.375
1420.0	0.0007353	106.421999931
1420.0	0.0007353	106.469000101
1420.0	0.0007353	106.5
1420.0	0.000735	106.546999931
1420.0	0.0007348	106.578000069
1420.0	0.0007348	106.625
1420.0	0.0007343	106.671999931
1430.0	0.000734	106.937000036
1430.0	0.000734	106.969000101
1430.0	0.0007343	107.015000105
1430.0	0.0007348	107.062000036
1430.0	0.0007348	107.094000101
1430.0	0.0007343	107.140000105
1430.0	0.000734	107.187000036
1430.0	0.000734	107.219000101
1430.0	0.000734	107.265000105
1430.0	0.000734	107.296999931
1430.0	0.0007343	107.344000101
1430.0	0.0007348	107.390000105
1430.0	0.0007343	107.421999931
1430.0	0.0007343	107.469000101
1430.0	0.0007343	107.515000105
1430.0	0.0007343	107.546999931
1430.0	0.000734	107.594000101
1430.0	0.000734	107.625
1430.0	0.000734	107.671999931
1430.0	0.0007338	107.719000101
1430.0	0.0007338	107.75
1430.0	0.000734	107.796999931
1430.0	0.000734	107.844000101
1430.0	0.0007343	107.875
1430.0	0.0007343	107.921999931
1430.0	0.0007348	107.969000101
1430.0	0.000735	108.0
1430.0	0.000735	108.046999931
1430.0	0.000735	108.078000069
1430.0	0.0007348	108.125
1430.0	0.0007348	108.171999931
1430.0	0.000735	108.203000069
1430.0	0.000735	108.25
1430.0	0.0007348	108.296999931
1430.0	0.0007343	108.328000069
1430.0	0.0007343	108.375
1430.0	0.0007343	108.421999931
1440.0	0.0007363	108.687000036
1440.0	0.0007368	108.719000101
1440.0	0.0007373	108.765000105
1440.0	0.0007375	108.812000036
1440.0	0.0007378	108.844000101
1440.0	0.000738	108.890000105
1440.0	0.0007385	108.937000036
1440.0	0.0007388	108.969000101
1440.0	0.000739	109.015000105
1440.0	0.0007393	109.062000036
1440.0	0.0007398	109.094000101
1440.0	0.00074	109.140000105
1440.0	0.00074	109.187000036
1440.0	0.00074	109.219000101
1440.0	0.0007403	109.265000105
1440.0	0.00074	109.296999931
1440.0	0.0007403	109.344000101
1440.0	0.00074	109.390000105
1440.0	0.0007403	109.421999931
1440.0	0.0007403	109.469000101
1440.0	0.00074	109.515000105
1440.0	0.00074	109.546999931
1440.0	0.00074	109.594000101
1440.0	0.0007403	109.640000105
1440.0	0.0007403	109.671999931
1440.0	0.00074	109.719000101
1440.0	0.0007403	109.75
1440.0	0.0007403	109.796999931
1440.0	0.00074	109.844000101
1440.0	0.00074	109.875
1440.0	0.0007403	109.921999931
1440.0	0.00074	109.969000101
1440.0	0.00074	110.0
1440.0	0.00074	110.046999931
1440.0	0.0007398	110.094000101
1440.0	0.0007398	110.125
1440.0	0.0007398	110.171999931
1450.0	0.0007435	110.437000036
1450.0	0.000745	110.483999968
1450.0	0.0007463	110.515000105
1450.0	0.0007475	110.562000036
1450.0	0.0007485	110.608999968
1450.0	0.0007493	110.640000105
1450.0	0.0007503	110.687000036
1450.0	0.0007503	110.719000101
1450.0	0.0007505	110.765000105
1450.0	0.000751	110.812000036
1450.0	0.0007513	110.844000101
1450.0	0.0007513	110.890000105
1450.0	0.0007515	110.937000036
1450.0	0.0007515	110.969000101
1450.0	0.0007518	111.015000105
1450.0	0.0007515	111.062000036
1450.0	0.0007515	111.094000101
1450.0	0.0007515	111.140000105
1450.0	0.0007515	111.187000036
1450.0	0.0007518	111.219000101
1450.0	0.0007518	111.265000105
1450.0	0.0007523	111.296999931
1450.0	0.0007523	111.344000101
1450.0	0.0007523	111.390000105
1450.0	0.0007523	111.421999931
1450.0	0.0007525	111.469000101
1450.0	0.0007523	111.515000105
1450.0	0.0007518	111.546999931
1450.0	0.0007515	111.594000101
1450.0	0.0007515	111.640000105
1450.0	0.0007513	111.671999931
1450.0	0.000751	111.719000101
1450.0	0.0007513	111.75
1450.0	0.0007513	111.796999931
1450.0	0.000751	111.844000101
1450.0	0.0007513	111.890000105
1460.0	0.0007563	112.156000137
1460.0	0.0007585	112.203000069
1460.0	0.0007603	112.233999968
1460.0	0.0007618	112.281000137
1460.0	0.0007628	112.312000036
1460.0	0.0007638	112.358999968
1460.0	0.0007643	112.406000137
1460.0	0.000765	112.437000036
1460.0	0.0007655	112.483999968
1460.0	0.000766	112.531000137
1460.0	0.000766	112.562000036
1460.0	0.0007665	112.608999968
1460.0	0.0007663	112.640000105
1460.0	0.000766	112.687000036
1460.0	0.000766	112.733999968
1460.0	0.0007655	112.765000105
1460.0	0.0007655	112.812000036
1460.0	0.0007655	112.858999968
1460.0	0.000766	112.890000105
1460.0	0.0007663	112.937000036
1460.0	0.000766	112.969000101
1460.0	0.000766	113.015000105
1460.0	0.000766	113.062000036
1460.0	0.000766	113.094000101
1460.0	0.0007655	113.140000105
1460.0	0.000766	113.187000036
1460.0	0.0007655	113.219000101
1460.0	0.000766	113.265000105
1460.0	0.000766	113.312000036
1460.0	0.0007665	113.344000101
1460.0	0.0007665	113.390000105
1460.0	0.0007663	113.421999931
1460.0	0.0007663	113.469000101
1460.0	0.0007663	113.515000105
1460.0	0.0007663	113.546999931
1460.0	0.000766	113.594000101
1460.0	0.0007663	113.640000105
1470.0	0.000771	113.906000137
1470.0	0.000773	113.937000036
1470.0	0.000775	113.983999968
1470.0	0.0007763	114.031000137
1470.0	0.0007775	114.062000036
1470.0	0.0007785	114.108999968
1470.0	0.000779	114.140000105
1470.0	0.00078	114.187000036
1470.0	0.000781	114.233999968
1470.0	0.0007815	114.265000105
1470.0	0.0007815	114.312000036
1470.0	0.0007815	114.358999968
1470.0	0.0007813	114.390000105
1470.0	0.0007813	114.437000036
1470.0	0.0007815	114.469000101
1470.0	0.0007815	114.515000105
1470.0	0.0007815	114.562000036
1470.0	0.0007815	114.594000101
1470.0	0.0007813	114.640000105
1470.0	0.0007813	114.687000036
1470.0	0.0007813	114.719000101
1470.0	0.0007815	114.765000105
1470.0	0.0007818	114.796999931
1470.0	0.0007818	114.844000101
1470.0	0.0007823	114.890000105
1470.0	0.0007825	114.921999931
1470.0	0.0007825	114.969000101
1470.0	0.0007825	115.015000105
1470.0	0.0007823	115.046999931
1470.0	0.0007818	115.094000101
1470.0	0.0007815	115.140000105
1470.0	0.0007818	115.171999931
1470.0	0.0007815	115.219000101
1470.0	0.0007815	115.25
1470.0	0.0007818	115.296999931
1470.0	0.0007818	115.344000101
1470.0	0.0007818	115.375
1480.0	0.0007875	115.640000105
1480.0	0.0007898	115.687000036
1480.0	0.0007915	115.733999968
1480.0	0.0007928	115.765000105
1480.0	0.0007935	115.812000036
1480.0	0.000794	115.844000101
1480.0	0.0007943	115.890000105
1480.0	0.000795	115.937000036
1480.0	0.0007953	115.969000101
1480.0	0.0007955	116.015000105
1480.0	0.000796	116.062000036
1480.0	0.0007963	116.094000101
1480.0	0.0007963	116.140000105
1480.0	0.0007963	116.187000036
1480.0	0.0007963	116.219000101
1480.0	0.0007965	116.265000105
1480.0	0.0007963	116.312000036
1480.0	0.000796	116.344000101
1480.0	0.0007963	116.390000105
1480.0	0.0007965	116.437000036
1480.0	0.0007965	116.469000101
1480.0	0.0007965	116.515000105
1480.0	0.0007965	116.546999931
1480.0	0.0007965	116.594000101
1480.0	0.0007965	116.640000105
1480.0	0.0007968	116.671999931
1480.0	0.0007968	116.719000101
1480.0	0.0007965	116.765000105
1480.0	0.0007965	116.796999931
1480.0	0.0007963	116.844000101
1480.0	0.0007963	116.875
1480.0	0.0007965	116.921999931
1480.0	0.000796	116.969000101
1480.0	0.0007955	117.0
1480.0	0.0007955	117.046999931
1480.0	0.000796	117.094000101
1480.0	0.000796	117.125
1490.0	0.0008003	117.406000137
1490.0	0.0008018	117.437000036
1490.0	0.0008028	117.483999968
1490.0	0.000804	117.515000105
1490.0	0.000805	117.562000036
1490.0	0.0008055	117.608999968
1490.0	0.0008063	117.640000105
1490.0	0.0008068	117.687000036
1490.0	0.0008073	117.733999968
1490.0	0.0008075	117.765000105
1490.0	0.0008075	117.812000036
1490.0	0.0008078	117.844000101
1490.0	0.0008078	117.890000105
1490.0	0.0008078	117.937000036
1490.0	0.0008078	117.983999968
1490.0	0.0008078	118.015000105
1490.0	0.000808	118.062000036
1490.0	0.000808	118.108999968
1490.0	0.0008078	118.140000105
1490.0	0.0008078	118.187000036
1490.0	0.0008075	118.219000101
1490.0	0.0008073	118.265000105
1490.0	0.0008075	118.312000036
1490.0	0.0008075	118.344000101
1490.0	0.0008073	118.390000105
1490.0	0.0008073	118.437000036
1490.0	0.0008075	118.469000101
1490.0	0.000808	118.515000105
1490.0	0.000808	118.546999931
1490.0	0.0008078	118.594000101
1490.0	0.000808	118.640000105
1490.0	0.000808	118.671999931
1490.0	0.0008078	118.719000101
1490.0	0.0008078	118.765000105
1490.0	0.0008075	118.796999931
1490.0	0.0008075	118.844000101
1490.0	0.0008075	118.875
1500.0	0.000811	119.156000137
1500.0	0.0008118	119.203000069
1500.0	0.0008128	119.233999968
1500.0	0.0008138	119.281000137
1500.0	0.0008143	119.312000036
1500.0	0.0008143	119.358999968
1500.0	0.0008148	119.406000137
1500.0	0.0008143	119.437000036
1500.0	0.000814	119.483999968
1500.0	0.000814	119.531000137
1500.0	0.0008143	119.562000036
1500.0	0.000814	119.608999968
1500.0	0.0008143	119.656000137
1500.0	0.0008148	119.687000036
1500.0	0.000815	119.733999968
1500.0	0.000815	119.781000137
1500.0	0.0008153	119.812000036
1500.0	0.0008153	119.858999968
1500.0	0.0008155	119.906000137
1500.0	0.0008155	119.937000036
1500.0	0.0008155	119.983999968
1500.0	0.0008153	120.031000137
1500.0	0.000815	120.062000036
1500.0	0.000815	120.108999968
1500.0	0.0008153	120.140000105
1500.0	0.0008155	120.187000036
1500.0	0.0008155	120.233999968
1500.0	0.0008155	120.265000105
1500.0	0.0008155	120.312000036
1500.0	0.0008153	120.358999968
1500.0	0.0008153	120.390000105
1500.0	0.0008153	120.437000036
1500.0	0.0008155	120.483999968
1500.0	0.000816	120.515000105
1500.0	0.000816	120.562000036
1500.0	0.000816	120.608999968
1510.0	0.0008153	120.875
1510.0	0.0008155	120.921999931
1510.0	0.000816	120.953000069
1510.0	0.0008163	121.0
1510.0	0.0008165	121.046999931
1510.0	0.0008165	121.078000069
1510.0	0.0008165	121.125
1510.0	0.0008165	121.156000137
1510.0	0.0008165	121.203000069
1510.0	0.0008168	121.25
1510.0	0.0008168	121.281000137
1510.0	0.0008168	121.328000069
1510.0	0.0008168	121.375
1510.0	0.0008173	121.406000137
1510.0	0.0008168	121.453000069
1510.0	0.0008168	121.483999968
1510.0	0.0008168	121.531000137
1510.0	0.0008165	121.578000069
1510.0	0.0008163	121.608999968
1510.0	0.0008165	121.656000137
1510.0	0.0008168	121.703000069
1510.0	0.0008168	121.733999968
1510.0	0.0008168	121.781000137
1510.0	0.0008168	121.828000069
1510.0	0.0008168	121.858999968
1510.0	0.0008168	121.906000137
1510.0	0.0008168	121.953000069
1510.0	0.0008173	121.983999968
1510.0	0.0008173	122.031000137
1510.0	0.0008173	122.078000069
1510.0	0.0008173	122.108999968
1510.0	0.0008173	122.156000137
1510.0	0.0008168	122.187000036
1510.0	0.0008165	122.233999968
1510.0	0.0008163	122.281000137
1510.0	0.0008163	122.312000036
1510.0	0.0008163	122.358999968
1520.0	0.0008163	122.625
1520.0	0.000816	122.671999931
1520.0	0.0008163	122.703000069
1520.0	0.0008163	122.75
1520.0	0.000816	122.796999931
1520.0	0.000816	122.828000069
1520.0	0.000816	122.875
1520.0	0.000816	122.921999931
1520.0	0.0008155	122.953000069
1520.0	0.000816	123.0
1520.0	0.000816	123.046999931
1520.0	0.0008155	123.078000069
1520.0	0.0008155	123.125
1520.0	0.0008155	123.156000137
1520.0	0.000816	123.203000069
1520.0	0.0008155	123.25
1520.0	0.0008155	123.281000137
1520.0	0.0008155	123.328000069
1520.0	0.000816	123.375
1520.0	0.000816	123.406000137
1520.0	0.0008163	123.453000069
1520.0	0.0008163	123.483999968
1520.0	0.000816	123.531000137
1520.0	0.0008155	123.578000069
1520.0	0.0008155	123.608999968
1520.0	0.0008155	123.656000137
1520.0	0.0008155	123.703000069
1520.0	0.0008155	123.733999968
1520.0	0.000816	123.781000137
1520.0	0.000816	123.828000069
1520.0	0.0008155	123.858999968
1520.0	0.0008155	123.906000137
1520.0	0.0008153	123.937000036
1520.0	0.0008153	123.983999968
1520.0	0.0008155	124.031000137
1520.0	0.000816	124.062000036
1520.0	0.0008163	124.108999968
1530.0	0.0008148	124.375
1530.0	0.0008138	124.421999931
1530.0	0.0008128	124.469000101
1530.0	0.0008123	124.5
1530.0	0.0008115	124.546999931
1530.0	0.000811	124.594000101
1530.0	0.0008105	124.625
1530.0	0.0008105	124.671999931
1530.0	0.0008105	124.719000101
1530.0	0.0008105	124.75
1530.0	0.000811	124.796999931
1530.0	0.000811	124.828000069
1530.0	0.000811	124.875
1530.0	0.000811	124.921999931
1530.0	0.000811	124.953000069
1530.0	0.0008103	125.0
1530.0	0.00081	125.046999931
1530.0	0.00081	125.078000069
1530.0	0.00081	125.125
1530.0	0.0008098	125.156000137
1530.0	0.0008093	125.203000069
1530.0	0.000809	125.25
1530.0	0.000809	125.281000137
1530.0	0.000809	125.328000069
1530.0	0.000809	125.375
1530.0	0.000809	125.406000137
1530.0	0.000809	125.453000069
1530.0	0.000809	125.483999968
1530.0	0.000809	125.531000137
1530.0	0.000809	125.578000069
1530.0	0.000809	125.608999968
1530.0	0.000809	125.656000137
1530.0	0.0008093	125.703000069
1530.0	0.0008098	125.733999968
1530.0	0.0008098	125.781000137
1530.0	0.0008098	125.828000069
1530.0	0.0008098	125.858999968
1540.0	0.0008068	126.140000105
1540.0	0.0008053	126.171999931
1540.0	0.000804	126.219000101
1540.0	0.0008028	126.265000105
1540.0	0.0008023	126.296999931
1540.0	0.0008015	126.344000101
1540.0	0.0008013	126.390000105
1540.0	0.0008005	126.421999931
1540.0	0.0008003	126.469000101
1540.0	0.0008003	126.5
1540.0	0.0008003	126.546999931
1540.0	0.0008	126.594000101
1540.0	0.0008	126.625
1540.0	0.0008	126.671999931
1540.0	0.0007998	126.719000101
1540.0	0.0007998	126.75
1540.0	0.0007998	126.796999931
1540.0	0.0007998	126.828000069
1540.0	0.0007998	126.875
1540.0	0.0008	126.921999931
1540.0	0.0008	126.953000069
1540.0	0.0008	127.0
1540.0	0.0008	127.046999931
1540.0	0.0007998	127.078000069
1540.0	0.0007998	127.125
1540.0	0.0008	127.156000137
1540.0	0.0008	127.203000069
1540.0	0.0008	127.25
1540.0	0.0008003	127.281000137
1540.0	0.0008003	127.328000069
1540.0	0.0008003	127.375
1540.0	0.0008	127.406000137
1540.0	0.0007998	127.453000069
1540.0	0.0007998	127.5
1540.0	0.0007998	127.531000137
1540.0	0.0007998	127.578000069
1540.0	0.0007998	127.608999968
1550.0	0.0007935	127.890000105
1550.0	0.0007915	127.937000036
1550.0	0.00079	127.969000101
1550.0	0.0007888	128.015000105
1550.0	0.0007875	128.046999931
1550.0	0.0007863	128.094000101
1550.0	0.0007853	128.140000105
1550.0	0.0007853	128.171999931
1550.0	0.0007848	128.219000101
1550.0	0.0007848	128.265000105
1550.0	0.0007843	128.296999931
1550.0	0.0007843	128.344000101
1550.0	0.000784	128.375
1550.0	0.0007838	128.421999931
1550.0	0.0007835	128.469000101
1550.0	0.0007838	128.5
1550.0	0.000784	128.546999931
1550.0	0.0007843	128.594000101
1550.0	0.0007843	128.625
1550.0	0.000784	128.671999931
1550.0	0.000784	128.719000101
1550.0	0.000784	128.75
1550.0	0.0007838	128.796999931
1550.0	0.0007838	128.828000069
1550.0	0.000784	128.875
1550.0	0.0007843	128.921999931
1550.0	0.0007848	128.953000069
1550.0	0.0007848	129.0
1550.0	0.0007848	129.046999931
1550.0	0.0007848	129.078000069
1550.0	0.0007848	129.125
1550.0	0.0007848	129.156000137
1550.0	0.0007848	129.203000069
1550.0	0.000784	129.25
1550.0	0.000784	129.281000137
1550.0	0.000784	129.328000069
1550.0	0.000784	129.375
1560.0	0.0007765	129.640000105
1560.0	0.0007738	129.687000036
1560.0	0.000771	129.719000101
1560.0	0.000769	129.765000105
1560.0	0.0007678	129.812000036
1560.0	0.0007668	129.844000101
1560.0	0.0007663	129.890000105
1560.0	0.0007655	129.937000036
1560.0	0.000765	129.969000101
1560.0	0.0007643	130.015000105
1560.0	0.0007638	130.046999931
1560.0	0.000763	130.094000101
1560.0	0.000763	130.140000105
1560.0	0.000763	130.171999931
1560.0	0.000763	130.219000101
1560.0	0.000763	130.265000105
1560.0	0.0007635	130.296999931
1560.0	0.000763	130.344000101
1560.0	0.000763	130.390000105
1560.0	0.0007625	130.421999931
1560.0	0.0007623	130.469000101
1560.0	0.0007625	130.5
1560.0	0.0007625	130.546999931
1560.0	0.0007628	130.594000101
1560.0	0.0007628	130.625
1560.0	0.0007628	130.671999931
1560.0	0.0007628	130.719000101
1560.0	0.0007628	130.75
1560.0	0.0007628	130.796999931
1560.0	0.0007625	130.828000069
1560.0	0.0007625	130.875
1560.0	0.0007628	130.921999931
1560.0	0.0007628	130.953000069
1560.0	0.0007635	131.0
1560.0	0.000763	131.046999931
1560.0	0.0007628	131.078000069
1560.0	0.0007625	131.125
1570.0	0.0007528	131.390000105
1570.0	0.0007493	131.437000036
1570.0	0.0007465	131.469000101
1570.0	0.000744	131.515000105
1570.0	0.0007418	131.562000036
1570.0	0.0007403	131.594000101
1570.0	0.000739	131.640000105
1570.0	0.0007378	131.687000036
1570.0	0.0007373	131.719000101
1570.0	0.0007365	131.765000105
1570.0	0.0007365	131.796999931
1570.0	0.0007363	131.844000101
1570.0	0.0007363	131.890000105
1570.0	0.000736	131.921999931
1570.0	0.000736	131.969000101
1570.0	0.000736	132.015000105
1570.0	0.000736	132.046999931
1570.0	0.000736	132.094000101
1570.0	0.0007355	132.140000105
1570.0	0.0007353	132.171999931
1570.0	0.000735	132.219000101
1570.0	0.0007348	132.25
1570.0	0.000735	132.296999931
1570.0	0.0007353	132.344000101
1570.0	0.0007353	132.375
1570.0	0.000735	132.421999931
1570.0	0.0007353	132.469000101
1570.0	0.000735	132.5
1570.0	0.000735	132.546999931
1570.0	0.000735	132.578000069
1570.0	0.000735	132.625
1570.0	0.0007348	132.671999931
1570.0	0.0007348	132.719000101
1570.0	0.000734	132.75
1570.0	0.000734	132.796999931
1570.0	0.000734	132.828000069
1570.0	0.000734	132.875
1580.0	0.000723	133.140000105
1580.0	0.0007188	133.187000036
1580.0	0.0007153	133.233999968
1580.0	0.0007125	133.265000105
1580.0	0.0007105	133.312000036
1580.0	0.0007085	133.358999968
1580.0	0.0007068	133.390000105
1580.0	0.0007055	133.437000036
1580.0	0.0007048	133.469000101
1580.0	0.000704	133.515000105
1580.0	0.0007035	133.562000036
1580.0	0.0007028	133.594000101
1580.0	0.0007025	133.640000105
1580.0	0.0007028	133.687000036
1580.0	0.0007028	133.719000101
1580.0	0.0007028	133.765000105
1580.0	0.0007028	133.796999931
1580.0	0.0007025	133.844000101
1580.0	0.0007025	133.890000105
1580.0	0.0007023	133.921999931
1580.0	0.0007018	133.969000101
1580.0	0.0007018	134.015000105
1580.0	0.0007023	134.062000036
1580.0	0.0007025	134.094000101
1580.0	0.0007028	134.140000105
1580.0	0.0007028	134.171999931
1580.0	0.000703	134.219000101
1580.0	0.000703	134.265000105
1580.0	0.0007028	134.296999931
1580.0	0.0007025	134.344000101
1580.0	0.0007023	134.390000105
1580.0	0.0007023	134.421999931
1580.0	0.0007023	134.469000101
1580.0	0.0007023	134.5
1580.0	0.0007023	134.546999931
1580.0	0.0007023	134.594000101
1580.0	0.0007023	134.625
1590.0	0.000689	134.906000137
1590.0	0.0006843	134.953000069
1590.0	0.0006803	134.983999968
1590.0	0.0006768	135.031000137
1590.0	0.000674	135.062000036
1590.0	0.0006723	135.108999968
1590.0	0.0006703	135.156000137
1590.0	0.000669	135.187000036
1590.0	0.0006685	135.233999968
1590.0	0.0006675	135.281000137
1590.0	0.0006673	135.312000036
1590.0	0.0006668	135.358999968
1590.0	0.0006663	135.390000105
1590.0	0.000666	135.437000036
1590.0	0.000666	135.483999968
1590.0	0.000666	135.515000105
1590.0	0.0006663	135.562000036
1590.0	0.0006665	135.608999968
1590.0	0.0006673	135.640000105
1590.0	0.0006675	135.687000036
1590.0	0.0006673	135.719000101
1590.0	0.0006675	135.765000105
1590.0	0.0006675	135.812000036
1590.0	0.0006675	135.844000101
1590.0	0.0006678	135.890000105
1590.0	0.0006678	135.937000036
1590.0	0.0006678	135.969000101
1590.0	0.0006685	136.015000105
1590.0	0.0006685	136.062000036
1590.0	0.000668	136.094000101
1590.0	0.000668	136.140000105
1590.0	0.000668	136.171999931
1590.0	0.0006685	136.219000101
1590.0	0.000668	136.265000105
1590.0	0.0006678	136.296999931
1590.0	0.0006678	136.344000101
1590.0	0.000668	136.390000105
1600.0	0.0006528	136.656000137
1600.0	0.0006475	136.703000069
1600.0	0.000643	136.733999968
1600.0	0.0006398	136.781000137
1600.0	0.000637	136.828000069
1600.0	0.0006343	136.858999968
1600.0	0.0006328	136.906000137
1600.0	0.0006315	136.953000069
1600.0	0.0006305	136.983999968
1600.0	0.00063	137.031000137
1600.0	0.0006293	137.078000069
1600.0	0.0006293	137.108999968
1600.0	0.0006293	137.156000137
1600.0	0.0006293	137.203000069
1600.0	0.0006293	137.233999968
1600.0	0.000629	137.281000137
1600.0	0.000629	137.328000069
1600.0	0.000629	137.358999968
1600.0	0.000629	137.406000137
1600.0	0.0006288	137.437000036
1600.0	0.0006288	137.483999968
1600.0	0.0006288	137.531000137
1600.0	0.000629	137.562000036
1600.0	0.0006288	137.608999968
1600.0	0.0006288	137.640000105
1600.0	0.0006288	137.687000036
1600.0	0.000629	137.733999968
1600.0	0.0006293	137.781000137
1600.0	0.0006293	137.812000036
1600.0	0.000629	137.858999968
1600.0	0.000629	137.906000137
1600.0	0.000629	137.937000036
1600.0	0.0006288	137.983999968
1600.0	0.0006288	138.015000105
1600.0	0.0006288	138.062000036
1600.0	0.0006288	138.108999968
1610.0	0.0006128	138.390000105
1610.0	0.0006068	138.421999931
1610.0	0.0006018	138.469000101
1610.0	0.0005978	138.5
1610.0	0.0005945	138.546999931
1610.0	0.000592	138.594000101
1610.0	0.00059	138.625
1610.0	0.0005888	138.671999931
1610.0	0.000588	138.719000101
1610.0	0.000587	138.75
1610.0	0.0005865	138.796999931
1610.0	0.0005863	138.828000069
1610.0	0.0005855	138.875
1610.0	0.000585	138.921999931
1610.0	0.0005845	138.953000069
1610.0	0.0005845	139.0
1610.0	0.0005845	139.046999931
1610.0	0.0005845	139.078000069
1610.0	0.0005845	139.125
1610.0	0.0005845	139.171999931
1610.0	0.0005843	139.203000069
1610.0	0.0005843	139.25
1610.0	0.0005845	139.281000137
1610.0	0.000585	139.328000069
1610.0	0.000585	139.375
1610.0	0.000585	139.406000137
1610.0	0.000585	139.453000069
1610.0	0.000585	139.5
1610.0	0.0005845	139.531000137
1610.0	0.0005843	139.578000069
1610.0	0.000584	139.625
1610.0	0.000584	139.656000137
1610.0	0.0005838	139.703000069
1610.0	0.0005838	139.75
1610.0	0.0005833	139.781000137
1610.0	0.0005833	139.828000069
1610.0	0.000583	139.858999968
1620.0	0.0005653	140.140000105
1620.0	0.0005588	140.187000036
1620.0	0.0005533	140.233999968
1620.0	0.0005493	140.265000105
1620.0	0.0005463	140.312000036
1620.0	0.0005438	140.344000101
1620.0	0.0005418	140.390000105
1620.0	0.0005405	140.437000036
1620.0	0.0005393	140.469000101
1620.0	0.0005383	140.515000105
1620.0	0.000538	140.562000036
1620.0	0.000537	140.594000101
1620.0	0.0005368	140.640000105
1620.0	0.0005363	140.671999931
1620.0	0.0005363	140.719000101
1620.0	0.0005368	140.765000105
1620.0	0.000537	140.796999931
1620.0	0.0005375	140.844000101
1620.0	0.0005368	140.890000105
1620.0	0.0005365	140.937000036
1620.0	0.0005365	140.969000101
1620.0	0.0005363	141.015000105
1620.0	0.0005358	141.046999931
1620.0	0.0005358	141.094000101
1620.0	0.0005355	141.140000105
1620.0	0.0005358	141.171999931
1620.0	0.0005358	141.219000101
1620.0	0.0005358	141.265000105
1620.0	0.0005363	141.296999931
1620.0	0.0005363	141.344000101
1620.0	0.0005363	141.375
1620.0	0.0005365	141.421999931
1620.0	0.0005365	141.469000101
1620.0	0.0005365	141.515000105
1620.0	0.0005368	141.546999931
1620.0	0.0005368	141.594000101
1620.0	0.000537	141.640000105
1630.0	0.0005183	141.906000137
1630.0	0.0005125	141.953000069
1630.0	0.0005075	142.0
1630.0	0.0005028	142.031000137
1630.0	0.000499	142.078000069
1630.0	0.0004963	142.125
1630.0	0.000494	142.156000137
1630.0	0.0004925	142.203000069
1630.0	0.0004913	142.233999968
1630.0	0.0004905	142.281000137
1630.0	0.0004903	142.328000069
1630.0	0.00049	142.358999968
1630.0	0.0004895	142.406000137
1630.0	0.00049	142.453000069
1630.0	0.00049	142.483999968
1630.0	0.0004903	142.531000137
1630.0	0.00049	142.562000036
1630.0	0.00049	142.608999968
1630.0	0.0004903	142.656000137
1630.0	0.0004903	142.687000036
1630.0	0.00049	142.733999968
1630.0	0.00049	142.781000137
1630.0	0.0004903	142.812000036
1630.0	0.0004903	142.858999968
1630.0	0.0004905	142.890000105
1630.0	0.0004903	142.937000036
1630.0	0.0004903	142.983999968
1630.0	0.0004903	143.015000105
1630.0	0.0004905	143.062000036
1630.0	0.0004905	143.108999968
1630.0	0.0004903	143.140000105
1630.0	0.00049	143.187000036
1630.0	0.00049	143.219000101
1630.0	0.00049	143.265000105
1630.0	0.00049	143.312000036
1630.0	0.0004895	143.344000101
1630.0	0.0004895	143.390000105
1640.0	0.0004718	143.671999931
1640.0	0.0004655	143.719000101
1640.0	0.0004605	143.75
1640.0	0.0004565	143.796999931
1640.0	0.0004533	143.844000101
1640.0	0.0004508	143.875
1640.0	0.0004488	143.921999931
1640.0	0.000447	143.969000101
1640.0	0.0004463	144.0
1640.0	0.0004453	144.046999931
1640.0	0.0004445	144.078000069
1640.0	0.0004443	144.125
1640.0	0.000444	144.171999931
1640.0	0.0004438	144.203000069
1640.0	0.0004438	144.25
1640.0	0.0004438	144.296999931
1640.0	0.0004438	144.328000069
1640.0	0.000444	144.375
1640.0	0.000444	144.406000137
1640.0	0.0004443	144.453000069
1640.0	0.0004443	144.5
1640.0	0.0004445	144.531000137
1640.0	0.0004443	144.578000069
1640.0	0.000444	144.625
1640.0	0.0004438	144.656000137
1640.0	0.0004438	144.703000069
1640.0	0.0004438	144.75
1640.0	0.0004438	144.781000137
1640.0	0.0004433	144.828000069
1640.0	0.000443	144.858999968
1640.0	0.0004433	144.906000137
1640.0	0.0004438	144.953000069
1640.0	0.0004438	144.983999968
1640.0	0.0004438	145.031000137
1640.0	0.0004438	145.078000069
1640.0	0.0004438	145.108999968
1640.0	0.0004438	145.156000137
1650.0	0.0004253	145.437000036
1650.0	0.000419	145.483999968
1650.0	0.0004143	145.515000105
1650.0	0.0004103	145.562000036
1650.0	0.0004068	145.594000101
1650.0	0.0004045	145.640000105
1650.0	0.0004028	145.687000036
1650.0	0.0004013	145.719000101
1650.0	0.0004005	145.765000105
1650.0	0.0003995	145.812000036
1650.0	0.000399	145.844000101
1650.0	0.000399	145.890000105
1650.0	0.0003988	145.921999931
1650.0	0.0003983	145.969000101
1650.0	0.0003983	146.015000105
1650.0	0.000398	146.046999931
1650.0	0.000398	146.094000101
1650.0	0.0003978	146.140000105
1650.0	0.0003978	146.171999931
1650.0	0.0003975	146.219000101
1650.0	0.000397	146.25
1650.0	0.0003968	146.296999931
1650.0	0.0003965	146.344000101
1650.0	0.0003963	146.375
1650.0	0.0003963	146.421999931
1650.0	0.0003965	146.469000101
1650.0	0.0003965	146.5
1650.0	0.0003963	146.546999931
1650.0	0.0003963	146.594000101
1650.0	0.0003965	146.625
1650.0	0.0003963	146.671999931
1650.0	0.0003963	146.719000101
1650.0	0.0003963	146.75
1650.0	0.0003965	146.796999931
1650.0	0.0003965	146.844000101
1650.0	0.0003963	146.875
1650.0	0.0003963	146.921999931
1660.0	0.0003795	147.203000069
1660.0	0.0003745	147.233999968
1660.0	0.00037	147.281000137
1660.0	0.0003658	147.328000069
1660.0	0.0003628	147.358999968
1660.0	0.0003603	147.406000137
1660.0	0.0003588	147.437000036
1660.0	0.0003575	147.483999968
1660.0	0.0003565	147.531000137
1660.0	0.0003558	147.562000036
1660.0	0.0003553	147.608999968
1660.0	0.0003545	147.656000137
1660.0	0.0003543	147.687000036
1660.0	0.0003543	147.733999968
1660.0	0.0003543	147.765000105
1660.0	0.000354	147.812000036
1660.0	0.000354	147.858999968
1660.0	0.0003538	147.890000105
1660.0	0.0003538	147.937000036
1660.0	0.0003538	147.983999968
1660.0	0.0003538	148.015000105
1660.0	0.0003538	148.062000036
1660.0	0.000353	148.094000101
1660.0	0.0003533	148.140000105
1660.0	0.000353	148.187000036
1660.0	0.000353	148.219000101
1660.0	0.000353	148.265000105
1660.0	0.000353	148.312000036
1660.0	0.000353	148.344000101
1660.0	0.000353	148.390000105
1660.0	0.0003533	148.437000036
1660.0	0.0003538	148.469000101
1660.0	0.0003543	148.515000105
1660.0	0.000354	148.546999931
1660.0	0.0003538	148.594000101
1660.0	0.0003533	148.640000105
1660.0	0.0003533	148.671999931
1670.0	0.0003378	148.969000101
1670.0	0.0003325	149.0
1670.0	0.0003288	149.046999931
1670.0	0.0003253	149.094000101
1670.0	0.0003228	149.125
1670.0	0.0003208	149.171999931
1670.0	0.000319	149.203000069
1670.0	0.000318	149.25
1670.0	0.000317	149.296999931
1670.0	0.0003165	149.328000069
1670.0	0.0003163	149.375
1670.0	0.0003158	149.421999931
1670.0	0.0003158	149.453000069
1670.0	0.0003158	149.5
1670.0	0.0003155	149.531000137
1670.0	0.0003155	149.578000069
1670.0	0.0003158	149.625
1670.0	0.0003158	149.656000137
1670.0	0.0003163	149.703000069
1670.0	0.0003163	149.75
1670.0	0.0003165	149.796999931
1670.0	0.0003168	149.828000069
1670.0	0.0003168	149.875
1670.0	0.0003165	149.906000137
1670.0	0.0003168	149.953000069
1670.0	0.0003165	150.0
1670.0	0.0003163	150.031000137
1670.0	0.0003163	150.078000069
1670.0	0.0003163	150.125
1670.0	0.0003165	150.156000137
1670.0	0.0003168	150.203000069
1670.0	0.0003168	150.233999968
1670.0	0.000317	150.281000137
1670.0	0.000317	150.328000069
1670.0	0.0003165	150.358999968
1670.0	0.0003163	150.406000137
1670.0	0.0003165	150.453000069
1680.0	0.0003038	150.733999968
1680.0	0.0002993	150.781000137
1680.0	0.0002963	150.812000036
1680.0	0.0002938	150.858999968
1680.0	0.0002915	150.890000105
1680.0	0.0002895	150.937000036
1680.0	0.0002883	150.983999968
1680.0	0.000287	151.015000105
1680.0	0.0002865	151.062000036
1680.0	0.0002863	151.108999968
1680.0	0.0002858	151.140000105
1680.0	0.0002858	151.187000036
1680.0	0.0002855	151.233999968
1680.0	0.000285	151.265000105
1680.0	0.0002845	151.312000036
1680.0	0.0002843	151.344000101
1680.0	0.0002843	151.390000105
1680.0	0.000284	151.437000036
1680.0	0.0002833	151.469000101
1680.0	0.0002833	151.515000105
1680.0	0.000283	151.562000036
1680.0	0.000283	151.594000101
1680.0	0.000283	151.640000105
1680.0	0.0002833	151.671999931
1680.0	0.0002833	151.719000101
1680.0	0.0002838	151.765000105
1680.0	0.000284	151.796999931
1680.0	0.0002845	151.844000101
1680.0	0.0002845	151.890000105
1680.0	0.0002853	151.921999931
1680.0	0.0002855	151.969000101
1680.0	0.0002855	152.015000105
1680.0	0.0002855	152.046999931
1680.0	0.0002855	152.094000101
1680.0	0.0002853	152.140000105
1680.0	0.0002853	152.171999931
1680.0	0.0002853	152.219000101
1690.0	0.0002718	152.5
1690.0	0.0002678	152.546999931
1690.0	0.0002645	152.594000101
1690.0	0.000262	152.625
1690.0	0.0002603	152.671999931
1690.0	0.0002588	152.703000069
1690.0	0.0002575	152.75
1690.0	0.0002563	152.796999931
1690.0	0.0002555	152.828000069
1690.0	0.0002553	152.875
1690.0	0.0002545	152.921999931
1690.0	0.0002545	152.953000069
1690.0	0.0002543	153.0
1690.0	0.0002543	153.031000137
1690.0	0.000254	153.078000069
1690.0	0.0002538	153.125
1690.0	0.0002538	153.156000137
1690.0	0.000254	153.203000069
1690.0	0.000254	153.25
1690.0	0.0002538	153.281000137
1690.0	0.0002538	153.328000069
1690.0	0.0002533	153.375
1690.0	0.000253	153.406000137
1690.0	0.000253	153.453000069
1690.0	0.0002525	153.483999968
1690.0	0.0002525	153.531000137
1690.0	0.0002525	153.578000069
1690.0	0.0002525	153.608999968
1690.0	0.0002528	153.656000137
1690.0	0.0002528	153.703000069
1690.0	0.0002528	153.733999968
1690.0	0.0002528	153.781000137
1690.0	0.0002528	153.812000036
1690.0	0.0002528	153.858999968
1690.0	0.000253	153.906000137
1690.0	0.000253	153.937000036
1690.0	0.0002533	153.983999968
1700.0	0.0002413	154.265000105
1700.0	0.0002378	154.312000036
1700.0	0.0002345	154.358999968
1700.0	0.000232	154.390000105
1700.0	0.0002305	154.437000036
1700.0	0.000229	154.483999968
1700.0	0.000228	154.515000105
1700.0	0.0002275	154.562000036
1700.0	0.0002268	154.608999968
1700.0	0.0002263	154.640000105
1700.0	0.0002263	154.687000036
1700.0	0.0002263	154.719000101
1700.0	0.0002263	154.765000105
1700.0	0.0002263	154.812000036
1700.0	0.0002263	154.844000101
1700.0	0.0002263	154.890000105
1700.0	0.0002263	154.937000036
1700.0	0.0002258	154.969000101
1700.0	0.0002255	155.015000105
1700.0	0.000225	155.062000036
1700.0	0.000225	155.094000101
1700.0	0.000225	155.140000105
1700.0	0.0002245	155.171999931
1700.0	0.0002245	155.219000101
1700.0	0.0002245	155.265000105
1700.0	0.000225	155.296999931
1700.0	0.0002253	155.344000101
1700.0	0.0002253	155.390000105
1700.0	0.0002255	155.421999931
1700.0	0.0002255	155.469000101
1700.0	0.0002258	155.5
1700.0	0.0002255	155.546999931
1700.0	0.0002258	155.594000101
1700.0	0.0002255	155.625
1700.0	0.0002255	155.671999931
1700.0	0.0002255	155.719000101
1700.0	0.0002255	155.75
1710.0	0.0002155	156.046999931
1710.0	0.0002125	156.078000069
1710.0	0.0002103	156.125
1710.0	0.0002083	156.171999931
1710.0	0.000207	156.203000069
1710.0	0.0002063	156.25
1710.0	0.0002055	156.281000137
1710.0	0.0002045	156.328000069
1710.0	0.0002038	156.375
1710.0	0.000203	156.406000137
1710.0	0.0002025	156.453000069
1710.0	0.0002025	156.5
1710.0	0.000202	156.531000137
1710.0	0.000202	156.578000069
1710.0	0.0002018	156.608999968
1710.0	0.0002018	156.656000137
1710.0	0.0002015	156.703000069
1710.0	0.0002015	156.733999968
1710.0	0.0002018	156.781000137
1710.0	0.000202	156.828000069
1710.0	0.0002025	156.858999968
1710.0	0.000203	156.906000137
1710.0	0.0002028	156.937000036
1710.0	0.000203	156.983999968
1710.0	0.0002033	157.031000137
1710.0	0.000204	157.062000036
1710.0	0.000204	157.108999968
1710.0	0.000204	157.156000137
1710.0	0.0002038	157.187000036
1710.0	0.0002038	157.233999968
1710.0	0.0002038	157.265000105
1710.0	0.0002038	157.312000036
1710.0	0.0002038	157.358999968
1710.0	0.0002033	157.390000105
1710.0	0.0002033	157.437000036
1710.0	0.0002033	157.483999968
1710.0	0.000203	157.515000105
1720.0	0.000194	157.812000036
1720.0	0.0001915	157.844000101
1720.0	0.0001893	157.890000105
1720.0	0.000188	157.937000036
1720.0	0.0001868	157.969000101
1720.0	0.0001858	158.015000105
1720.0	0.000185	158.046999931
1720.0	0.0001843	158.094000101
1720.0	0.0001843	158.140000105
1720.0	0.000184	158.171999931
1720.0	0.000184	158.219000101
1720.0	0.0001838	158.265000105
1720.0	0.0001833	158.296999931
1720.0	0.000183	158.344000101
1720.0	0.0001833	158.375
1720.0	0.0001833	158.421999931
1720.0	0.000183	158.469000101
1720.0	0.000183	158.5
1720.0	0.000183	158.546999931
1720.0	0.0001833	158.594000101
1720.0	0.000183	158.625
1720.0	0.0001833	158.671999931
1720.0	0.0001838	158.703000069
1720.0	0.0001838	158.75
1720.0	0.0001833	158.796999931
1720.0	0.000183	158.828000069
1720.0	0.000183	158.875
1720.0	0.0001833	158.921999931
1720.0	0.000183	158.953000069
1720.0	0.0001828	159.0
1720.0	0.0001828	159.046999931
1720.0	0.0001828	159.078000069
1720.0	0.0001828	159.125
1720.0	0.000183	159.156000137
1720.0	0.000183	159.203000069
1720.0	0.000183	159.25
1720.0	0.000183	159.281000137
1730.0	0.0001755	159.578000069
1730.0	0.000173	159.625
1730.0	0.0001715	159.656000137
1730.0	0.0001703	159.703000069
1730.0	0.0001693	159.75
1730.0	0.0001688	159.781000137
1730.0	0.000168	159.828000069
1730.0	0.000167	159.858999968
1730.0	0.0001668	159.906000137
1730.0	0.0001665	159.953000069
1730.0	0.0001668	159.983999968
1730.0	0.0001668	160.031000137
1730.0	0.0001668	160.078000069
1730.0	0.0001668	160.108999968
1730.0	0.0001665	160.156000137
1730.0	0.0001665	160.187000036
1730.0	0.0001658	160.233999968
1730.0	0.0001658	160.281000137
1730.0	0.0001658	160.312000036
1730.0	0.0001655	160.358999968
1730.0	0.0001655	160.390000105
1730.0	0.0001655	160.437000036
1730.0	0.0001658	160.483999968
1730.0	0.0001663	160.515000105
1730.0	0.0001663	160.562000036
1730.0	0.0001665	160.608999968
1730.0	0.0001668	160.656000137
1730.0	0.0001665	160.687000036
1730.0	0.0001668	160.733999968
1730.0	0.0001665	160.765000105
1730.0	0.0001665	160.812000036
1730.0	0.0001665	160.858999968
1730.0	0.0001665	160.890000105
1730.0	0.0001665	160.937000036
1730.0	0.0001665	160.983999968
1730.0	0.0001663	161.015000105
1730.0	0.0001658	161.062000036
1740.0	0.000158	161.344000101
1740.0	0.0001563	161.390000105
1740.0	0.0001543	161.437000036
1740.0	0.000153	161.469000101
1740.0	0.000152	161.515000105
1740.0	0.0001515	161.562000036
1740.0	0.0001513	161.594000101
1740.0	0.0001508	161.640000105
1740.0	0.0001508	161.687000036
1740.0	0.0001505	161.719000101
1740.0	0.0001505	161.765000105
1740.0	0.00015	161.796999931
1740.0	0.0001495	161.844000101
1740.0	0.0001493	161.890000105
1740.0	0.0001493	161.921999931
1740.0	0.0001493	161.969000101
1740.0	0.0001493	162.015000105
1740.0	0.0001495	162.046999931
1740.0	0.0001495	162.094000101
1740.0	0.0001493	162.125
1740.0	0.0001493	162.171999931
1740.0	0.0001493	162.219000101
1740.0	0.0001493	162.25
1740.0	0.0001493	162.296999931
1740.0	0.0001495	162.344000101
1740.0	0.0001495	162.375
1740.0	0.0001493	162.421999931
1740.0	0.000149	162.469000101
1740.0	0.000149	162.5
1740.0	0.0001493	162.546999931
1740.0	0.0001493	162.578000069
1740.0	0.0001493	162.625
1740.0	0.0001493	162.671999931
1740.0	0.0001493	162.703000069
1740.0	0.0001493	162.75
1740.0	0.0001493	162.796999931
1740.0	0.0001493	162.828000069
1750.0	0.000143	163.125
1750.0	0.0001415	163.171999931
1750.0	0.00014	163.219000101
1750.0	0.0001388	163.25
1750.0	0.000138	163.296999931
1750.0	0.0001375	163.328000069
1750.0	0.000137	163.375
1750.0	0.0001368	163.421999931
1750.0	0.0001365	163.453000069
1750.0	0.0001358	163.5
1750.0	0.0001355	163.546999931
1750.0	0.0001355	163.578000069
1750.0	0.0001355	163.625
1750.0	0.0001355	163.671999931
1750.0	0.0001355	163.703000069
1750.0	0.0001353	163.75
1750.0	0.000135	163.781000137
1750.0	0.0001345	163.828000069
1750.0	0.0001345	163.875
1750.0	0.0001345	163.906000137
1750.0	0.0001345	163.953000069
1750.0	0.0001343	164.0
1750.0	0.0001343	164.031000137
1750.0	0.0001343	164.078000069
1750.0	0.0001343	164.108999968
1750.0	0.0001343	164.156000137
1750.0	0.0001345	164.203000069
1750.0	0.0001345	164.233999968
1750.0	0.0001345	164.281000137
1750.0	0.0001345	164.328000069
1750.0	0.0001345	164.358999968
1750.0	0.0001345	164.406000137
1750.0	0.0001345	164.437000036
1750.0	0.0001343	164.483999968
1750.0	0.0001343	164.531000137
1750.0	0.0001343	164.562000036
1750.0	0.0001345	164.608999968
1760.0	0.0001283	164.906000137
1760.0	0.0001263	164.953000069
1760.0	0.0001243	164.983999968
1760.0	0.000123	165.031000137
1760.0	0.000122	165.078000069
1760.0	0.0001213	165.108999968
1760.0	0.0001208	165.156000137
1760.0	0.0001205	165.203000069
1760.0	0.00012	165.233999968
1760.0	0.00012	165.281000137
1760.0	0.00012	165.312000036
1760.0	0.00012	165.358999968
1760.0	0.00012	165.406000137
1760.0	0.00012	165.437000036
1760.0	0.0001203	165.483999968
1760.0	0.0001203	165.531000137
1760.0	0.0001203	165.562000036
1760.0	0.0001203	165.608999968
1760.0	0.0001203	165.640000105
1760.0	0.0001203	165.687000036
1760.0	0.00012	165.733999968
1760.0	0.0001203	165.765000105
1760.0	0.00012	165.812000036
1760.0	0.0001203	165.858999968
1760.0	0.0001203	165.890000105
1760.0	0.0001205	165.937000036
1760.0	0.0001205	165.969000101
1760.0	0.0001205	166.015000105
1760.0	0.0001203	166.062000036
1760.0	0.00012	166.094000101
1760.0	0.0001195	166.140000105
1760.0	0.00012	166.187000036
1760.0	0.00012	166.219000101
1760.0	0.0001203	166.265000105
1760.0	0.0001203	166.312000036
1760.0	0.0001205	166.344000101
1760.0	0.0001205	166.390000105
1770.0	0.000114	166.703000069
1770.0	0.0001125	166.733999968
1770.0	0.0001113	166.781000137
1770.0	0.00011	166.812000036
1770.0	0.0001093	166.858999968
1770.0	0.0001083	166.906000137
1770.0	0.0001078	166.937000036
1770.0	0.0001075	166.983999968
1770.0	0.000107	167.015000105
1770.0	0.0001068	167.062000036
1770.0	0.0001068	167.108999968
1770.0	0.0001065	167.140000105
1770.0	0.0001065	167.187000036
1770.0	0.0001065	167.233999968
1770.0	0.0001063	167.265000105
1770.0	0.0001063	167.312000036
1770.0	0.0001063	167.358999968
1770.0	0.0001058	167.390000105
1770.0	0.0001058	167.437000036
1770.0	0.0001058	167.469000101
1770.0	0.0001058	167.515000105
1770.0	0.0001058	167.562000036
1770.0	0.0001063	167.594000101
1770.0	0.0001065	167.640000105
1770.0	0.0001068	167.687000036
1770.0	0.0001068	167.719000101
1770.0	0.0001068	167.765000105
1770.0	0.0001068	167.796999931
1770.0	0.0001068	167.844000101
1770.0	0.000107	167.890000105
1770.0	0.0001075	167.921999931
1770.0	0.000107	167.969000101
1770.0	0.0001068	168.015000105
1770.0	0.0001068	168.046999931
1770.0	0.0001068	168.094000101
1770.0	0.0001068	168.140000105
1770.0	0.0001068	168.171999931
1780.0	0.0001015	168.483999968
1780.0	9.95e-05	168.515000105
1780.0	9.83e-05	168.562000036
1780.0	9.75e-05	168.608999968
1780.0	9.65e-05	168.640000105
1780.0	9.58e-05	168.687000036
1780.0	9.58e-05	168.733999968
1780.0	9.53e-05	168.765000105
1780.0	9.45e-05	168.812000036
1780.0	9.45e-05	168.844000101
1780.0	9.45e-05	168.890000105
1780.0	9.43e-05	168.937000036
1780.0	9.4e-05	168.969000101
1780.0	9.43e-05	169.015000105
1780.0	9.4e-05	169.062000036
1780.0	9.38e-05	169.094000101
1780.0	9.33e-05	169.140000105
1780.0	9.3e-05	169.171999931
1780.0	9.3e-05	169.219000101
1780.0	9.3e-05	169.265000105
1780.0	9.3e-05	169.296999931
1780.0	9.3e-05	169.344000101
1780.0	9.3e-05	169.390000105
1780.0	9.3e-05	169.421999931
1780.0	9.33e-05	169.469000101
1780.0	9.33e-05	169.515000105
1780.0	9.33e-05	169.546999931
1780.0	9.38e-05	169.594000101
1780.0	9.38e-05	169.625
1780.0	9.33e-05	169.671999931
1780.0	9.3e-05	169.719000101
1780.0	9.33e-05	169.75
1780.0	9.33e-05	169.796999931
1780.0	9.33e-05	169.844000101
1780.0	9.33e-05	169.875
1780.0	9.38e-05	169.921999931
1780.0	9.4e-05	169.953000069
1790.0	8.95e-05	170.265000105
1790.0	8.8e-05	170.312000036
1790.0	8.68e-05	170.344000101
1790.0	8.63e-05	170.390000105
1790.0	8.53e-05	170.421999931
1790.0	8.43e-05	170.469000101
1790.0	8.38e-05	170.515000105
1790.0	8.3e-05	170.546999931
1790.0	8.28e-05	170.594000101
1790.0	8.25e-05	170.640000105
1790.0	8.25e-05	170.671999931
1790.0	8.25e-05	170.719000101
1790.0	8.25e-05	170.75
1790.0	8.28e-05	170.796999931
1790.0	8.28e-05	170.844000101
1790.0	8.28e-05	170.875
1790.0	8.28e-05	170.921999931
1790.0	8.28e-05	170.969000101
1790.0	8.3e-05	171.0
1790.0	8.3e-05	171.046999931
1790.0	8.3e-05	171.078000069
1790.0	8.3e-05	171.125
1790.0	8.28e-05	171.171999931
1790.0	8.28e-05	171.203000069
1790.0	8.28e-05	171.25
1790.0	8.3e-05	171.296999931
1790.0	8.3e-05	171.328000069
1790.0	8.3e-05	171.375
1790.0	8.3e-05	171.421999931
1790.0	8.33e-05	171.453000069
1790.0	8.38e-05	171.5
1790.0	8.38e-05	171.531000137
1790.0	8.33e-05	171.578000069
1790.0	8.3e-05	171.625
1790.0	8.28e-05	171.656000137
1790.0	8.28e-05	171.703000069
1790.0	8.25e-05	171.75
1800.0	7.8e-05	172.046999931
1800.0	7.63e-05	172.078000069
1800.0	7.5e-05	172.125
1800.0	7.4e-05	172.171999931
1800.0	7.33e-05	172.203000069
1800.0	7.3e-05	172.25
1800.0	7.3e-05	172.296999931
1800.0	7.28e-05	172.328000069
1800.0	7.28e-05	172.375
1800.0	7.28e-05	172.406000137
1800.0	7.25e-05	172.453000069
1800.0	7.25e-05	172.5
1800.0	7.25e-05	172.531000137
1800.0	7.25e-05	172.578000069
1800.0	7.25e-05	172.625
1800.0	7.25e-05	172.656000137
1800.0	7.25e-05	172.703000069
1800.0	7.25e-05	172.733999968
1800.0	7.28e-05	172.781000137
1800.0	7.25e-05	172.828000069
1800.0	7.2e-05	172.858999968
1800.0	7.25e-05	172.906000137
1800.0	7.25e-05	172.953000069
1800.0	7.25e-05	172.983999968
1800.0	7.2e-05	173.031000137
1800.0	7.2e-05	173.062000036
1800.0	7.18e-05	173.108999968
1800.0	7.2e-05	173.156000137
1800.0	7.2e-05	173.187000036
1800.0	7.2e-05	173.233999968
1800.0	7.25e-05	173.281000137
1800.0	7.25e-05	173.312000036
1800.0	7.25e-05	173.358999968
1800.0	7.25e-05	173.390000105
1800.0	7.25e-05	173.437000036
1800.0	7.28e-05	173.483999968
1800.0	7.3e-05	173.515000105
