Your edit line - do NOT delete this line
Wavelength [nm], Voltage [V], Elapsed time [s]
900.0	0.0664	14.0
900.0	0.0655	14.0310001373
900.0	0.0651	14.0780000687
900.0	0.06455	14.1100001335
900.0	0.06425	14.1560001373
900.0	0.06425	14.1879999638
900.0	0.06385	14.2190001011
900.0	0.0639	14.2660000324
900.0	0.06375	14.2970001698
900.0	0.0636	14.3280000687
900.0	0.06375	14.375
900.0	0.0635	14.4060001373
900.0	0.0635	14.4379999638
900.0	0.0636	14.4850001335
900.0	0.06355	14.5160000324
900.0	0.06355	14.5629999638
900.0	0.0635	14.5940001011
900.0	0.0636	14.6410000324
900.0	0.06375	14.6720001698
900.0	0.06355	14.7030000687
900.0	0.0636	14.75
900.0	0.0634	14.7810001373
900.0	0.06325	14.8129999638
900.0	0.0634	14.8600001335
900.0	0.06315	14.8910000324
900.0	0.06335	14.9220001698
900.0	0.0635	14.9690001011
900.0	0.0633	15.0
900.0	0.06335	15.0470001698
900.0	0.06325	15.0780000687
900.0	0.06315	15.1100001335
900.0	0.06325	15.1560001373
900.0	0.06315	15.1879999638
900.0	0.0634	15.2190001011
900.0	0.06325	15.2660000324
900.0	0.0631	15.2970001698
900.0	0.06335	15.3280000687
900.0	0.06315	15.375
900.0	0.0633	15.4060001373
900.0	0.06305	15.4530000687
900.0	0.063	15.4850001335
910.0	0.0646	15.7810001373
910.0	0.0651	15.8129999638
910.0	0.06525	15.8600001335
910.0	0.06565	15.8910000324
910.0	0.0659	15.9379999638
910.0	0.06605	15.9690001011
910.0	0.0664	16.0
910.0	0.06635	16.0470001698
910.0	0.06665	16.0780000687
910.0	0.06665	16.1100001335
910.0	0.06655	16.1560001373
910.0	0.0668	16.1879999638
910.0	0.0666	16.2350001335
910.0	0.06675	16.2660000324
910.0	0.0669	16.2970001698
910.0	0.06675	16.3440001011
910.0	0.06665	16.375
910.0	0.067	16.4220001698
910.0	0.06685	16.4530000687
910.0	0.067	16.4850001335
910.0	0.06675	16.5310001373
910.0	0.0669	16.5629999638
910.0	0.067	16.5940001011
910.0	0.06685	16.6410000324
910.0	0.06705	16.6720001698
910.0	0.06685	16.7190001011
910.0	0.0669	16.75
910.0	0.0671	16.7810001373
910.0	0.0668	16.8280000687
910.0	0.0668	16.8600001335
910.0	0.0666	16.8910000324
910.0	0.06655	16.9379999638
910.0	0.06665	16.9690001011
910.0	0.0665	17.0
910.0	0.06675	17.0470001698
910.0	0.0668	17.0780000687
910.0	0.0666	17.125
910.0	0.06685	17.1560001373
910.0	0.06665	17.1879999638
910.0	0.06665	17.2350001335
910.0	0.06685	17.2660000324
920.0	0.06875	17.5629999638
920.0	0.06915	17.5940001011
920.0	0.0696	17.6410000324
920.0	0.0698	17.6720001698
920.0	0.06985	17.7190001011
920.0	0.07035	17.75
920.0	0.0704	17.7810001373
920.0	0.0708	17.8280000687
920.0	0.0706	17.8600001335
920.0	0.07065	17.9060001373
920.0	0.07065	17.9379999638
920.0	0.0708	17.9850001335
920.0	0.0708	18.0160000324
920.0	0.0711	18.0470001698
920.0	0.071	18.0940001011
920.0	0.07125	18.125
920.0	0.071	18.1560001373
920.0	0.07105	18.2030000687
920.0	0.07125	18.2350001335
920.0	0.07105	18.2660000324
920.0	0.07105	18.3129999638
920.0	0.0709	18.3440001011
920.0	0.0709	18.3910000324
920.0	0.07115	18.4220001698
920.0	0.07085	18.4530000687
920.0	0.07075	18.5
920.0	0.07075	18.5310001373
920.0	0.07085	18.5629999638
920.0	0.071	18.6100001335
920.0	0.0709	18.6410000324
920.0	0.0708	18.6879999638
920.0	0.071	18.7190001011
920.0	0.0708	18.75
920.0	0.07065	18.7970001698
920.0	0.0708	18.8280000687
920.0	0.07075	18.875
920.0	0.071	18.9060001373
920.0	0.07065	18.9379999638
920.0	0.0708	18.9850001335
920.0	0.07105	19.0160000324
930.0	0.07315	19.3129999638
930.0	0.07375	19.3440001011
930.0	0.0741	19.3910000324
930.0	0.0744	19.4220001698
930.0	0.07475	19.4530000687
930.0	0.07515	19.5
930.0	0.075	19.5310001373
930.0	0.07525	19.5629999638
930.0	0.0751	19.6100001335
930.0	0.07535	19.6410000324
930.0	0.07515	19.6879999638
930.0	0.07535	19.7190001011
930.0	0.07565	19.75
930.0	0.0755	19.7970001698
930.0	0.07555	19.8280000687
930.0	0.0755	19.8600001335
930.0	0.0753	19.9060001373
930.0	0.0755	19.9379999638
930.0	0.07525	19.9850001335
930.0	0.0754	20.0160000324
930.0	0.07535	20.0470001698
930.0	0.07535	20.0940001011
930.0	0.0756	20.125
930.0	0.07535	20.1560001373
930.0	0.0755	20.2030000687
930.0	0.07575	20.2350001335
930.0	0.0755	20.2660000324
930.0	0.07555	20.3129999638
930.0	0.0755	20.3440001011
930.0	0.07555	20.3910000324
930.0	0.0758	20.4220001698
930.0	0.0755	20.4530000687
930.0	0.07575	20.5
930.0	0.0755	20.5310001373
930.0	0.0754	20.5629999638
930.0	0.0756	20.6100001335
930.0	0.07535	20.6410000324
930.0	0.07565	20.6720001698
930.0	0.0755	20.7190001011
930.0	0.0754	20.75
930.0	0.07575	20.7970001698
940.0	0.0783	21.0780000687
940.0	0.0789	21.125
940.0	0.08	21.1560001373
940.0	0.08035	21.1879999638
940.0	0.0811	21.2350001335
940.0	0.0814	21.2660000324
940.0	0.0818	21.2970001698
940.0	0.08235	21.3440001011
940.0	0.08235	21.375
940.0	0.08285	21.4060001373
940.0	0.08305	21.4530000687
940.0	0.08285	21.4850001335
940.0	0.08315	21.5310001373
940.0	0.08305	21.5629999638
940.0	0.08355	21.5940001011
940.0	0.08325	21.6410000324
940.0	0.08335	21.6720001698
940.0	0.08335	21.7190001011
940.0	0.08335	21.75
940.0	0.0833	21.7810001373
940.0	0.0835	21.8280000687
940.0	0.08325	21.8600001335
940.0	0.0834	21.9060001373
940.0	0.0835	21.9379999638
940.0	0.0831	21.9690001011
940.0	0.0834	22.0160000324
940.0	0.08315	22.0470001698
940.0	0.0831	22.0780000687
940.0	0.08335	22.125
940.0	0.08325	22.1560001373
940.0	0.0836	22.1879999638
940.0	0.08335	22.2350001335
940.0	0.0835	22.2660000324
940.0	0.0836	22.3129999638
940.0	0.0834	22.3440001011
940.0	0.08365	22.375
940.0	0.08325	22.4220001698
940.0	0.0831	22.4530000687
940.0	0.08335	22.4850001335
940.0	0.0831	22.5310001373
940.0	0.08315	22.5629999638
950.0	0.08265	22.8600001335
950.0	0.082	22.8910000324
950.0	0.0818	22.9220001698
950.0	0.08135	22.9690001011
950.0	0.0815	23.0
950.0	0.081	23.0310001373
950.0	0.08085	23.0780000687
950.0	0.0811	23.1100001335
950.0	0.08075	23.1410000324
950.0	0.0809	23.1879999638
950.0	0.0806	23.2190001011
950.0	0.08055	23.2660000324
950.0	0.08075	23.2970001698
950.0	0.0805	23.3280000687
950.0	0.08075	23.375
950.0	0.0805	23.4060001373
950.0	0.0805	23.4379999638
950.0	0.0808	23.4850001335
950.0	0.0805	23.5160000324
950.0	0.0809	23.5470001698
950.0	0.0806	23.5940001011
950.0	0.08075	23.625
950.0	0.0809	23.6720001698
950.0	0.08075	23.7030000687
950.0	0.08065	23.7350001335
950.0	0.08085	23.7810001373
950.0	0.08075	23.8129999638
950.0	0.08105	23.8440001011
950.0	0.08075	23.8910000324
950.0	0.08085	23.9220001698
950.0	0.08105	23.9530000687
950.0	0.08085	24.0
950.0	0.081	24.0310001373
950.0	0.08065	24.0780000687
950.0	0.08075	24.1100001335
950.0	0.081	24.1410000324
950.0	0.0808	24.1879999638
950.0	0.081	24.2190001011
950.0	0.08075	24.25
950.0	0.08085	24.2970001698
950.0	0.081	24.3280000687
960.0	0.08355	24.6100001335
960.0	0.0843	24.6410000324
960.0	0.0851	24.6879999638
960.0	0.08575	24.7190001011
960.0	0.086	24.75
960.0	0.08655	24.7970001698
960.0	0.08655	24.8280000687
960.0	0.08675	24.875
960.0	0.08705	24.9060001373
960.0	0.08715	24.9379999638
960.0	0.0875	24.9850001335
960.0	0.08715	25.0160000324
960.0	0.0873	25.0470001698
960.0	0.08755	25.0940001011
960.0	0.08725	25.125
960.0	0.08755	25.1560001373
960.0	0.08775	25.2030000687
960.0	0.08755	25.2350001335
960.0	0.08775	25.2810001373
960.0	0.0874	25.3129999638
960.0	0.0878	25.3440001011
960.0	0.08765	25.3910000324
960.0	0.08775	25.4220001698
960.0	0.08785	25.4690001011
960.0	0.0881	25.5
960.0	0.08785	25.5310001373
960.0	0.088	25.5780000687
960.0	0.08765	25.6100001335
960.0	0.08775	25.6560001373
960.0	0.088	25.6879999638
960.0	0.08765	25.7350001335
960.0	0.08755	25.7660000324
960.0	0.08755	25.7970001698
960.0	0.08775	25.8440001011
960.0	0.0879	25.875
960.0	0.0876	25.9060001373
960.0	0.08765	25.9530000687
960.0	0.0878	25.9850001335
960.0	0.08755	26.0310001373
960.0	0.08775	26.0629999638
960.0	0.0876	26.0940001011
970.0	0.0901	26.375
970.0	0.0906	26.4060001373
970.0	0.0915	26.4530000687
970.0	0.0916	26.4850001335
970.0	0.0923	26.5160000324
970.0	0.09255	26.5629999638
970.0	0.09275	26.5940001011
970.0	0.0931	26.625
970.0	0.09305	26.6720001698
970.0	0.09335	26.7030000687
970.0	0.0933	26.7350001335
970.0	0.09325	26.7810001373
970.0	0.09335	26.8129999638
970.0	0.0931	26.8600001335
970.0	0.09325	26.8910000324
970.0	0.09305	26.9220001698
970.0	0.093	26.9690001011
970.0	0.0933	27.0
970.0	0.09305	27.0310001373
970.0	0.0934	27.0780000687
970.0	0.09325	27.1100001335
970.0	0.093	27.1410000324
970.0	0.09335	27.1879999638
970.0	0.09305	27.2190001011
970.0	0.0933	27.2660000324
970.0	0.09335	27.2970001698
970.0	0.0931	27.3280000687
970.0	0.0934	27.375
970.0	0.0931	27.4060001373
970.0	0.0931	27.4379999638
970.0	0.0935	27.4850001335
970.0	0.0933	27.5160000324
970.0	0.09355	27.5470001698
970.0	0.09305	27.5940001011
970.0	0.09325	27.625
970.0	0.09315	27.6720001698
970.0	0.0931	27.7030000687
970.0	0.0934	27.7350001335
970.0	0.09325	27.7810001373
970.0	0.0933	27.8129999638
970.0	0.09355	27.8440001011
980.0	0.095	28.125
980.0	0.0954	28.1560001373
980.0	0.09585	28.2030000687
980.0	0.096	28.2350001335
980.0	0.0964	28.2660000324
980.0	0.0963	28.3129999638
980.0	0.09655	28.3440001011
980.0	0.09685	28.375
980.0	0.09685	28.4220001698
980.0	0.09725	28.4530000687
980.0	0.09725	28.5
980.0	0.097	28.5310001373
980.0	0.09725	28.5629999638
980.0	0.09715	28.6100001335
980.0	0.09685	28.6410000324
980.0	0.09715	28.6879999638
980.0	0.09685	28.7190001011
980.0	0.0968	28.75
980.0	0.09665	28.7970001698
980.0	0.09675	28.8280000687
980.0	0.097	28.8600001335
980.0	0.0966	28.9060001373
980.0	0.09685	28.9379999638
980.0	0.09655	28.9850001335
980.0	0.09665	29.0160000324
980.0	0.09655	29.0629999638
980.0	0.09665	29.0940001011
980.0	0.0964	29.125
980.0	0.0965	29.1720001698
980.0	0.0969	29.2030000687
980.0	0.0966	29.25
980.0	0.0969	29.2810001373
980.0	0.0968	29.3129999638
980.0	0.0969	29.3600001335
980.0	0.09715	29.3910000324
980.0	0.0969	29.4220001698
980.0	0.09725	29.4690001011
980.0	0.0969	29.5
980.0	0.097	29.5470001698
980.0	0.09725	29.5780000687
980.0	0.097	29.6100001335
990.0	0.098	29.8910000324
990.0	0.0984	29.9220001698
990.0	0.09835	29.9690001011
990.0	0.09875	30.0
990.0	0.09925	30.0310001373
990.0	0.09925	30.0780000687
990.0	0.09975	30.1100001335
990.0	0.0998	30.1410000324
990.0	0.09975	30.1879999638
990.0	0.10015	30.2190001011
990.0	0.0999	30.2660000324
990.0	0.1	30.2970001698
990.0	0.1003	30.3440001011
990.0	0.10025	30.3910000324
990.0	0.1	30.4220001698
990.0	0.1	30.4690001011
990.0	0.1001	30.5
990.0	0.1004	30.5470001698
990.0	0.1003	30.5940001011
990.0	0.1	30.625
990.0	0.1001	30.6720001698
990.0	0.0999	30.7030000687
990.0	0.10005	30.75
990.0	0.0996	30.7810001373
990.0	0.0999	30.8280000687
990.0	0.0998	30.8600001335
990.0	0.0994	30.8910000324
990.0	0.0996	30.9379999638
990.0	0.09925	30.9690001011
990.0	0.09925	31.0160000324
990.0	0.09935	31.0470001698
990.0	0.099	31.0940001011
990.0	0.09915	31.125
990.0	0.09925	31.1560001373
990.0	0.09915	31.2030000687
990.0	0.0996	31.2350001335
990.0	0.0993	31.2660000324
990.0	0.09955	31.3129999638
990.0	0.09935	31.3440001011
1000.0	0.10085	31.625
1000.0	0.10085	31.6720001698
1000.0	0.101	31.7030000687
1000.0	0.10125	31.75
1000.0	0.1016	31.7810001373
1000.0	0.10155	31.8280000687
1000.0	0.1014	31.875
1000.0	0.1015	31.9220001698
1000.0	0.10165	31.9530000687
1000.0	0.1019	32.0
1000.0	0.102	32.0470001698
1000.0	0.1016	32.0780000687
1000.0	0.1016	32.125
1000.0	0.102	32.1560001373
1000.0	0.10215	32.2030000687
1000.0	0.10185	32.25
1000.0	0.10185	32.2810001373
1000.0	0.1021	32.3280000687
1000.0	0.1024	32.375
1000.0	0.1024	32.4060001373
1000.0	0.1021	32.4530000687
1000.0	0.10215	32.4850001335
1000.0	0.1023	32.5310001373
1000.0	0.1025	32.5780000687
1000.0	0.10235	32.6100001335
1000.0	0.10225	32.6560001373
1000.0	0.10225	32.7030000687
1000.0	0.10215	32.7350001335
1000.0	0.1024	32.7810001373
1000.0	0.102	32.8280000687
1000.0	0.102	32.8600001335
1000.0	0.10185	32.9060001373
1000.0	0.10205	32.9379999638
1000.0	0.1021	32.9850001335
1000.0	0.10205	33.0310001373
1000.0	0.1018	33.0629999638
1000.0	0.1018	33.1100001335
1010.0	0.102	33.3910000324
1010.0	0.102	33.4220001698
1010.0	0.10225	33.4690001011
1010.0	0.1018	33.5160000324
1010.0	0.102	33.5470001698
1010.0	0.102	33.5940001011
1010.0	0.1023	33.6410000324
1010.0	0.10235	33.6720001698
1010.0	0.10225	33.7190001011
1010.0	0.10225	33.75
1010.0	0.10235	33.7970001698
1010.0	0.10255	33.8440001011
1010.0	0.10255	33.875
1010.0	0.1023	33.9220001698
1010.0	0.10235	33.9690001011
1010.0	0.1028	34.0
1010.0	0.10275	34.0470001698
1010.0	0.10235	34.0780000687
1010.0	0.10215	34.125
1010.0	0.10235	34.1720001698
1010.0	0.10255	34.2030000687
1010.0	0.1025	34.25
1010.0	0.10225	34.2970001698
1010.0	0.1023	34.3280000687
1010.0	0.1025	34.375
1010.0	0.10275	34.4060001373
1010.0	0.10275	34.4530000687
1010.0	0.1024	34.5
1010.0	0.1023	34.5310001373
1010.0	0.10215	34.5780000687
1010.0	0.10255	34.625
1010.0	0.1023	34.6720001698
1010.0	0.1021	34.7030000687
1010.0	0.1021	34.75
1010.0	0.1024	34.7810001373
1010.0	0.10215	34.8280000687
1010.0	0.1025	34.875
1020.0	0.10225	35.1560001373
1020.0	0.10235	35.1879999638
1020.0	0.10235	35.2350001335
1020.0	0.1024	35.2660000324
1020.0	0.10275	35.3129999638
1020.0	0.10275	35.3600001335
1020.0	0.10275	35.3910000324
1020.0	0.1023	35.4379999638
1020.0	0.1023	35.4850001335
1020.0	0.10265	35.5160000324
1020.0	0.10275	35.5629999638
1020.0	0.10235	35.5940001011
1020.0	0.10225	35.6410000324
1020.0	0.10235	35.6879999638
1020.0	0.1026	35.7190001011
1020.0	0.1025	35.7660000324
1020.0	0.1023	35.8129999638
1020.0	0.1024	35.8440001011
1020.0	0.10275	35.8910000324
1020.0	0.10265	35.9220001698
1020.0	0.1024	35.9690001011
1020.0	0.1026	36.0160000324
1020.0	0.1025	36.0470001698
1020.0	0.10285	36.0940001011
1020.0	0.1028	36.1410000324
1020.0	0.1026	36.1720001698
1020.0	0.10255	36.2190001011
1020.0	0.1025	36.2660000324
1020.0	0.10255	36.2970001698
1020.0	0.10215	36.3440001011
1020.0	0.10225	36.375
1020.0	0.10225	36.4220001698
1020.0	0.1025	36.4690001011
1020.0	0.10255	36.5
1020.0	0.10225	36.5470001698
1020.0	0.10225	36.5940001011
1020.0	0.1023	36.625
1030.0	0.103	36.9060001373
1030.0	0.1028	36.9530000687
1030.0	0.10285	36.9850001335
1030.0	0.1028	37.0310001373
1030.0	0.1025	37.0780000687
1030.0	0.1026	37.1100001335
1030.0	0.10285	37.1560001373
1030.0	0.10285	37.1879999638
1030.0	0.10235	37.2350001335
1030.0	0.1025	37.2810001373
1030.0	0.1026	37.3129999638
1030.0	0.103	37.3600001335
1030.0	0.10275	37.4060001373
1030.0	0.1025	37.4379999638
1030.0	0.1026	37.4850001335
1030.0	0.10275	37.5160000324
1030.0	0.103	37.5629999638
1030.0	0.10275	37.6100001335
1030.0	0.1026	37.6410000324
1030.0	0.10285	37.6879999638
1030.0	0.10255	37.7350001335
1030.0	0.10285	37.7810001373
1030.0	0.10275	37.8129999638
1030.0	0.1025	37.8600001335
1030.0	0.1026	37.8910000324
1030.0	0.1029	37.9379999638
1030.0	0.10315	37.9850001335
1030.0	0.10325	38.0160000324
1030.0	0.10285	38.0629999638
1030.0	0.1029	38.0940001011
1030.0	0.10285	38.1410000324
1030.0	0.103	38.1879999638
1030.0	0.10285	38.2190001011
1030.0	0.1028	38.2660000324
1030.0	0.10285	38.3129999638
1030.0	0.10305	38.3440001011
1030.0	0.103	38.3910000324
1040.0	0.1028	38.6720001698
1040.0	0.10325	38.7190001011
1040.0	0.1031	38.75
1040.0	0.10275	38.7970001698
1040.0	0.10275	38.8440001011
1040.0	0.1031	38.875
1040.0	0.10305	38.9220001698
1040.0	0.10265	38.9530000687
1040.0	0.10275	39.0
1040.0	0.1029	39.0470001698
1040.0	0.103	39.0780000687
1040.0	0.103	39.125
1040.0	0.10275	39.1720001698
1040.0	0.10275	39.2030000687
1040.0	0.10305	39.25
1040.0	0.1028	39.2970001698
1040.0	0.10285	39.3280000687
1040.0	0.10285	39.375
1040.0	0.10285	39.4220001698
1040.0	0.103	39.4530000687
1040.0	0.10305	39.5
1040.0	0.10325	39.5470001698
1040.0	0.1031	39.5780000687
1040.0	0.103	39.625
1040.0	0.10305	39.6720001698
1040.0	0.1031	39.7030000687
1040.0	0.10335	39.75
1040.0	0.1029	39.7970001698
1040.0	0.103	39.8280000687
1040.0	0.103	39.875
1040.0	0.10305	39.9060001373
1040.0	0.10325	39.9530000687
1040.0	0.10305	40.0
1040.0	0.10305	40.0310001373
1040.0	0.10325	40.0780000687
1040.0	0.10335	40.125
1050.0	0.10285	40.3910000324
1050.0	0.10335	40.4379999638
1050.0	0.1029	40.4850001335
1050.0	0.103	40.5310001373
1050.0	0.1031	40.5629999638
1050.0	0.10315	40.6100001335
1050.0	0.1035	40.6560001373
1050.0	0.10325	40.6879999638
1050.0	0.10315	40.7350001335
1050.0	0.10315	40.7660000324
1050.0	0.1034	40.8129999638
1050.0	0.1036	40.8600001335
1050.0	0.10355	40.8910000324
1050.0	0.10315	40.9379999638
1050.0	0.1033	40.9690001011
1050.0	0.1034	41.0160000324
1050.0	0.1035	41.0629999638
1050.0	0.10315	41.0940001011
1050.0	0.10315	41.1410000324
1050.0	0.10325	41.1879999638
1050.0	0.1033	41.2190001011
1050.0	0.1035	41.2660000324
1050.0	0.10325	41.3129999638
1050.0	0.10325	41.3440001011
1050.0	0.10335	41.3910000324
1050.0	0.10365	41.4220001698
1050.0	0.10355	41.4690001011
1050.0	0.1031	41.5160000324
1050.0	0.10315	41.5470001698
1050.0	0.10355	41.5940001011
1050.0	0.1035	41.6410000324
1050.0	0.1031	41.6720001698
1050.0	0.10315	41.7190001011
1050.0	0.10325	41.75
1050.0	0.1036	41.7970001698
1050.0	0.1033	41.8440001011
1050.0	0.10325	41.875
1060.0	0.1034	42.1560001373
1060.0	0.10335	42.2030000687
1060.0	0.10355	42.2350001335
1060.0	0.10365	42.2810001373
1060.0	0.10365	42.3280000687
1060.0	0.10355	42.3600001335
1060.0	0.1036	42.4060001373
1060.0	0.10365	42.4530000687
1060.0	0.104	42.4850001335
1060.0	0.10375	42.5310001373
1060.0	0.1035	42.5780000687
1060.0	0.1035	42.6100001335
1060.0	0.10385	42.6560001373
1060.0	0.10385	42.6879999638
1060.0	0.10375	42.7350001335
1060.0	0.1034	42.7810001373
1060.0	0.10385	42.8280000687
1060.0	0.10355	42.8600001335
1060.0	0.1039	42.9060001373
1060.0	0.1038	42.9379999638
1060.0	0.1035	42.9850001335
1060.0	0.1034	43.0310001373
1060.0	0.10355	43.0629999638
1060.0	0.10385	43.1100001335
1060.0	0.10375	43.1560001373
1060.0	0.1036	43.1879999638
1060.0	0.1036	43.2350001335
1060.0	0.1038	43.2660000324
1060.0	0.1039	43.3129999638
1060.0	0.10375	43.3600001335
1060.0	0.1036	43.3910000324
1060.0	0.10355	43.4379999638
1060.0	0.10385	43.4850001335
1060.0	0.1039	43.5160000324
1060.0	0.1036	43.5629999638
1060.0	0.10375	43.5940001011
1070.0	0.10385	43.875
1070.0	0.10355	43.9220001698
1070.0	0.1038	43.9690001011
1070.0	0.10415	44.0
1070.0	0.104	44.0470001698
1070.0	0.1038	44.0940001011
1070.0	0.104	44.125
1070.0	0.10425	44.1720001698
1070.0	0.10415	44.2030000687
1070.0	0.1038	44.25
1070.0	0.10385	44.2970001698
1070.0	0.10385	44.3280000687
1070.0	0.10415	44.375
1070.0	0.1041	44.4220001698
1070.0	0.1039	44.4530000687
1070.0	0.104	44.5
1070.0	0.1041	44.5310001373
1070.0	0.1041	44.5780000687
1070.0	0.104	44.625
1070.0	0.104	44.6560001373
1070.0	0.10405	44.7030000687
1070.0	0.10415	44.75
1070.0	0.10435	44.7810001373
1070.0	0.104	44.8280000687
1070.0	0.104	44.8600001335
1070.0	0.104	44.9060001373
1070.0	0.1043	44.9530000687
1070.0	0.10405	44.9850001335
1070.0	0.10375	45.0310001373
1070.0	0.1038	45.0780000687
1070.0	0.10385	45.1100001335
1070.0	0.10415	45.1560001373
1070.0	0.1041	45.2030000687
1070.0	0.1039	45.2350001335
1070.0	0.1043	45.2810001373
1070.0	0.1039	45.3280000687
1070.0	0.10425	45.3600001335
1080.0	0.10405	45.6410000324
1080.0	0.10455	45.6879999638
1080.0	0.10435	45.7190001011
1080.0	0.10425	45.7660000324
1080.0	0.10425	45.8129999638
1080.0	0.10465	45.8440001011
1080.0	0.1046	45.8910000324
1080.0	0.10405	45.9379999638
1080.0	0.10405	45.9690001011
1080.0	0.10425	46.0160000324
1080.0	0.10435	46.0470001698
1080.0	0.1041	46.0940001011
1080.0	0.104	46.1410000324
1080.0	0.10425	46.1879999638
1080.0	0.1041	46.2190001011
1080.0	0.10415	46.2660000324
1080.0	0.1043	46.2970001698
1080.0	0.10425	46.3440001011
1080.0	0.1041	46.3910000324
1080.0	0.10425	46.4220001698
1080.0	0.1046	46.4690001011
1080.0	0.1045	46.5160000324
1080.0	0.10425	46.5470001698
1080.0	0.10425	46.5940001011
1080.0	0.1043	46.625
1080.0	0.10455	46.6720001698
1080.0	0.1043	46.7190001011
1080.0	0.10415	46.75
1080.0	0.1041	46.7970001698
1080.0	0.1045	46.8440001011
1080.0	0.10455	46.875
1080.0	0.10425	46.9220001698
1080.0	0.1043	46.9690001011
1080.0	0.1044	47.0
1080.0	0.1046	47.0470001698
1080.0	0.1043	47.0780000687
1080.0	0.1041	47.125
1090.0	0.10455	47.4060001373
1090.0	0.10415	47.4379999638
1090.0	0.10455	47.4850001335
1090.0	0.10465	47.5310001373
1090.0	0.1044	47.5629999638
1090.0	0.1044	47.6100001335
1090.0	0.1046	47.6410000324
1090.0	0.1048	47.6879999638
1090.0	0.10475	47.7350001335
1090.0	0.1046	47.7660000324
1090.0	0.10435	47.8129999638
1090.0	0.10435	47.8600001335
1090.0	0.1046	47.8910000324
1090.0	0.1046	47.9379999638
1090.0	0.10425	47.9850001335
1090.0	0.10425	48.0160000324
1090.0	0.1043	48.0629999638
1090.0	0.1045	48.0940001011
1090.0	0.1044	48.1410000324
1090.0	0.1041	48.1879999638
1090.0	0.10405	48.2190001011
1090.0	0.1045	48.2660000324
1090.0	0.1043	48.2970001698
1090.0	0.10405	48.3440001011
1090.0	0.10405	48.3910000324
1090.0	0.1043	48.4220001698
1090.0	0.1046	48.4690001011
1090.0	0.1045	48.5160000324
1090.0	0.10435	48.5470001698
1090.0	0.10435	48.5940001011
1090.0	0.10455	48.625
1090.0	0.1046	48.6720001698
1090.0	0.10425	48.7190001011
1090.0	0.10415	48.75
1090.0	0.10425	48.7970001698
1090.0	0.1043	48.8440001011
1090.0	0.1046	48.875
1100.0	0.1015	49.1560001373
1100.0	0.09955	49.1879999638
1100.0	0.0986	49.2190001011
1100.0	0.09715	49.2660000324
1100.0	0.09655	49.2970001698
1100.0	0.096	49.3280000687
1100.0	0.0951	49.375
1100.0	0.09485	49.4060001373
1100.0	0.09435	49.4530000687
1100.0	0.09435	49.4850001335
1100.0	0.09415	49.5310001373
1100.0	0.09375	49.5629999638
1100.0	0.0938	49.5940001011
1100.0	0.0938	49.6410000324
1100.0	0.09365	49.6720001698
1100.0	0.0939	49.7030000687
1100.0	0.09385	49.75
1100.0	0.09375	49.7810001373
1100.0	0.0941	49.8129999638
1100.0	0.0936	49.8600001335
1100.0	0.09385	49.8910000324
1100.0	0.09375	49.9379999638
1100.0	0.09355	49.9690001011
1100.0	0.09375	50.0
1100.0	0.09375	50.0470001698
1100.0	0.09385	50.0780000687
1100.0	0.094	50.1100001335
1100.0	0.09355	50.1560001373
1100.0	0.09405	50.1879999638
1100.0	0.09375	50.2350001335
1100.0	0.0939	50.2660000324
1100.0	0.09375	50.2970001698
1100.0	0.09375	50.3440001011
1100.0	0.094	50.375
1100.0	0.09375	50.4060001373
1100.0	0.0936	50.4530000687
1100.0	0.094	50.4850001335
1100.0	0.09375	50.5160000324
1100.0	0.0941	50.5629999638
1100.0	0.0936	50.5940001011
1100.0	0.09385	50.625
1110.0	0.09275	50.8910000324
1110.0	0.0921	50.9379999638
1110.0	0.0924	50.9690001011
1110.0	0.092	51.0
1110.0	0.0918	51.0470001698
1110.0	0.0918	51.0780000687
1110.0	0.09175	51.125
1110.0	0.0921	51.1560001373
1110.0	0.09165	51.1879999638
1110.0	0.09185	51.2350001335
1110.0	0.09185	51.2660000324
1110.0	0.09165	51.2970001698
1110.0	0.09185	51.3440001011
1110.0	0.0915	51.375
1110.0	0.09155	51.4060001373
1110.0	0.09155	51.4530000687
1110.0	0.09125	51.4850001335
1110.0	0.09165	51.5310001373
1110.0	0.0913	51.5629999638
1110.0	0.0914	51.5940001011
1110.0	0.0915	51.6410000324
1110.0	0.09135	51.6720001698
1110.0	0.0916	51.7030000687
1110.0	0.0915	51.75
1110.0	0.09135	51.7810001373
1110.0	0.0916	51.8129999638
1110.0	0.0913	51.8600001335
1110.0	0.0916	51.8910000324
1110.0	0.0916	51.9379999638
1110.0	0.0913	51.9690001011
1110.0	0.09165	52.0
1110.0	0.0914	52.0470001698
1110.0	0.0915	52.0780000687
1110.0	0.0914	52.1100001335
1110.0	0.09135	52.1560001373
1110.0	0.09175	52.1879999638
1110.0	0.0915	52.2190001011
1110.0	0.0915	52.2660000324
1110.0	0.0914	52.2970001698
1110.0	0.0913	52.3440001011
1110.0	0.09155	52.375
1120.0	0.0913	52.625
1120.0	0.09175	52.6720001698
1120.0	0.0915	52.7190001011
1120.0	0.0915	52.75
1120.0	0.0918	52.7810001373
1120.0	0.0915	52.8280000687
1120.0	0.0918	52.8600001335
1120.0	0.0915	52.9060001373
1120.0	0.09155	52.9379999638
1120.0	0.0919	52.9690001011
1120.0	0.0915	53.0160000324
1120.0	0.0918	53.0470001698
1120.0	0.09185	53.0780000687
1120.0	0.0916	53.125
1120.0	0.0919	53.1560001373
1120.0	0.09155	53.2030000687
1120.0	0.09155	53.2350001335
1120.0	0.0918	53.2660000324
1120.0	0.0914	53.3129999638
1120.0	0.09175	53.3440001011
1120.0	0.0914	53.375
1120.0	0.0914	53.4220001698
1120.0	0.09175	53.4530000687
1120.0	0.0914	53.4850001335
1120.0	0.0918	53.5310001373
1120.0	0.09175	53.5629999638
1120.0	0.09165	53.6100001335
1120.0	0.0919	53.6410000324
1120.0	0.0916	53.6720001698
1120.0	0.09175	53.7190001011
1120.0	0.09165	53.75
1120.0	0.09165	53.7810001373
1120.0	0.092	53.8280000687
1120.0	0.09165	53.8600001335
1120.0	0.0918	53.8910000324
1120.0	0.092	53.9379999638
1120.0	0.0916	53.9690001011
1120.0	0.09205	54.0160000324
1120.0	0.09165	54.0470001698
1120.0	0.0919	54.0780000687
1120.0	0.0919	54.125
1130.0	0.09175	54.375
1130.0	0.092	54.4220001698
1130.0	0.09175	54.4530000687
1130.0	0.09205	54.4850001335
1130.0	0.09175	54.5310001373
1130.0	0.0918	54.5629999638
1130.0	0.09205	54.5940001011
1130.0	0.09185	54.6410000324
1130.0	0.09215	54.6720001698
1130.0	0.09175	54.7190001011
1130.0	0.09185	54.75
1130.0	0.092	54.7810001373
1130.0	0.09175	54.8280000687
1130.0	0.092	54.8600001335
1130.0	0.09175	54.8910000324
1130.0	0.09185	54.9379999638
1130.0	0.09205	54.9690001011
1130.0	0.0918	55.0
1130.0	0.09215	55.0470001698
1130.0	0.0919	55.0780000687
1130.0	0.0919	55.125
1130.0	0.092	55.1560001373
1130.0	0.0919	55.1879999638
1130.0	0.09225	55.2350001335
1130.0	0.092	55.2660000324
1130.0	0.09185	55.2970001698
1130.0	0.09185	55.3440001011
1130.0	0.09185	55.375
1130.0	0.092	55.4220001698
1130.0	0.0921	55.4530000687
1130.0	0.0918	55.5
1130.0	0.092	55.5310001373
1130.0	0.092	55.5629999638
1130.0	0.09175	55.6100001335
1130.0	0.0918	55.6410000324
1130.0	0.09185	55.6879999638
1130.0	0.09185	55.7190001011
1130.0	0.09225	55.75
1130.0	0.0919	55.7970001698
1130.0	0.0919	55.8280000687
1130.0	0.092	55.8600001335
1140.0	0.09185	56.125
1140.0	0.092	56.1560001373
1140.0	0.09205	56.2030000687
1140.0	0.09205	56.2350001335
1140.0	0.09205	56.2660000324
1140.0	0.09235	56.3129999638
1140.0	0.092	56.3440001011
1140.0	0.092	56.375
1140.0	0.09225	56.4220001698
1140.0	0.0919	56.4530000687
1140.0	0.09225	56.5
1140.0	0.0919	56.5310001373
1140.0	0.0921	56.5629999638
1140.0	0.09235	56.6100001335
1140.0	0.09205	56.6410000324
1140.0	0.0924	56.6720001698
1140.0	0.0921	56.7190001011
1140.0	0.0921	56.75
1140.0	0.09235	56.7970001698
1140.0	0.092	56.8280000687
1140.0	0.0923	56.8600001335
1140.0	0.0921	56.9060001373
1140.0	0.09215	56.9379999638
1140.0	0.0921	56.9850001335
1140.0	0.0921	57.0160000324
1140.0	0.09205	57.0470001698
1140.0	0.09235	57.0940001011
1140.0	0.092	57.125
1140.0	0.09205	57.1560001373
1140.0	0.0921	57.2030000687
1140.0	0.092	57.2350001335
1140.0	0.09225	57.2810001373
1140.0	0.09185	57.3129999638
1140.0	0.0921	57.3440001011
1140.0	0.09205	57.3910000324
1140.0	0.09185	57.4220001698
1140.0	0.09225	57.4530000687
1140.0	0.092	57.5
1140.0	0.0921	57.5310001373
1140.0	0.09225	57.5780000687
1140.0	0.09185	57.6100001335
1150.0	0.09225	57.8600001335
1150.0	0.092	57.9060001373
1150.0	0.0923	57.9379999638
1150.0	0.092	57.9850001335
1150.0	0.09225	58.0160000324
1150.0	0.092	58.0470001698
1150.0	0.092	58.0940001011
1150.0	0.0924	58.125
1150.0	0.0921	58.1560001373
1150.0	0.09215	58.2030000687
1150.0	0.09225	58.2350001335
1150.0	0.09215	58.2660000324
1150.0	0.0924	58.3129999638
1150.0	0.09205	58.3440001011
1150.0	0.09225	58.3910000324
1150.0	0.09225	58.4220001698
1150.0	0.09215	58.4530000687
1150.0	0.0925	58.5
1150.0	0.09215	58.5310001373
1150.0	0.09225	58.5629999638
1150.0	0.09235	58.6100001335
1150.0	0.09225	58.6410000324
1150.0	0.09255	58.6879999638
1150.0	0.0925	58.7190001011
1150.0	0.0923	58.75
1150.0	0.0923	58.7970001698
1150.0	0.0923	58.8280000687
1150.0	0.09225	58.875
1150.0	0.0924	58.9060001373
1150.0	0.0921	58.9379999638
1150.0	0.0925	58.9850001335
1150.0	0.09225	59.0160000324
1150.0	0.0921	59.0629999638
1150.0	0.09235	59.0940001011
1150.0	0.0921	59.125
1150.0	0.0921	59.1720001698
1150.0	0.0921	59.2030000687
1150.0	0.09205	59.2350001335
1150.0	0.09215	59.2810001373
1150.0	0.09205	59.3129999638
1150.0	0.09205	59.3600001335
1160.0	0.09255	59.6100001335
1160.0	0.0924	59.6560001373
1160.0	0.0925	59.6879999638
1160.0	0.09235	59.7190001011
1160.0	0.09275	59.7660000324
1160.0	0.0924	59.7970001698
1160.0	0.09235	59.8280000687
1160.0	0.09275	59.875
1160.0	0.09235	59.9060001373
1160.0	0.0926	59.9379999638
1160.0	0.0925	59.9850001335
1160.0	0.09235	60.0160000324
1160.0	0.0926	60.0629999638
1160.0	0.0924	60.0940001011
1160.0	0.09265	60.125
1160.0	0.09235	60.1720001698
1160.0	0.0923	60.2030000687
1160.0	0.09265	60.2350001335
1160.0	0.0923	60.2810001373
1160.0	0.0924	60.3129999638
1160.0	0.0923	60.3600001335
1160.0	0.09235	60.3910000324
1160.0	0.09255	60.4220001698
1160.0	0.0924	60.4690001011
1160.0	0.09235	60.5
1160.0	0.09275	60.5470001698
1160.0	0.09235	60.5780000687
1160.0	0.09255	60.6100001335
1160.0	0.09235	60.6560001373
1160.0	0.0924	60.6879999638
1160.0	0.09275	60.7190001011
1160.0	0.0923	60.7660000324
1160.0	0.0924	60.7970001698
1160.0	0.0925	60.8280000687
1160.0	0.09225	60.875
1160.0	0.09255	60.9060001373
1160.0	0.09225	60.9530000687
1160.0	0.0925	60.9850001335
1160.0	0.09255	61.0160000324
1160.0	0.09225	61.0629999638
1160.0	0.09235	61.0940001011
1170.0	0.0926	61.3600001335
1170.0	0.0924	61.3910000324
1170.0	0.09235	61.4379999638
1170.0	0.09275	61.4690001011
1170.0	0.09275	61.5160000324
1170.0	0.09235	61.5470001698
1170.0	0.09255	61.5780000687
1170.0	0.09285	61.625
1170.0	0.09235	61.6560001373
1170.0	0.0926	61.6879999638
1170.0	0.0925	61.7350001335
1170.0	0.09235	61.7660000324
1170.0	0.09265	61.7970001698
1170.0	0.09235	61.8440001011
1170.0	0.0924	61.875
1170.0	0.0926	61.9220001698
1170.0	0.0924	61.9530000687
1170.0	0.09265	61.9850001335
1170.0	0.0924	62.0310001373
1170.0	0.09255	62.0629999638
1170.0	0.09255	62.0940001011
1170.0	0.0925	62.1410000324
1170.0	0.0929	62.1720001698
1170.0	0.09255	62.2190001011
1170.0	0.09275	62.25
1170.0	0.09275	62.2810001373
1170.0	0.09255	62.3280000687
1170.0	0.09255	62.3600001335
1170.0	0.09265	62.4060001373
1170.0	0.0924	62.4379999638
1170.0	0.09275	62.4690001011
1170.0	0.0925	62.5160000324
1170.0	0.0926	62.5470001698
1170.0	0.09275	62.5780000687
1170.0	0.09235	62.625
1170.0	0.0928	62.6560001373
1170.0	0.0925	62.7030000687
1170.0	0.0924	62.7350001335
1170.0	0.09285	62.7660000324
1170.0	0.0924	62.8129999638
1180.0	0.0926	63.0629999638
1180.0	0.0926	63.1100001335
1180.0	0.0928	63.1410000324
1180.0	0.0926	63.1879999638
1180.0	0.09255	63.2190001011
1180.0	0.0929	63.25
1180.0	0.09255	63.2970001698
1180.0	0.09255	63.3280000687
1180.0	0.0926	63.3600001335
1180.0	0.09255	63.4060001373
1180.0	0.093	63.4379999638
1180.0	0.09265	63.4690001011
1180.0	0.0926	63.5160000324
1180.0	0.09265	63.5470001698
1180.0	0.0926	63.5940001011
1180.0	0.0929	63.625
1180.0	0.0926	63.6560001373
1180.0	0.0928	63.7030000687
1180.0	0.09265	63.7350001335
1180.0	0.09265	63.7660000324
1180.0	0.0929	63.8129999638
1180.0	0.09275	63.8440001011
1180.0	0.09275	63.875
1180.0	0.093	63.9220001698
1180.0	0.0926	63.9530000687
1180.0	0.09275	64.0
1180.0	0.09265	64.0310001373
1180.0	0.09265	64.0629999638
1180.0	0.093	64.1100001335
1180.0	0.0926	64.1410000324
1180.0	0.0928	64.1720001698
1180.0	0.0928	64.2190001011
1180.0	0.09255	64.25
1180.0	0.0929	64.2970001698
1180.0	0.0926	64.3280000687
1180.0	0.0928	64.3600001335
1180.0	0.0926	64.4060001373
1180.0	0.0926	64.4379999638
1180.0	0.09285	64.4690001011
1180.0	0.09255	64.5160000324
1180.0	0.09265	64.5470001698
1190.0	0.09305	64.8129999638
1190.0	0.09285	64.8440001011
1190.0	0.0931	64.8910000324
1190.0	0.09275	64.9220001698
1190.0	0.09315	64.9530000687
1190.0	0.09275	65.0
1190.0	0.093	65.0310001373
1190.0	0.0931	65.0629999638
1190.0	0.09285	65.1100001335
1190.0	0.09285	65.1410000324
1190.0	0.09285	65.1879999638
1190.0	0.09275	65.2190001011
1190.0	0.0929	65.25
1190.0	0.09275	65.2970001698
1190.0	0.0929	65.3280000687
1190.0	0.093	65.3600001335
1190.0	0.09265	65.4060001373
1190.0	0.093	65.4379999638
1190.0	0.09265	65.4850001335
1190.0	0.09285	65.5160000324
1190.0	0.09285	65.5470001698
1190.0	0.09285	65.5940001011
1190.0	0.0931	65.625
1190.0	0.09275	65.6560001373
1190.0	0.09285	65.7030000687
1190.0	0.09285	65.7350001335
1190.0	0.09275	65.7660000324
1190.0	0.0931	65.8129999638
1190.0	0.0928	65.8440001011
1190.0	0.09285	65.8910000324
1190.0	0.093	65.9220001698
1190.0	0.09275	65.9530000687
1190.0	0.0931	66.0
1190.0	0.0928	66.0310001373
1190.0	0.09275	66.0629999638
1190.0	0.09315	66.1100001335
1190.0	0.09285	66.1410000324
1190.0	0.093	66.1720001698
1190.0	0.0928	66.2190001011
1190.0	0.09275	66.25
1190.0	0.09315	66.2970001698
1200.0	0.093	66.5470001698
1200.0	0.09315	66.5940001011
1200.0	0.09285	66.625
1200.0	0.0929	66.6560001373
1200.0	0.0931	66.7030000687
1200.0	0.0929	66.7350001335
1200.0	0.09325	66.7810001373
1200.0	0.0929	66.8129999638
1200.0	0.0931	66.8440001011
1200.0	0.093	66.8910000324
1200.0	0.0929	66.9220001698
1200.0	0.0933	66.9530000687
1200.0	0.093	67.0
1200.0	0.09315	67.0310001373
1200.0	0.093	67.0629999638
1200.0	0.0929	67.1100001335
1200.0	0.09325	67.1410000324
1200.0	0.09285	67.1879999638
1200.0	0.09305	67.2190001011
1200.0	0.0931	67.25
1200.0	0.093	67.2970001698
1200.0	0.0933	67.3280000687
1200.0	0.0931	67.3600001335
1200.0	0.09285	67.4060001373
1200.0	0.09325	67.4379999638
1200.0	0.09285	67.4690001011
1200.0	0.0929	67.5160000324
1200.0	0.0929	67.5470001698
1200.0	0.09285	67.5940001011
1200.0	0.09325	67.625
1200.0	0.0929	67.6560001373
1200.0	0.09305	67.7030000687
1200.0	0.09305	67.7350001335
1200.0	0.093	67.7660000324
1200.0	0.09335	67.8129999638
1200.0	0.093	67.8440001011
1200.0	0.0934	67.8910000324
1200.0	0.0931	67.9220001698
1200.0	0.09315	67.9530000687
1200.0	0.0935	68.0
1200.0	0.0931	68.0310001373
1210.0	0.093	68.2970001698
1210.0	0.0929	68.3280000687
1210.0	0.09325	68.3600001335
1210.0	0.0929	68.4060001373
1210.0	0.0929	68.4379999638
1210.0	0.09325	68.4690001011
1210.0	0.09305	68.5160000324
1210.0	0.0934	68.5470001698
1210.0	0.0931	68.5780000687
1210.0	0.0931	68.625
1210.0	0.0935	68.6560001373
1210.0	0.09315	68.7030000687
1210.0	0.09335	68.7350001335
1210.0	0.0933	68.7660000324
1210.0	0.093	68.8129999638
1210.0	0.09335	68.8440001011
1210.0	0.0929	68.875
1210.0	0.0931	68.9220001698
1210.0	0.0931	68.9530000687
1210.0	0.093	69.0
1210.0	0.0934	69.0310001373
1210.0	0.09305	69.0629999638
1210.0	0.09315	69.1100001335
1210.0	0.0931	69.1410000324
1210.0	0.09315	69.1720001698
1210.0	0.09355	69.2190001011
1210.0	0.09335	69.25
1210.0	0.09335	69.2810001373
1210.0	0.0936	69.3280000687
1210.0	0.09315	69.3600001335
1210.0	0.0935	69.4060001373
1210.0	0.09315	69.4379999638
1210.0	0.09315	69.4690001011
1210.0	0.09355	69.5160000324
1210.0	0.09325	69.5470001698
1210.0	0.0934	69.5780000687
1210.0	0.09325	69.625
1210.0	0.09325	69.6560001373
1210.0	0.0935	69.6879999638
1210.0	0.09315	69.7350001335
1210.0	0.09325	69.7660000324
1220.0	0.09315	70.0310001373
1220.0	0.0934	70.0629999638
1220.0	0.09315	70.1100001335
1220.0	0.0934	70.1410000324
1220.0	0.0931	70.1720001698
1220.0	0.09315	70.2190001011
1220.0	0.0935	70.25
1220.0	0.0933	70.2970001698
1220.0	0.09315	70.3280000687
1220.0	0.09355	70.3600001335
1220.0	0.0934	70.4060001373
1220.0	0.0934	70.4379999638
1220.0	0.0936	70.4690001011
1220.0	0.09325	70.5160000324
1220.0	0.0936	70.5470001698
1220.0	0.09335	70.5780000687
1220.0	0.09325	70.625
1220.0	0.09365	70.6560001373
1220.0	0.09335	70.7030000687
1220.0	0.0935	70.7350001335
1220.0	0.0935	70.7660000324
1220.0	0.0933	70.8129999638
1220.0	0.0936	70.8440001011
1220.0	0.0933	70.875
1220.0	0.09335	70.9220001698
1220.0	0.0934	70.9530000687
1220.0	0.0933	71.0
1220.0	0.09365	71.0310001373
1220.0	0.09325	71.0629999638
1220.0	0.09335	71.1100001335
1220.0	0.09325	71.1410000324
1220.0	0.09325	71.1720001698
1220.0	0.0935	71.2190001011
1220.0	0.09325	71.25
1220.0	0.09335	71.2810001373
1220.0	0.09355	71.3280000687
1220.0	0.09325	71.3600001335
1220.0	0.0935	71.4060001373
1220.0	0.0933	71.4379999638
1220.0	0.09335	71.4690001011
1220.0	0.0935	71.5160000324
1230.0	0.09335	71.7660000324
1230.0	0.09335	71.8129999638
1230.0	0.0933	71.8440001011
1230.0	0.09365	71.875
1230.0	0.09335	71.9220001698
1230.0	0.0935	71.9530000687
1230.0	0.09365	72.0
1230.0	0.09335	72.0310001373
1230.0	0.09355	72.0629999638
1230.0	0.09355	72.1100001335
1230.0	0.09335	72.1410000324
1230.0	0.09365	72.1720001698
1230.0	0.09335	72.2190001011
1230.0	0.09335	72.25
1230.0	0.09335	72.2970001698
1230.0	0.09315	72.3280000687
1230.0	0.0936	72.3600001335
1230.0	0.0933	72.4060001373
1230.0	0.0934	72.4379999638
1230.0	0.0934	72.4690001011
1230.0	0.0933	72.5160000324
1230.0	0.0936	72.5470001698
1230.0	0.0933	72.5780000687
1230.0	0.09325	72.625
1230.0	0.09355	72.6560001373
1230.0	0.09335	72.7030000687
1230.0	0.09365	72.7350001335
1230.0	0.09335	72.7660000324
1230.0	0.09355	72.8129999638
1230.0	0.0938	72.8440001011
1230.0	0.0934	72.875
1230.0	0.0936	72.9220001698
1230.0	0.0935	72.9530000687
1230.0	0.0934	73.0
1230.0	0.0938	73.0310001373
1230.0	0.0934	73.0629999638
1230.0	0.09375	73.1100001335
1230.0	0.0938	73.1410000324
1230.0	0.0935	73.1720001698
1230.0	0.0938	73.2190001011
1230.0	0.0935	73.25
1240.0	0.0935	73.5160000324
1240.0	0.0934	73.5470001698
1240.0	0.09385	73.5780000687
1240.0	0.0934	73.625
1240.0	0.0935	73.6560001373
1240.0	0.0935	73.7030000687
1240.0	0.0935	73.7350001335
1240.0	0.09365	73.7660000324
1240.0	0.0934	73.8129999638
1240.0	0.0936	73.8440001011
1240.0	0.09375	73.875
1240.0	0.0935	73.9220001698
1240.0	0.09355	73.9530000687
1240.0	0.0935	73.9850001335
1240.0	0.09335	74.0310001373
1240.0	0.09385	74.0629999638
1240.0	0.0935	74.1100001335
1240.0	0.09365	74.1410000324
1240.0	0.09375	74.1720001698
1240.0	0.0934	74.2190001011
1240.0	0.09375	74.25
1240.0	0.0934	74.2810001373
1240.0	0.09365	74.3280000687
1240.0	0.09355	74.3600001335
1240.0	0.09355	74.3910000324
1240.0	0.09385	74.4379999638
1240.0	0.0936	74.4690001011
1240.0	0.09375	74.5160000324
1240.0	0.0936	74.5470001698
1240.0	0.0935	74.5780000687
1240.0	0.0938	74.625
1240.0	0.0934	74.6560001373
1240.0	0.0936	74.6879999638
1240.0	0.0935	74.7350001335
1240.0	0.09335	74.7660000324
1240.0	0.09355	74.7970001698
1240.0	0.09335	74.8440001011
1240.0	0.0933	74.875
1240.0	0.0936	74.9220001698
1240.0	0.09335	74.9530000687
1240.0	0.09355	74.9850001335
1250.0	0.09335	75.25
1250.0	0.09355	75.2810001373
1250.0	0.0935	75.3280000687
1250.0	0.09365	75.3600001335
1250.0	0.09385	75.3910000324
1250.0	0.0936	75.4379999638
1250.0	0.094	75.4690001011
1250.0	0.09365	75.5
1250.0	0.09375	75.5470001698
1250.0	0.0938	75.5780000687
1250.0	0.0935	75.625
1250.0	0.09385	75.6560001373
1250.0	0.09355	75.6879999638
1250.0	0.09375	75.7350001335
1250.0	0.0934	75.7660000324
1250.0	0.0935	75.8129999638
1250.0	0.0938	75.8440001011
1250.0	0.0938	75.875
1250.0	0.09365	75.9220001698
1250.0	0.094	75.9530000687
1250.0	0.09375	75.9850001335
1250.0	0.09375	76.0310001373
1250.0	0.09375	76.0629999638
1250.0	0.09365	76.1100001335
1250.0	0.09405	76.1410000324
1250.0	0.09375	76.1720001698
1250.0	0.0936	76.2190001011
1250.0	0.094	76.25
1250.0	0.09375	76.2810001373
1250.0	0.09385	76.3280000687
1250.0	0.09375	76.3600001335
1250.0	0.09355	76.3910000324
1250.0	0.094	76.4379999638
1250.0	0.09365	76.4690001011
1250.0	0.09385	76.5160000324
1250.0	0.0936	76.5470001698
1250.0	0.09365	76.5780000687
1250.0	0.094	76.625
1250.0	0.0936	76.6560001373
1250.0	0.09375	76.6879999638
1250.0	0.0938	76.7350001335
1260.0	0.0936	76.9850001335
1260.0	0.0936	77.0310001373
1260.0	0.094	77.0629999638
1260.0	0.09405	77.1100001335
1260.0	0.09365	77.1410000324
1260.0	0.09385	77.1720001698
1260.0	0.09405	77.2190001011
1260.0	0.09375	77.25
1260.0	0.094	77.2810001373
1260.0	0.0938	77.3280000687
1260.0	0.0939	77.3600001335
1260.0	0.09415	77.4060001373
1260.0	0.0938	77.4379999638
1260.0	0.0941	77.4690001011
1260.0	0.09385	77.5160000324
1260.0	0.09365	77.5470001698
1260.0	0.09405	77.5780000687
1260.0	0.09375	77.625
1260.0	0.094	77.6560001373
1260.0	0.09385	77.7030000687
1260.0	0.09365	77.7350001335
1260.0	0.09405	77.7660000324
1260.0	0.09375	77.8129999638
1260.0	0.094	77.8440001011
1260.0	0.09385	77.875
1260.0	0.09365	77.9220001698
1260.0	0.0941	77.9530000687
1260.0	0.0938	77.9850001335
1260.0	0.094	78.0310001373
1260.0	0.094	78.0629999638
1260.0	0.09375	78.1100001335
1260.0	0.09385	78.1410000324
1260.0	0.09375	78.1720001698
1260.0	0.09385	78.2190001011
1260.0	0.09405	78.25
1260.0	0.09365	78.2810001373
1260.0	0.09405	78.3280000687
1260.0	0.0938	78.3600001335
1260.0	0.094	78.3910000324
1260.0	0.0941	78.4379999638
1260.0	0.0938	78.4690001011
1270.0	0.09385	78.7350001335
1270.0	0.09365	78.7660000324
1270.0	0.094	78.7970001698
1270.0	0.09375	78.8440001011
1270.0	0.0941	78.875
1270.0	0.094	78.9220001698
1270.0	0.0938	78.9530000687
1270.0	0.09425	78.9850001335
1270.0	0.09405	79.0310001373
1270.0	0.0939	79.0629999638
1270.0	0.094	79.0940001011
1270.0	0.0938	79.1410000324
1270.0	0.09415	79.1720001698
1270.0	0.094	79.2030000687
1270.0	0.09375	79.25
1270.0	0.0938	79.2810001373
1270.0	0.0938	79.3280000687
1270.0	0.0941	79.3600001335
1270.0	0.09385	79.3910000324
1270.0	0.09375	79.4379999638
1270.0	0.09415	79.4690001011
1270.0	0.09385	79.5
1270.0	0.094	79.5470001698
1270.0	0.094	79.5780000687
1270.0	0.0939	79.625
1270.0	0.09415	79.6560001373
1270.0	0.09385	79.6879999638
1270.0	0.0939	79.7350001335
1270.0	0.094	79.7660000324
1270.0	0.09405	79.7970001698
1270.0	0.09415	79.8440001011
1270.0	0.09385	79.875
1270.0	0.094	79.9060001373
1270.0	0.094	79.9530000687
1270.0	0.09385	79.9850001335
1270.0	0.09425	80.0310001373
1270.0	0.0939	80.0629999638
1270.0	0.094	80.0940001011
1270.0	0.094	80.1410000324
1270.0	0.09385	80.1720001698
1270.0	0.0941	80.2030000687
1280.0	0.0938	80.4690001011
1280.0	0.094	80.5
1280.0	0.09375	80.5470001698
1280.0	0.094	80.5780000687
1280.0	0.09375	80.6100001335
1280.0	0.09375	80.6560001373
1280.0	0.09415	80.6879999638
1280.0	0.0938	80.7350001335
1280.0	0.0939	80.7660000324
1280.0	0.0938	80.7970001698
1280.0	0.0938	80.8440001011
1280.0	0.09415	80.875
1280.0	0.0938	80.9060001373
1280.0	0.09405	80.9530000687
1280.0	0.0938	80.9850001335
1280.0	0.09375	81.0160000324
1280.0	0.094	81.0629999638
1280.0	0.09375	81.0940001011
1280.0	0.094	81.1410000324
1280.0	0.0938	81.1720001698
1280.0	0.09385	81.2030000687
1280.0	0.09425	81.25
1280.0	0.09405	81.2810001373
1280.0	0.09425	81.3129999638
1280.0	0.09405	81.3600001335
1280.0	0.09385	81.3910000324
1280.0	0.09405	81.4220001698
1280.0	0.094	81.4690001011
1280.0	0.0941	81.5
1280.0	0.09415	81.5470001698
1280.0	0.0938	81.5780000687
1280.0	0.094	81.6100001335
1280.0	0.09385	81.6560001373
1280.0	0.09385	81.6879999638
1280.0	0.0939	81.7190001011
1280.0	0.09385	81.7660000324
1280.0	0.09405	81.7970001698
1280.0	0.0939	81.8280000687
1280.0	0.09385	81.875
1280.0	0.0943	81.9060001373
1280.0	0.094	81.9530000687
1290.0	0.09405	82.2030000687
1290.0	0.094	82.25
1290.0	0.09425	82.2810001373
1290.0	0.09405	82.3129999638
1290.0	0.09435	82.3600001335
1290.0	0.09435	82.3910000324
1290.0	0.09405	82.4220001698
1290.0	0.0943	82.4690001011
1290.0	0.094	82.5
1290.0	0.0943	82.5310001373
1290.0	0.09435	82.5780000687
1290.0	0.0939	82.6100001335
1290.0	0.0943	82.6560001373
1290.0	0.09405	82.6879999638
1290.0	0.0941	82.7190001011
1290.0	0.09425	82.7660000324
1290.0	0.094	82.7970001698
1290.0	0.09415	82.8280000687
1290.0	0.09415	82.875
1290.0	0.0939	82.9060001373
1290.0	0.09425	82.9379999638
1290.0	0.094	82.9850001335
1290.0	0.09405	83.0160000324
1290.0	0.09415	83.0629999638
1290.0	0.0939	83.0940001011
1290.0	0.094	83.1410000324
1290.0	0.094	83.1720001698
1290.0	0.0939	83.2030000687
1290.0	0.09435	83.25
1290.0	0.09405	83.2810001373
1290.0	0.09425	83.3129999638
1290.0	0.094	83.3600001335
1290.0	0.09415	83.3910000324
1290.0	0.09435	83.4220001698
1290.0	0.094	83.4690001011
1290.0	0.09405	83.5
1290.0	0.094	83.5470001698
1290.0	0.09405	83.5780000687
1290.0	0.0943	83.6100001335
1290.0	0.09385	83.6560001373
1290.0	0.09385	83.6879999638
1300.0	0.09425	83.9530000687
1300.0	0.0941	83.9850001335
1300.0	0.0941	84.0310001373
1300.0	0.0939	84.0629999638
1300.0	0.094	84.1100001335
1300.0	0.0941	84.1410000324
1300.0	0.094	84.1879999638
1300.0	0.09425	84.2190001011
1300.0	0.0944	84.25
1300.0	0.0941	84.2970001698
1300.0	0.09435	84.3280000687
1300.0	0.0943	84.3600001335
1300.0	0.0941	84.4060001373
1300.0	0.09415	84.4379999638
1300.0	0.09425	84.4850001335
1300.0	0.0944	84.5160000324
1300.0	0.09435	84.5470001698
1300.0	0.0941	84.5940001011
1300.0	0.0945	84.625
1300.0	0.09415	84.6560001373
1300.0	0.0944	84.7030000687
1300.0	0.09425	84.7350001335
1300.0	0.09415	84.7660000324
1300.0	0.0945	84.8129999638
1300.0	0.0941	84.8440001011
1300.0	0.09435	84.875
1300.0	0.0945	84.9220001698
1300.0	0.09415	84.9530000687
1300.0	0.0945	85.0
1300.0	0.09415	85.0310001373
1300.0	0.09435	85.0629999638
1300.0	0.09435	85.1100001335
1300.0	0.09415	85.1410000324
1300.0	0.0944	85.1720001698
1300.0	0.0943	85.2190001011
1300.0	0.09415	85.25
1300.0	0.09435	85.2970001698
1300.0	0.09415	85.3280000687
1300.0	0.0944	85.3600001335
1300.0	0.09415	85.4060001373
1310.0	0.094	85.6560001373
1310.0	0.09405	85.7030000687
1310.0	0.0941	85.7350001335
1310.0	0.0944	85.7810001373
1310.0	0.09415	85.8129999638
1310.0	0.0943	85.8440001011
1310.0	0.09415	85.8910000324
1310.0	0.09405	85.9220001698
1310.0	0.0945	85.9530000687
1310.0	0.09425	86.0
1310.0	0.0943	86.0310001373
1310.0	0.0943	86.0780000687
1310.0	0.0941	86.1100001335
1310.0	0.0945	86.1410000324
1310.0	0.0941	86.1879999638
1310.0	0.0944	86.2190001011
1310.0	0.09425	86.25
1310.0	0.09415	86.2970001698
1310.0	0.0945	86.3280000687
1310.0	0.0945	86.375
1310.0	0.09425	86.4060001373
1310.0	0.09455	86.4379999638
1310.0	0.0943	86.4850001335
1310.0	0.0944	86.5160000324
1310.0	0.09455	86.5470001698
1310.0	0.09415	86.5940001011
1310.0	0.09455	86.625
1310.0	0.09425	86.6720001698
1310.0	0.09425	86.7030000687
1310.0	0.0945	86.7350001335
1310.0	0.09415	86.7810001373
1310.0	0.0943	86.8129999638
1310.0	0.0941	86.8440001011
1310.0	0.09415	86.8910000324
1310.0	0.0946	86.9220001698
1310.0	0.0943	86.9690001011
1310.0	0.0944	87.0
1310.0	0.0943	87.0310001373
1310.0	0.0943	87.0780000687
1310.0	0.0946	87.1100001335
1310.0	0.09415	87.1410000324
1320.0	0.09405	87.4060001373
1320.0	0.0941	87.4530000687
1320.0	0.09435	87.4850001335
1320.0	0.09415	87.5160000324
1320.0	0.09425	87.5629999638
1320.0	0.0945	87.5940001011
1320.0	0.0943	87.6410000324
1320.0	0.09435	87.6720001698
1320.0	0.0946	87.7030000687
1320.0	0.0944	87.75
1320.0	0.0944	87.7810001373
1320.0	0.0946	87.8280000687
1320.0	0.09435	87.8600001335
1320.0	0.0944	87.9060001373
1320.0	0.09435	87.9379999638
1320.0	0.09435	87.9690001011
1320.0	0.0946	88.0160000324
1320.0	0.09435	88.0470001698
1320.0	0.09475	88.0940001011
1320.0	0.09465	88.125
1320.0	0.0944	88.1560001373
1320.0	0.0946	88.2030000687
1320.0	0.09465	88.2350001335
1320.0	0.09435	88.2660000324
1320.0	0.0945	88.3129999638
1320.0	0.0943	88.3440001011
1320.0	0.09455	88.3910000324
1320.0	0.09465	88.4220001698
1320.0	0.09435	88.4530000687
1320.0	0.0943	88.5
1320.0	0.09465	88.5310001373
1320.0	0.09435	88.5780000687
1320.0	0.0944	88.6100001335
1320.0	0.09425	88.6560001373
1320.0	0.0943	88.6879999638
1320.0	0.0944	88.7190001011
1320.0	0.09435	88.7660000324
1320.0	0.09435	88.7970001698
1320.0	0.09475	88.8280000687
1320.0	0.0944	88.875
1330.0	0.09425	89.1410000324
1330.0	0.0945	89.1720001698
1330.0	0.09455	89.2030000687
1330.0	0.0946	89.25
1330.0	0.09425	89.2810001373
1330.0	0.0946	89.3129999638
1330.0	0.09435	89.3600001335
1330.0	0.0946	89.3910000324
1330.0	0.09475	89.4220001698
1330.0	0.0944	89.4690001011
1330.0	0.09455	89.5
1330.0	0.09435	89.5470001698
1330.0	0.09425	89.5780000687
1330.0	0.09475	89.6100001335
1330.0	0.09435	89.6560001373
1330.0	0.09465	89.6879999638
1330.0	0.0944	89.7190001011
1330.0	0.0945	89.7660000324
1330.0	0.0948	89.7970001698
1330.0	0.0944	89.8440001011
1330.0	0.0946	89.875
1330.0	0.0945	89.9060001373
1330.0	0.09435	89.9530000687
1330.0	0.09475	89.9850001335
1330.0	0.0944	90.0160000324
1330.0	0.09455	90.0629999638
1330.0	0.0946	90.0940001011
1330.0	0.09435	90.125
1330.0	0.09475	90.1720001698
1330.0	0.0944	90.2030000687
1330.0	0.09435	90.25
1330.0	0.09455	90.2810001373
1330.0	0.0943	90.3129999638
1330.0	0.09465	90.3600001335
1330.0	0.0943	90.3910000324
1330.0	0.09425	90.4220001698
1330.0	0.09435	90.4690001011
1330.0	0.09435	90.5
1330.0	0.09465	90.5470001698
1330.0	0.09475	90.5780000687
1330.0	0.0944	90.625
1340.0	0.09475	90.875
1340.0	0.0945	90.9220001698
1340.0	0.09465	90.9530000687
1340.0	0.0945	90.9850001335
1340.0	0.09435	91.0310001373
1340.0	0.09475	91.0629999638
1340.0	0.09435	91.1100001335
1340.0	0.09455	91.1410000324
1340.0	0.0945	91.1720001698
1340.0	0.09435	91.2190001011
1340.0	0.0946	91.25
1340.0	0.09435	91.2810001373
1340.0	0.09465	91.3280000687
1340.0	0.09435	91.3600001335
1340.0	0.0944	91.3910000324
1340.0	0.09475	91.4379999638
1340.0	0.0945	91.4690001011
1340.0	0.0948	91.5160000324
1340.0	0.0945	91.5470001698
1340.0	0.0944	91.5780000687
1340.0	0.0948	91.625
1340.0	0.0946	91.6560001373
1340.0	0.09455	91.6879999638
1340.0	0.09485	91.7350001335
1340.0	0.0945	91.7660000324
1340.0	0.0948	91.7970001698
1340.0	0.0945	91.8440001011
1340.0	0.09455	91.875
1340.0	0.095	91.9220001698
1340.0	0.0946	91.9530000687
1340.0	0.095	91.9850001335
1340.0	0.0948	92.0310001373
1340.0	0.0945	92.0629999638
1340.0	0.09485	92.0940001011
1340.0	0.0944	92.1410000324
1340.0	0.0946	92.1720001698
1340.0	0.0945	92.2030000687
1340.0	0.0945	92.25
1340.0	0.0948	92.2810001373
1340.0	0.0944	92.3280000687
1340.0	0.0946	92.3600001335
1350.0	0.095	92.625
1350.0	0.09485	92.6560001373
1350.0	0.09465	92.7030000687
1350.0	0.09455	92.7350001335
1350.0	0.0949	92.7660000324
1350.0	0.0946	92.8129999638
1350.0	0.0948	92.8440001011
1350.0	0.0945	92.875
1350.0	0.0943	92.9220001698
1350.0	0.09475	92.9530000687
1350.0	0.0944	92.9850001335
1350.0	0.09435	93.0310001373
1350.0	0.0946	93.0629999638
1350.0	0.09455	93.1100001335
1350.0	0.09485	93.1410000324
1350.0	0.0946	93.1720001698
1350.0	0.0946	93.2190001011
1350.0	0.095	93.25
1350.0	0.09475	93.2810001373
1350.0	0.09485	93.3280000687
1350.0	0.09475	93.3600001335
1350.0	0.0946	93.3910000324
1350.0	0.095	93.4379999638
1350.0	0.09465	93.4690001011
1350.0	0.09485	93.5160000324
1350.0	0.09465	93.5470001698
1350.0	0.0946	93.5780000687
1350.0	0.0949	93.625
1350.0	0.0945	93.6560001373
1350.0	0.0948	93.6879999638
1350.0	0.0946	93.7350001335
1350.0	0.0945	93.7660000324
1350.0	0.09455	93.7970001698
1350.0	0.0945	93.8440001011
1350.0	0.0948	93.875
1350.0	0.0946	93.9220001698
1350.0	0.09455	93.9530000687
1350.0	0.0949	93.9850001335
1350.0	0.0946	94.0310001373
1350.0	0.09475	94.0629999638
1350.0	0.09485	94.0940001011
1360.0	0.09455	94.3600001335
1360.0	0.0945	94.3910000324
1360.0	0.09475	94.4379999638
1360.0	0.0945	94.4690001011
1360.0	0.0946	94.5160000324
1360.0	0.0945	94.5470001698
1360.0	0.0948	94.5780000687
1360.0	0.0945	94.625
1360.0	0.09475	94.6560001373
1360.0	0.0945	94.7030000687
1360.0	0.0944	94.7350001335
1360.0	0.09485	94.7660000324
1360.0	0.09455	94.8129999638
1360.0	0.09475	94.8440001011
1360.0	0.0946	94.875
1360.0	0.09455	94.9220001698
1360.0	0.09485	94.9530000687
1360.0	0.09475	94.9850001335
1360.0	0.09475	95.0310001373
1360.0	0.09475	95.0629999638
1360.0	0.0945	95.1100001335
1360.0	0.0948	95.1410000324
1360.0	0.0946	95.1720001698
1360.0	0.09475	95.2190001011
1360.0	0.0949	95.25
1360.0	0.09455	95.2810001373
1360.0	0.0949	95.3280000687
1360.0	0.095	95.3600001335
1360.0	0.0946	95.4060001373
1360.0	0.09485	95.4379999638
1360.0	0.09465	95.4850001335
1360.0	0.09485	95.5160000324
1360.0	0.0951	95.5470001698
1360.0	0.09465	95.5940001011
1360.0	0.0949	95.625
1360.0	0.09465	95.6560001373
1360.0	0.09475	95.7030000687
1360.0	0.0949	95.7350001335
1360.0	0.0946	95.7660000324
1360.0	0.09485	95.8129999638
1370.0	0.09485	96.0629999638
1370.0	0.09485	96.1100001335
1370.0	0.09475	96.1410000324
1370.0	0.09505	96.1879999638
1370.0	0.0949	96.2190001011
1370.0	0.09465	96.25
1370.0	0.09505	96.2970001698
1370.0	0.09475	96.3280000687
1370.0	0.0948	96.375
1370.0	0.095	96.4060001373
1370.0	0.09465	96.4379999638
1370.0	0.0948	96.4850001335
1370.0	0.09475	96.5160000324
1370.0	0.09465	96.5470001698
1370.0	0.095	96.5940001011
1370.0	0.09465	96.625
1370.0	0.0946	96.6560001373
1370.0	0.095	96.7030000687
1370.0	0.0946	96.7350001335
1370.0	0.09485	96.7810001373
1370.0	0.0946	96.8129999638
1370.0	0.09465	96.8440001011
1370.0	0.095	96.8910000324
1370.0	0.0946	96.9220001698
1370.0	0.0949	96.9530000687
1370.0	0.09455	97.0
1370.0	0.0946	97.0310001373
1370.0	0.09505	97.0629999638
1370.0	0.09465	97.1100001335
1370.0	0.0949	97.1410000324
1370.0	0.0948	97.1879999638
1370.0	0.09465	97.2190001011
1370.0	0.095	97.25
1370.0	0.09465	97.2970001698
1370.0	0.09465	97.3280000687
1370.0	0.09475	97.3600001335
1370.0	0.09475	97.4060001373
1370.0	0.0949	97.4379999638
1370.0	0.09475	97.4690001011
1370.0	0.09465	97.5160000324
1370.0	0.09475	97.5470001698
1380.0	0.0948	97.8129999638
1380.0	0.09475	97.8440001011
1380.0	0.09475	97.875
1380.0	0.09505	97.9220001698
1380.0	0.0948	97.9530000687
1380.0	0.095	98.0
1380.0	0.0948	98.0310001373
1380.0	0.0946	98.0629999638
1380.0	0.0951	98.1100001335
1380.0	0.0948	98.1410000324
1380.0	0.0949	98.1720001698
1380.0	0.09475	98.2190001011
1380.0	0.09465	98.25
1380.0	0.09505	98.2810001373
1380.0	0.0948	98.3280000687
1380.0	0.095	98.3600001335
1380.0	0.09515	98.4060001373
1380.0	0.0948	98.4379999638
1380.0	0.0951	98.4690001011
1380.0	0.09475	98.5160000324
1380.0	0.0949	98.5470001698
1380.0	0.0948	98.5780000687
1380.0	0.09475	98.625
1380.0	0.09505	98.6560001373
1380.0	0.0948	98.7030000687
1380.0	0.09485	98.7350001335
1380.0	0.0951	98.7660000324
1380.0	0.09475	98.8129999638
1380.0	0.0951	98.8440001011
1380.0	0.09475	98.875
1380.0	0.0949	98.9220001698
1380.0	0.0949	98.9530000687
1380.0	0.09465	98.9850001335
1380.0	0.095	99.0310001373
1380.0	0.09465	99.0629999638
1380.0	0.0946	99.1100001335
1380.0	0.095	99.1410000324
1380.0	0.09475	99.1720001698
1380.0	0.095	99.2190001011
1380.0	0.0948	99.25
1380.0	0.0948	99.2810001373
