Your edit line - do NOT delete this line
Wavelength [nm], Voltage [V], Elapsed time [s]
900.0	0.000195	14.0940001011
900.0	0.0001908	14.1410000324
900.0	0.0001878	14.1879999638
900.0	0.0001853	14.2190001011
900.0	0.0001833	14.2660000324
900.0	0.0001818	14.2969999313
900.0	0.0001808	14.3440001011
900.0	0.00018	14.3910000324
900.0	0.000179	14.4219999313
900.0	0.0001788	14.4690001011
900.0	0.0001783	14.5160000324
900.0	0.000178	14.5469999313
900.0	0.000178	14.5940001011
900.0	0.000178	14.6410000324
900.0	0.000178	14.6719999313
900.0	0.000178	14.7190001011
900.0	0.0001783	14.75
900.0	0.0001783	14.7969999313
900.0	0.0001783	14.8440001011
900.0	0.0001783	14.8910000324
900.0	0.0001783	14.9219999313
900.0	0.000178	14.9690001011
900.0	0.000178	15.0
900.0	0.0001778	15.0469999313
900.0	0.0001778	15.0940001011
910.0	0.0001868	15.3910000324
910.0	0.0001893	15.4379999638
910.0	0.0001913	15.4850001335
910.0	0.000193	15.5160000324
910.0	0.000194	15.5629999638
910.0	0.0001945	15.6100001335
910.0	0.0001955	15.6410000324
910.0	0.0001963	15.6879999638
910.0	0.0001965	15.7190001011
910.0	0.0001968	15.7660000324
910.0	0.000197	15.8129999638
910.0	0.000197	15.8440001011
910.0	0.0001975	15.8910000324
910.0	0.0001978	15.9379999638
910.0	0.000198	15.9690001011
910.0	0.0001983	16.0160000324
910.0	0.0001983	16.0469999313
910.0	0.0001983	16.0940001011
910.0	0.0001983	16.1410000324
910.0	0.000198	16.1719999313
910.0	0.0001978	16.2190001011
910.0	0.0001975	16.2660000324
910.0	0.000197	16.2969999313
910.0	0.0001975	16.3440001011
910.0	0.0001978	16.3910000324
920.0	0.0002058	16.6879999638
920.0	0.0002088	16.7350001335
920.0	0.0002113	16.7660000324
920.0	0.000213	16.8129999638
920.0	0.0002143	16.8440001011
920.0	0.0002155	16.8910000324
920.0	0.0002165	16.9379999638
920.0	0.000217	16.9690001011
920.0	0.000218	17.0160000324
920.0	0.0002183	17.0629999638
920.0	0.0002188	17.0940001011
920.0	0.000219	17.1410000324
920.0	0.000219	17.1719999313
920.0	0.0002188	17.2190001011
920.0	0.0002188	17.2660000324
920.0	0.0002188	17.2969999313
920.0	0.000219	17.3440001011
920.0	0.000219	17.3910000324
920.0	0.000219	17.4219999313
920.0	0.0002193	17.4690001011
920.0	0.0002193	17.5160000324
920.0	0.0002193	17.5469999313
920.0	0.000219	17.5940001011
920.0	0.000219	17.625
920.0	0.000219	17.6719999313
930.0	0.0002293	17.9690001011
930.0	0.000232	18.0160000324
930.0	0.0002343	18.0629999638
930.0	0.0002363	18.0940001011
930.0	0.0002375	18.1410000324
930.0	0.0002388	18.1879999638
930.0	0.0002393	18.2190001011
930.0	0.0002403	18.2660000324
930.0	0.0002408	18.3129999638
930.0	0.0002413	18.3440001011
930.0	0.0002413	18.3910000324
930.0	0.0002413	18.4219999313
930.0	0.0002413	18.4690001011
930.0	0.0002415	18.5160000324
930.0	0.0002415	18.5469999313
930.0	0.000242	18.5940001011
930.0	0.0002418	18.6410000324
930.0	0.000242	18.6719999313
930.0	0.000242	18.7190001011
930.0	0.000242	18.7660000324
930.0	0.0002425	18.7969999313
930.0	0.000242	18.8440001011
930.0	0.000242	18.8910000324
930.0	0.0002425	18.9219999313
930.0	0.0002425	18.9690001011
940.0	0.0002518	19.2660000324
940.0	0.0002545	19.3129999638
940.0	0.000257	19.3440001011
940.0	0.000259	19.3910000324
940.0	0.0002605	19.4379999638
940.0	0.0002615	19.4690001011
940.0	0.0002625	19.5160000324
940.0	0.000263	19.5469999313
940.0	0.0002638	19.5940001011
940.0	0.0002638	19.6410000324
940.0	0.000264	19.6719999313
940.0	0.0002643	19.7190001011
940.0	0.0002643	19.7660000324
940.0	0.0002645	19.7969999313
940.0	0.0002645	19.8440001011
940.0	0.0002645	19.875
940.0	0.000265	19.9219999313
940.0	0.0002653	19.9690001011
940.0	0.0002653	20.0
940.0	0.0002653	20.0469999313
940.0	0.0002653	20.0940001011
940.0	0.0002653	20.1410000324
940.0	0.000265	20.1719999313
940.0	0.000265	20.2190001011
950.0	0.000275	20.5160000324
950.0	0.000278	20.5629999638
950.0	0.0002805	20.5940001011
950.0	0.0002828	20.6410000324
950.0	0.0002843	20.6719999313
950.0	0.0002858	20.7190001011
950.0	0.0002865	20.7660000324
950.0	0.000287	20.7969999313
950.0	0.0002875	20.8440001011
950.0	0.0002878	20.8910000324
950.0	0.0002878	20.9219999313
950.0	0.0002878	20.9690001011
950.0	0.0002878	21.0160000324
950.0	0.000288	21.0469999313
950.0	0.0002883	21.0940001011
950.0	0.0002888	21.125
950.0	0.0002893	21.1719999313
950.0	0.0002893	21.2190001011
950.0	0.0002893	21.25
950.0	0.0002893	21.2969999313
950.0	0.0002888	21.3289999962
950.0	0.0002888	21.375
950.0	0.0002888	21.4219999313
950.0	0.0002888	21.4539999962
950.0	0.0002883	21.5
960.0	0.0002978	21.7820000648
960.0	0.0003013	21.8289999962
960.0	0.0003038	21.875
960.0	0.0003055	21.9070000648
960.0	0.0003075	21.9539999962
960.0	0.0003088	22.0
960.0	0.00031	22.0320000648
960.0	0.0003105	22.0789999962
960.0	0.0003108	22.1100001335
960.0	0.0003115	22.1570000648
960.0	0.0003115	22.2039999962
960.0	0.0003118	22.2350001335
960.0	0.0003118	22.2820000648
960.0	0.0003118	22.3289999962
960.0	0.000312	22.3600001335
960.0	0.000312	22.4070000648
960.0	0.000312	22.4379999638
960.0	0.000312	22.4850001335
960.0	0.0003125	22.5320000648
960.0	0.0003125	22.5629999638
960.0	0.0003125	22.6100001335
960.0	0.000312	22.6570000648
960.0	0.000312	22.6879999638
960.0	0.000312	22.7350001335
960.0	0.000312	22.7820000648
970.0	0.0003208	23.0629999638
970.0	0.000324	23.1100001335
970.0	0.0003268	23.1410000324
970.0	0.000329	23.1879999638
970.0	0.0003308	23.2350001335
970.0	0.000332	23.2660000324
970.0	0.000333	23.3129999638
970.0	0.0003338	23.3600001335
970.0	0.0003343	23.3910000324
970.0	0.0003343	23.4379999638
970.0	0.0003345	23.4690001011
970.0	0.000335	23.5160000324
970.0	0.0003353	23.5629999638
970.0	0.0003355	23.5940001011
970.0	0.0003353	23.6410000324
970.0	0.0003355	23.6879999638
970.0	0.0003358	23.7190001011
970.0	0.0003358	23.7660000324
970.0	0.0003363	23.8129999638
970.0	0.0003363	23.8440001011
970.0	0.0003363	23.8910000324
970.0	0.0003363	23.9219999313
970.0	0.0003358	23.9690001011
970.0	0.0003358	24.0160000324
980.0	0.0003445	24.2820000648
980.0	0.0003478	24.3289999962
980.0	0.0003503	24.375
980.0	0.0003525	24.4070000648
980.0	0.0003543	24.4539999962
980.0	0.0003555	24.5
980.0	0.000357	24.5320000648
980.0	0.000358	24.5789999962
980.0	0.0003583	24.625
980.0	0.0003588	24.6570000648
980.0	0.000359	24.7039999962
980.0	0.000359	24.7350001335
980.0	0.0003593	24.7820000648
980.0	0.0003595	24.8289999962
980.0	0.0003595	24.875
980.0	0.0003595	24.9070000648
980.0	0.0003595	24.9539999962
980.0	0.0003593	24.9850001335
980.0	0.0003595	25.0320000648
980.0	0.0003595	25.0789999962
980.0	0.0003595	25.1100001335
980.0	0.00036	25.1570000648
980.0	0.00036	25.2039999962
980.0	0.0003595	25.2350001335
980.0	0.00036	25.2820000648
990.0	0.0003683	25.5629999638
990.0	0.0003713	25.6100001335
990.0	0.000374	25.6570000648
990.0	0.0003758	25.6879999638
990.0	0.0003775	25.7350001335
990.0	0.0003788	25.7660000324
990.0	0.0003793	25.8129999638
990.0	0.0003803	25.8600001335
990.0	0.0003808	25.8910000324
990.0	0.0003813	25.9379999638
990.0	0.0003818	25.9850001335
990.0	0.000382	26.0160000324
990.0	0.0003828	26.0629999638
990.0	0.0003828	26.0940001011
990.0	0.000383	26.1410000324
990.0	0.000383	26.1879999638
990.0	0.000383	26.2350001335
990.0	0.0003828	26.2660000324
990.0	0.0003828	26.3129999638
990.0	0.0003828	26.3600001335
990.0	0.000383	26.3910000324
990.0	0.000383	26.4379999638
990.0	0.000383	26.4690001011
990.0	0.0003833	26.5160000324
990.0	0.0003838	26.5629999638
1000.0	0.0003925	26.8440001011
1000.0	0.0003955	26.8910000324
1000.0	0.000398	26.9379999638
1000.0	0.0004003	26.9690001011
1000.0	0.0004018	27.0160000324
1000.0	0.000403	27.0469999313
1000.0	0.0004043	27.0940001011
1000.0	0.000405	27.1410000324
1000.0	0.0004055	27.1719999313
1000.0	0.0004055	27.2190001011
1000.0	0.0004058	27.2660000324
1000.0	0.0004058	27.2969999313
1000.0	0.0004063	27.3440001011
1000.0	0.0004063	27.375
1000.0	0.0004065	27.4219999313
1000.0	0.0004068	27.4690001011
1000.0	0.0004068	27.5
1000.0	0.000407	27.5469999313
1000.0	0.000407	27.5940001011
1000.0	0.0004068	27.625
1000.0	0.0004068	27.6719999313
1000.0	0.0004075	27.7190001011
1000.0	0.0004075	27.75
1000.0	0.0004075	27.7969999313
1010.0	0.0004155	28.0789999962
1010.0	0.0004188	28.1100001335
1010.0	0.0004213	28.1570000648
1010.0	0.000423	28.2039999962
1010.0	0.0004243	28.2350001335
1010.0	0.0004255	28.2820000648
1010.0	0.0004268	28.3289999962
1010.0	0.0004275	28.3600001335
1010.0	0.000428	28.4070000648
1010.0	0.0004283	28.4539999962
1010.0	0.0004288	28.4850001335
1010.0	0.000429	28.5320000648
1010.0	0.000429	28.5629999638
1010.0	0.0004293	28.6100001335
1010.0	0.0004295	28.6570000648
1010.0	0.00043	28.6879999638
1010.0	0.0004303	28.7350001335
1010.0	0.0004305	28.7820000648
1010.0	0.0004305	28.8129999638
1010.0	0.0004303	28.8600001335
1010.0	0.0004303	28.8910000324
1010.0	0.00043	28.9379999638
1010.0	0.00043	28.9850001335
1010.0	0.00043	29.0160000324
1010.0	0.00043	29.0629999638
1020.0	0.0004388	29.3440001011
1020.0	0.0004418	29.3910000324
1020.0	0.0004443	29.4219999313
1020.0	0.0004465	29.4690001011
1020.0	0.0004483	29.5160000324
1020.0	0.0004495	29.5629999638
1020.0	0.0004505	29.5940001011
1020.0	0.0004513	29.6410000324
1020.0	0.0004518	29.6719999313
1020.0	0.000452	29.7190001011
1020.0	0.0004525	29.7660000324
1020.0	0.0004525	29.7969999313
1020.0	0.0004528	29.8440001011
1020.0	0.0004528	29.8910000324
1020.0	0.000453	29.9219999313
1020.0	0.0004533	29.9690001011
1020.0	0.0004533	30.0160000324
1020.0	0.0004533	30.0469999313
1020.0	0.0004533	30.0940001011
1020.0	0.0004533	30.1410000324
1020.0	0.0004533	30.1719999313
1020.0	0.0004533	30.2190001011
1020.0	0.0004533	30.25
1020.0	0.000453	30.2969999313
1030.0	0.0004633	30.5940001011
1030.0	0.0004665	30.625
1030.0	0.0004688	30.6719999313
1030.0	0.0004705	30.7190001011
1030.0	0.000472	30.75
1030.0	0.000473	30.7969999313
1030.0	0.000474	30.8289999962
1030.0	0.000475	30.875
1030.0	0.0004753	30.9219999313
1030.0	0.0004763	30.9539999962
1030.0	0.0004763	31.0
1030.0	0.0004763	31.0469999313
1030.0	0.0004763	31.0789999962
1030.0	0.0004763	31.125
1030.0	0.0004765	31.1570000648
1030.0	0.0004768	31.2039999962
1030.0	0.0004768	31.25
1030.0	0.0004768	31.2820000648
1030.0	0.0004768	31.3289999962
1030.0	0.0004765	31.375
1030.0	0.0004763	31.4070000648
1030.0	0.0004763	31.4539999962
1030.0	0.0004763	31.5
1030.0	0.0004763	31.5320000648
1030.0	0.0004763	31.5789999962
1040.0	0.0004855	31.8600001335
1040.0	0.0004883	31.9070000648
1040.0	0.0004908	31.9379999638
1040.0	0.0004928	31.9850001335
1040.0	0.0004943	32.0160000324
1040.0	0.0004958	32.0629999638
1040.0	0.0004968	32.1100001335
1040.0	0.0004975	32.1410000324
1040.0	0.0004978	32.1879999638
1040.0	0.000498	32.2350001335
1040.0	0.0004988	32.2660000324
1040.0	0.0004988	32.3129999638
1040.0	0.000499	32.3440001011
1040.0	0.000499	32.3910000324
1040.0	0.000499	32.4379999638
1040.0	0.000499	32.4690001011
1040.0	0.0004993	32.5160000324
1040.0	0.000499	32.5629999638
1040.0	0.000499	32.5940001011
1040.0	0.0004993	32.6410000324
1040.0	0.0004993	32.6879999638
1040.0	0.0004993	32.7190001011
1040.0	0.0004995	32.7660000324
1040.0	0.0004995	32.7969999313
1040.0	0.0005	32.8440001011
1050.0	0.0005083	33.125
1050.0	0.0005118	33.1719999313
1050.0	0.0005143	33.2039999962
1050.0	0.0005163	33.25
1050.0	0.0005178	33.2969999313
1050.0	0.0005193	33.3289999962
1050.0	0.0005205	33.375
1050.0	0.0005213	33.4219999313
1050.0	0.0005215	33.4539999962
1050.0	0.000522	33.5
1050.0	0.0005225	33.5320000648
1050.0	0.0005228	33.5789999962
1050.0	0.000523	33.625
1050.0	0.000523	33.6570000648
1050.0	0.000523	33.7039999962
1050.0	0.000523	33.75
1050.0	0.000523	33.7820000648
1050.0	0.000523	33.8289999962
1050.0	0.0005233	33.8600001335
1050.0	0.0005233	33.9070000648
1050.0	0.000523	33.9539999962
1050.0	0.000523	33.9850001335
1050.0	0.0005228	34.0320000648
1050.0	0.000523	34.0789999962
1060.0	0.000532	34.3600001335
1060.0	0.0005355	34.3910000324
1060.0	0.000538	34.4379999638
1060.0	0.00054	34.4850001335
1060.0	0.0005413	34.5160000324
1060.0	0.0005425	34.5629999638
1060.0	0.0005438	34.6100001335
1060.0	0.0005445	34.6410000324
1060.0	0.000545	34.6879999638
1060.0	0.000545	34.7190001011
1060.0	0.000545	34.7660000324
1060.0	0.0005453	34.8129999638
1060.0	0.0005455	34.8440001011
1060.0	0.0005458	34.8910000324
1060.0	0.0005458	34.9379999638
1060.0	0.0005458	34.9690001011
1060.0	0.0005458	35.0160000324
1060.0	0.0005458	35.0469999313
1060.0	0.0005463	35.0940001011
1060.0	0.0005458	35.1410000324
1060.0	0.0005463	35.1719999313
1060.0	0.0005463	35.2190001011
1060.0	0.0005463	35.2660000324
1060.0	0.0005458	35.2969999313
1060.0	0.0005463	35.3440001011
1070.0	0.0005543	35.625
1070.0	0.000557	35.6719999313
1070.0	0.00056	35.7039999962
1070.0	0.0005625	35.75
1070.0	0.0005643	35.7969999313
1070.0	0.0005655	35.8289999962
1070.0	0.000567	35.875
1070.0	0.000568	35.9219999313
1070.0	0.000569	35.9539999962
1070.0	0.000569	36.0
1070.0	0.0005693	36.0469999313
1070.0	0.0005695	36.0789999962
1070.0	0.0005695	36.125
1070.0	0.00057	36.1570000648
1070.0	0.0005703	36.2039999962
1070.0	0.00057	36.25
1070.0	0.00057	36.2820000648
1070.0	0.00057	36.3289999962
1070.0	0.00057	36.375
1070.0	0.0005695	36.4070000648
1070.0	0.0005695	36.4539999962
1070.0	0.0005693	36.4850001335
1070.0	0.0005693	36.5320000648
1070.0	0.0005693	36.5789999962
1080.0	0.0005768	36.8600001335
1080.0	0.0005795	36.8910000324
1080.0	0.000582	36.9379999638
1080.0	0.0005838	36.9850001335
1080.0	0.0005855	37.0160000324
1080.0	0.0005865	37.0629999638
1080.0	0.0005878	37.1100001335
1080.0	0.0005883	37.1410000324
1080.0	0.000589	37.1879999638
1080.0	0.0005895	37.2350001335
1080.0	0.00059	37.2660000324
1080.0	0.00059	37.3129999638
1080.0	0.0005903	37.3440001011
1080.0	0.0005905	37.3910000324
1080.0	0.0005905	37.4379999638
1080.0	0.0005908	37.4690001011
1080.0	0.0005908	37.5160000324
1080.0	0.0005908	37.5629999638
1080.0	0.0005908	37.5940001011
1080.0	0.0005913	37.6410000324
1080.0	0.0005908	37.6719999313
1080.0	0.0005905	37.7190001011
1080.0	0.0005908	37.7660000324
1080.0	0.0005908	37.7969999313
1080.0	0.0005913	37.8440001011
1090.0	0.000598	38.125
1090.0	0.0006013	38.1719999313
1090.0	0.0006038	38.2190001011
1090.0	0.0006055	38.25
1090.0	0.0006075	38.2969999313
1090.0	0.000609	38.3289999962
1090.0	0.00061	38.375
1090.0	0.0006105	38.4219999313
1090.0	0.0006113	38.4539999962
1090.0	0.0006115	38.5
1090.0	0.0006118	38.5469999313
1090.0	0.0006118	38.5789999962
1090.0	0.000612	38.625
1090.0	0.000612	38.6719999313
1090.0	0.0006118	38.7039999962
1090.0	0.000612	38.75
1090.0	0.000612	38.7820000648
1090.0	0.000612	38.8289999962
1090.0	0.000612	38.875
1090.0	0.0006125	38.9070000648
1090.0	0.0006125	38.9539999962
1090.0	0.0006125	39.0
1090.0	0.0006125	39.0320000648
1090.0	0.0006125	39.0789999962
1090.0	0.0006128	39.1100001335
1100.0	0.00062	39.4070000648
1100.0	0.000623	39.4379999638
1100.0	0.0006253	39.4850001335
1100.0	0.000627	39.5320000648
1100.0	0.0006288	39.5629999638
1100.0	0.0006295	39.6100001335
1100.0	0.0006303	39.6570000648
1100.0	0.0006308	39.6879999638
1100.0	0.0006313	39.7350001335
1100.0	0.0006315	39.7660000324
1100.0	0.0006318	39.8129999638
1100.0	0.000632	39.8600001335
1100.0	0.000632	39.8910000324
1100.0	0.0006325	39.9379999638
1100.0	0.0006328	39.9850001335
1100.0	0.0006328	40.0160000324
1100.0	0.0006325	40.0629999638
1100.0	0.0006328	40.1100001335
1100.0	0.0006325	40.1410000324
1100.0	0.0006325	40.1879999638
1100.0	0.000632	40.2190001011
1100.0	0.0006318	40.2660000324
1100.0	0.0006318	40.3129999638
1100.0	0.0006318	40.3440001011
1100.0	0.0006318	40.3910000324
1110.0	0.0006388	40.6719999313
1110.0	0.000641	40.7190001011
1110.0	0.0006435	40.75
1110.0	0.0006453	40.7969999313
1110.0	0.0006473	40.8440001011
1110.0	0.0006485	40.875
1110.0	0.000649	40.9219999313
1110.0	0.0006498	40.9539999962
1110.0	0.0006503	41.0
1110.0	0.000651	41.0469999313
1110.0	0.0006513	41.0940001011
1110.0	0.0006518	41.125
1110.0	0.0006515	41.1719999313
1110.0	0.0006515	41.2039999962
1110.0	0.0006518	41.25
1110.0	0.0006523	41.2969999313
1110.0	0.0006523	41.3289999962
1110.0	0.0006523	41.375
1110.0	0.0006528	41.4219999313
1110.0	0.0006528	41.4539999962
1110.0	0.000653	41.5
1110.0	0.000653	41.5469999313
1110.0	0.000653	41.5789999962
1110.0	0.000653	41.625
1120.0	0.0006585	41.8910000324
1120.0	0.0006605	41.9379999638
1120.0	0.0006628	41.9850001335
1120.0	0.0006643	42.0160000324
1120.0	0.000666	42.0629999638
1120.0	0.0006673	42.1100001335
1120.0	0.0006685	42.1410000324
1120.0	0.000669	42.1879999638
1120.0	0.0006698	42.2190001011
1120.0	0.00067	42.2660000324
1120.0	0.0006703	42.3129999638
1120.0	0.000671	42.3440001011
1120.0	0.000671	42.3910000324
1120.0	0.000671	42.4379999638
1120.0	0.000671	42.4690001011
1120.0	0.0006713	42.5160000324
1120.0	0.0006713	42.5469999313
1120.0	0.0006715	42.5940001011
1120.0	0.0006715	42.6410000324
1120.0	0.0006713	42.6719999313
1120.0	0.0006715	42.7190001011
1120.0	0.0006713	42.7660000324
1120.0	0.000671	42.7969999313
1120.0	0.000671	42.8440001011
1120.0	0.000671	42.875
1130.0	0.0006765	43.1570000648
1130.0	0.000679	43.2039999962
1130.0	0.000681	43.2350001335
1130.0	0.0006828	43.2820000648
1130.0	0.0006843	43.3289999962
1130.0	0.0006855	43.3600001335
1130.0	0.0006865	43.4070000648
1130.0	0.0006875	43.4539999962
1130.0	0.0006878	43.4850001335
1130.0	0.0006878	43.5320000648
1130.0	0.000688	43.5629999638
1130.0	0.0006885	43.6100001335
1130.0	0.0006885	43.6570000648
1130.0	0.0006885	43.6879999638
1130.0	0.0006885	43.7350001335
1130.0	0.0006888	43.7820000648
1130.0	0.0006888	43.8129999638
1130.0	0.000689	43.8600001335
1130.0	0.000689	43.8910000324
1130.0	0.000689	43.9379999638
1130.0	0.000689	43.9850001335
1130.0	0.000689	44.0160000324
1130.0	0.000689	44.0629999638
1130.0	0.000689	44.1100001335
1140.0	0.000694	44.375
1140.0	0.0006963	44.4219999313
1140.0	0.0006985	44.4539999962
1140.0	0.0007003	44.5
1140.0	0.0007015	44.5320000648
1140.0	0.0007025	44.5789999962
1140.0	0.000703	44.625
1140.0	0.0007038	44.6570000648
1140.0	0.000704	44.7039999962
1140.0	0.0007043	44.75
1140.0	0.0007048	44.7820000648
1140.0	0.0007048	44.8289999962
1140.0	0.000705	44.8600001335
1140.0	0.0007053	44.9070000648
1140.0	0.0007055	44.9539999962
1140.0	0.0007055	44.9850001335
1140.0	0.0007055	45.0320000648
1140.0	0.0007055	45.0789999962
1140.0	0.0007055	45.1100001335
1140.0	0.0007055	45.1570000648
1140.0	0.0007053	45.1879999638
1140.0	0.0007055	45.2350001335
1140.0	0.0007055	45.2820000648
1140.0	0.000706	45.3129999638
1140.0	0.0007063	45.3600001335
1150.0	0.000711	45.625
1150.0	0.000713	45.6719999313
1150.0	0.0007143	45.7039999962
1150.0	0.000716	45.75
1150.0	0.0007173	45.7969999313
1150.0	0.0007178	45.8289999962
1150.0	0.0007185	45.875
1150.0	0.0007188	45.9219999313
1150.0	0.000719	45.9539999962
1150.0	0.000719	46.0
1150.0	0.000719	46.0469999313
1150.0	0.000719	46.0789999962
1150.0	0.000719	46.125
1150.0	0.0007193	46.1570000648
1150.0	0.0007193	46.2039999962
1150.0	0.0007193	46.25
1150.0	0.0007193	46.2820000648
1150.0	0.0007198	46.3289999962
1150.0	0.0007198	46.375
1150.0	0.0007198	46.4070000648
1150.0	0.0007198	46.4539999962
1150.0	0.0007198	46.5
1150.0	0.0007198	46.5320000648
1150.0	0.0007198	46.5789999962
1160.0	0.0007248	46.8440001011
1160.0	0.0007265	46.875
1160.0	0.0007285	46.9219999313
1160.0	0.0007298	46.9539999962
1160.0	0.000731	47.0
1160.0	0.0007313	47.0469999313
1160.0	0.0007323	47.0789999962
1160.0	0.0007325	47.125
1160.0	0.000733	47.1719999313
1160.0	0.0007335	47.2039999962
1160.0	0.0007338	47.25
1160.0	0.0007338	47.2969999313
1160.0	0.000734	47.3289999962
1160.0	0.000734	47.375
1160.0	0.0007348	47.4070000648
1160.0	0.000735	47.4539999962
1160.0	0.0007348	47.5
1160.0	0.0007348	47.5320000648
1160.0	0.0007343	47.5789999962
1160.0	0.0007348	47.625
1160.0	0.0007348	47.6570000648
1160.0	0.0007348	47.7039999962
1160.0	0.0007348	47.7350001335
1160.0	0.0007343	47.7820000648
1160.0	0.000734	47.8289999962
1170.0	0.0007385	48.0789999962
1170.0	0.0007403	48.125
1170.0	0.0007415	48.1570000648
1170.0	0.0007428	48.2039999962
1170.0	0.0007438	48.25
1170.0	0.0007443	48.2820000648
1170.0	0.000745	48.3289999962
1170.0	0.0007455	48.375
1170.0	0.000746	48.4070000648
1170.0	0.0007463	48.4539999962
1170.0	0.0007465	48.5
1170.0	0.0007468	48.5320000648
1170.0	0.0007473	48.5789999962
1170.0	0.0007468	48.6100001335
1170.0	0.0007468	48.6570000648
1170.0	0.0007468	48.7039999962
1170.0	0.0007468	48.7350001335
1170.0	0.0007465	48.7820000648
1170.0	0.0007465	48.8289999962
1170.0	0.0007465	48.8600001335
1170.0	0.0007463	48.9070000648
1170.0	0.000746	48.9379999638
1170.0	0.0007463	48.9850001335
1170.0	0.0007463	49.0320000648
1180.0	0.0007493	49.2820000648
1180.0	0.000751	49.3289999962
1180.0	0.0007518	49.375
1180.0	0.000753	49.4070000648
1180.0	0.000754	49.4539999962
1180.0	0.0007553	49.4850001335
1180.0	0.000756	49.5320000648
1180.0	0.0007565	49.5789999962
1180.0	0.0007568	49.6100001335
1180.0	0.0007573	49.6570000648
1180.0	0.0007575	49.7039999962
1180.0	0.0007573	49.7350001335
1180.0	0.0007573	49.7820000648
1180.0	0.0007575	49.8129999638
1180.0	0.0007573	49.8600001335
1180.0	0.0007573	49.9070000648
1180.0	0.0007573	49.9379999638
1180.0	0.0007573	49.9850001335
1180.0	0.0007573	50.0320000648
1180.0	0.0007573	50.0629999638
1180.0	0.0007573	50.1100001335
1180.0	0.0007573	50.1410000324
1180.0	0.0007573	50.1879999638
1180.0	0.0007575	50.2350001335
1180.0	0.0007578	50.2660000324
1190.0	0.0007603	50.5320000648
1190.0	0.0007615	50.5789999962
1190.0	0.0007625	50.6100001335
1190.0	0.000763	50.6570000648
1190.0	0.000764	50.6879999638
1190.0	0.0007648	50.7350001335
1190.0	0.0007653	50.7820000648
1190.0	0.000766	50.8129999638
1190.0	0.0007663	50.8600001335
1190.0	0.0007665	50.9070000648
1190.0	0.0007673	50.9379999638
1190.0	0.0007675	50.9850001335
1190.0	0.0007673	51.0160000324
1190.0	0.0007673	51.0629999638
1190.0	0.0007673	51.1100001335
1190.0	0.0007678	51.1410000324
1190.0	0.0007678	51.1879999638
1190.0	0.000768	51.2350001335
1190.0	0.000768	51.2660000324
1190.0	0.0007678	51.3129999638
1190.0	0.0007678	51.3600001335
1190.0	0.0007678	51.3910000324
1190.0	0.000768	51.4379999638
1190.0	0.000768	51.4690001011
1190.0	0.000768	51.5160000324
1200.0	0.0007713	51.7820000648
1200.0	0.0007723	51.8129999638
1200.0	0.000773	51.8600001335
1200.0	0.0007743	51.9070000648
1200.0	0.000775	51.9379999638
1200.0	0.0007755	51.9850001335
1200.0	0.000776	52.0320000648
1200.0	0.000776	52.0629999638
1200.0	0.0007763	52.1100001335
1200.0	0.0007765	52.1570000648
1200.0	0.0007765	52.1879999638
1200.0	0.0007765	52.2350001335
1200.0	0.0007765	52.2820000648
1200.0	0.0007768	52.3129999638
1200.0	0.0007765	52.3600001335
1200.0	0.0007768	52.4070000648
1200.0	0.0007765	52.4379999638
1200.0	0.0007768	52.4850001335
1200.0	0.0007768	52.5160000324
1200.0	0.0007773	52.5629999638
1200.0	0.0007775	52.6100001335
1200.0	0.0007773	52.6410000324
1200.0	0.0007773	52.6879999638
1200.0	0.0007768	52.7350001335
1210.0	0.0007803	53.0
1210.0	0.0007815	53.0320000648
1210.0	0.0007828	53.0789999962
1210.0	0.0007835	53.1100001335
1210.0	0.000784	53.1570000648
1210.0	0.0007843	53.2039999962
1210.0	0.0007848	53.2350001335
1210.0	0.000785	53.2820000648
1210.0	0.0007853	53.3289999962
1210.0	0.000786	53.3600001335
1210.0	0.000786	53.4070000648
1210.0	0.000786	53.4539999962
1210.0	0.000786	53.4850001335
1210.0	0.000786	53.5320000648
1210.0	0.000786	53.5629999638
1210.0	0.0007863	53.6100001335
1210.0	0.000786	53.6570000648
1210.0	0.000786	53.7039999962
1210.0	0.000786	53.7350001335
1210.0	0.000786	53.7820000648
1210.0	0.0007855	53.8129999638
1210.0	0.0007855	53.8600001335
1210.0	0.0007855	53.9070000648
1210.0	0.000786	53.9379999638
1210.0	0.000786	53.9850001335
1220.0	0.0007888	54.25
1220.0	0.0007898	54.2969999313
1220.0	0.0007903	54.3289999962
1220.0	0.000791	54.375
1220.0	0.0007915	54.4219999313
1220.0	0.0007918	54.4539999962
1220.0	0.0007925	54.5
1220.0	0.0007928	54.5320000648
1220.0	0.0007928	54.5789999962
1220.0	0.0007928	54.625
1220.0	0.0007928	54.6570000648
1220.0	0.000793	54.7039999962
1220.0	0.0007935	54.75
1220.0	0.0007935	54.7820000648
1220.0	0.0007935	54.8289999962
1220.0	0.0007935	54.875
1220.0	0.0007935	54.9070000648
1220.0	0.0007935	54.9539999962
1220.0	0.0007935	55.0
1220.0	0.0007938	55.0320000648
1220.0	0.0007935	55.0789999962
1220.0	0.0007938	55.125
1220.0	0.0007938	55.1570000648
1220.0	0.0007938	55.2039999962
1230.0	0.0007955	55.4690001011
1230.0	0.0007963	55.5160000324
1230.0	0.0007973	55.5469999313
1230.0	0.0007975	55.5940001011
1230.0	0.0007978	55.6410000324
1230.0	0.000798	55.6719999313
1230.0	0.0007988	55.7190001011
1230.0	0.000799	55.7660000324
1230.0	0.000799	55.7969999313
1230.0	0.000799	55.8440001011
1230.0	0.000799	55.8910000324
1230.0	0.0007993	55.9219999313
1230.0	0.0007993	55.9690001011
1230.0	0.0007998	56.0160000324
1230.0	0.0007993	56.0469999313
1230.0	0.0007993	56.0940001011
1230.0	0.0007998	56.125
1230.0	0.0007998	56.1719999313
1230.0	0.0008	56.2190001011
1230.0	0.0008	56.25
1230.0	0.0007998	56.2969999313
1230.0	0.0007993	56.3440001011
1230.0	0.0007993	56.375
1230.0	0.0007998	56.4219999313
1240.0	0.0008013	56.6879999638
1240.0	0.0008015	56.7350001335
1240.0	0.0008023	56.7660000324
1240.0	0.0008025	56.8129999638
1240.0	0.0008028	56.8600001335
1240.0	0.0008028	56.8910000324
1240.0	0.0008028	56.9379999638
1240.0	0.0008025	56.9850001335
1240.0	0.0008025	57.0160000324
1240.0	0.0008025	57.0629999638
1240.0	0.0008028	57.1100001335
1240.0	0.000803	57.1410000324
1240.0	0.000803	57.1879999638
1240.0	0.000803	57.2190001011
1240.0	0.000803	57.2660000324
1240.0	0.0008035	57.3129999638
1240.0	0.0008038	57.3440001011
1240.0	0.0008038	57.3910000324
1240.0	0.0008038	57.4379999638
1240.0	0.0008035	57.4690001011
1240.0	0.0008035	57.5160000324
1240.0	0.0008035	57.5469999313
1240.0	0.0008035	57.5940001011
1240.0	0.0008035	57.6410000324
1250.0	0.0008043	57.9070000648
1250.0	0.0008048	57.9539999962
1250.0	0.0008053	58.0
1250.0	0.0008055	58.0320000648
1250.0	0.000806	58.0789999962
1250.0	0.0008063	58.1100001335
1250.0	0.0008063	58.1570000648
1250.0	0.0008063	58.2039999962
1250.0	0.0008065	58.2350001335
1250.0	0.0008068	58.2820000648
1250.0	0.0008068	58.3289999962
1250.0	0.0008073	58.3600001335
1250.0	0.0008073	58.4070000648
1250.0	0.0008073	58.4379999638
1250.0	0.0008075	58.4850001335
1250.0	0.0008073	58.5320000648
1250.0	0.0008073	58.5629999638
1250.0	0.0008073	58.6100001335
1250.0	0.0008068	58.6570000648
1250.0	0.0008065	58.6879999638
1250.0	0.0008065	58.7350001335
1250.0	0.0008065	58.7660000324
1250.0	0.0008068	58.8129999638
1250.0	0.0008068	58.8600001335
1250.0	0.0008073	58.8910000324
1260.0	0.0008065	59.1719999313
1260.0	0.0008068	59.2039999962
1260.0	0.0008068	59.25
1260.0	0.0008073	59.2969999313
1260.0	0.0008075	59.3289999962
1260.0	0.0008075	59.375
1260.0	0.0008075	59.4070000648
1260.0	0.0008075	59.4539999962
1260.0	0.0008075	59.5
1260.0	0.0008078	59.5469999313
1260.0	0.0008078	59.5789999962
1260.0	0.0008078	59.625
1260.0	0.0008078	59.6719999313
1260.0	0.0008075	59.7039999962
1260.0	0.0008075	59.75
1260.0	0.0008073	59.7820000648
1260.0	0.0008075	59.8289999962
1260.0	0.0008073	59.875
1260.0	0.0008075	59.9070000648
1260.0	0.0008075	59.9539999962
1260.0	0.0008078	60.0
1260.0	0.0008078	60.0320000648
1260.0	0.0008078	60.0789999962
1260.0	0.0008075	60.1100001335
1270.0	0.0008068	60.3910000324
1270.0	0.0008073	60.4219999313
1270.0	0.0008073	60.4690001011
1270.0	0.0008075	60.5
1270.0	0.0008075	60.5469999313
1270.0	0.0008075	60.5940001011
1270.0	0.0008073	60.625
1270.0	0.0008073	60.6719999313
1270.0	0.0008073	60.7190001011
1270.0	0.0008073	60.75
1270.0	0.0008073	60.7969999313
1270.0	0.0008073	60.8289999962
1270.0	0.0008073	60.875
1270.0	0.0008075	60.9219999313
1270.0	0.0008078	60.9539999962
1270.0	0.0008078	61.0
1270.0	0.000808	61.0469999313
1270.0	0.000808	61.0789999962
1270.0	0.000808	61.125
1270.0	0.0008078	61.1570000648
1270.0	0.0008075	61.2039999962
1270.0	0.0008075	61.25
1270.0	0.0008073	61.2820000648
1270.0	0.0008068	61.3289999962
1270.0	0.0008065	61.375
1280.0	0.0008065	61.6410000324
1280.0	0.0008065	61.6719999313
1280.0	0.0008065	61.7190001011
1280.0	0.0008068	61.7660000324
1280.0	0.0008065	61.8129999638
1280.0	0.0008065	61.8440001011
1280.0	0.0008065	61.8910000324
1280.0	0.0008065	61.9219999313
1280.0	0.0008065	61.9690001011
1280.0	0.0008065	62.0160000324
1280.0	0.0008063	62.0469999313
1280.0	0.0008065	62.0940001011
1280.0	0.0008065	62.125
1280.0	0.0008065	62.1719999313
1280.0	0.0008063	62.2190001011
1280.0	0.0008063	62.25
1280.0	0.0008063	62.2969999313
1280.0	0.0008065	62.3440001011
1280.0	0.0008065	62.375
1280.0	0.0008065	62.4219999313
1280.0	0.0008068	62.4690001011
1280.0	0.0008065	62.5
1280.0	0.0008065	62.5469999313
1280.0	0.000806	62.5789999962
1280.0	0.000806	62.625
1290.0	0.0008055	62.8910000324
1290.0	0.0008053	62.9379999638
1290.0	0.0008048	62.9850001335
1290.0	0.000805	63.0160000324
1290.0	0.000805	63.0629999638
1290.0	0.000805	63.1100001335
1290.0	0.0008053	63.1410000324
1290.0	0.0008053	63.1879999638
1290.0	0.0008055	63.2350001335
1290.0	0.0008055	63.2660000324
1290.0	0.000806	63.3129999638
1290.0	0.000806	63.3600001335
1290.0	0.000806	63.3910000324
1290.0	0.0008063	63.4379999638
1290.0	0.0008063	63.4690001011
1290.0	0.0008063	63.5160000324
1290.0	0.0008063	63.5629999638
1290.0	0.000806	63.5940001011
1290.0	0.000806	63.6410000324
1290.0	0.000806	63.6879999638
1290.0	0.000806	63.7190001011
1290.0	0.000806	63.7660000324
1290.0	0.0008055	63.8129999638
1290.0	0.0008055	63.8440001011
1300.0	0.0008043	64.1100001335
1300.0	0.0008035	64.1570000648
1300.0	0.000803	64.1879999638
1300.0	0.000803	64.2350001335
1300.0	0.0008028	64.2660000324
1300.0	0.000803	64.3129999638
1300.0	0.000803	64.3600001335
1300.0	0.000803	64.3910000324
1300.0	0.0008035	64.4379999638
1300.0	0.000803	64.4850001335
1300.0	0.0008028	64.5160000324
1300.0	0.0008028	64.5629999638
1300.0	0.0008028	64.6100001335
1300.0	0.0008028	64.6410000324
1300.0	0.0008028	64.6879999638
1300.0	0.0008028	64.7190001011
1300.0	0.0008028	64.7660000324
1300.0	0.0008028	64.8129999638
1300.0	0.000803	64.8440001011
1300.0	0.0008035	64.8910000324
1300.0	0.0008035	64.9379999638
1300.0	0.0008035	64.9690001011
1300.0	0.0008035	65.0160000324
1300.0	0.0008035	65.0469999313
1300.0	0.0008035	65.0940001011
1310.0	0.0008013	65.3600001335
1310.0	0.0008003	65.4070000648
1310.0	0.0007998	65.4379999638
1310.0	0.000799	65.4850001335
1310.0	0.0007988	65.5160000324
1310.0	0.0007985	65.5629999638
1310.0	0.0007985	65.6100001335
1310.0	0.000798	65.6410000324
1310.0	0.000798	65.6879999638
1310.0	0.000798	65.7350001335
1310.0	0.000798	65.7660000324
1310.0	0.000798	65.8129999638
1310.0	0.000798	65.8440001011
1310.0	0.000798	65.8910000324
1310.0	0.000798	65.9379999638
1310.0	0.0007978	65.9690001011
1310.0	0.0007978	66.0160000324
1310.0	0.000798	66.0629999638
1310.0	0.0007978	66.0940001011
1310.0	0.0007978	66.1410000324
1310.0	0.000798	66.1719999313
1310.0	0.0007978	66.2190001011
1310.0	0.0007978	66.2660000324
1310.0	0.0007978	66.2969999313
1310.0	0.000798	66.3440001011
1320.0	0.0007948	66.6100001335
1320.0	0.0007928	66.6410000324
1320.0	0.0007915	66.6879999638
1320.0	0.0007905	66.7350001335
1320.0	0.0007898	66.7660000324
1320.0	0.0007893	66.8129999638
1320.0	0.0007888	66.8600001335
1320.0	0.0007888	66.8910000324
1320.0	0.0007885	66.9379999638
1320.0	0.0007885	66.9690001011
1320.0	0.0007885	67.0160000324
1320.0	0.0007885	67.0629999638
1320.0	0.0007885	67.1100001335
1320.0	0.0007885	67.1410000324
1320.0	0.0007885	67.1879999638
1320.0	0.0007885	67.2190001011
1320.0	0.0007885	67.2660000324
1320.0	0.0007885	67.3129999638
1320.0	0.0007885	67.3440001011
1320.0	0.000788	67.3910000324
1320.0	0.000788	67.4379999638
1320.0	0.0007885	67.4690001011
1320.0	0.0007885	67.5160000324
1320.0	0.000788	67.5469999313
1320.0	0.0007878	67.5940001011
1330.0	0.0007838	67.8600001335
1330.0	0.0007815	67.9070000648
1330.0	0.0007803	67.9379999638
1330.0	0.000779	67.9850001335
1330.0	0.0007778	68.0160000324
1330.0	0.0007768	68.0629999638
1330.0	0.000776	68.1100001335
1330.0	0.0007755	68.1410000324
1330.0	0.000775	68.1879999638
1330.0	0.000775	68.2350001335
1330.0	0.0007743	68.2820000648
1330.0	0.0007738	68.3129999638
1330.0	0.0007735	68.3600001335
1330.0	0.000773	68.3910000324
1330.0	0.0007728	68.4379999638
1330.0	0.0007728	68.4850001335
1330.0	0.0007728	68.5160000324
1330.0	0.0007728	68.5629999638
1330.0	0.000773	68.6100001335
1330.0	0.0007735	68.6410000324
1330.0	0.0007735	68.6879999638
1330.0	0.0007735	68.7190001011
1330.0	0.0007735	68.7660000324
1330.0	0.0007735	68.8129999638
1340.0	0.0007668	69.0789999962
1340.0	0.000764	69.1100001335
1340.0	0.0007623	69.1570000648
1340.0	0.00076	69.1879999638
1340.0	0.0007585	69.2350001335
1340.0	0.0007573	69.2820000648
1340.0	0.0007565	69.3129999638
1340.0	0.000756	69.3600001335
1340.0	0.0007553	69.4070000648
1340.0	0.000755	69.4379999638
1340.0	0.0007548	69.4850001335
1340.0	0.0007548	69.5160000324
1340.0	0.0007543	69.5629999638
1340.0	0.000754	69.6100001335
1340.0	0.000754	69.6410000324
1340.0	0.000754	69.6879999638
1340.0	0.0007543	69.7350001335
1340.0	0.000754	69.7660000324
1340.0	0.000754	69.8129999638
1340.0	0.000754	69.8600001335
1340.0	0.000754	69.8910000324
1340.0	0.000754	69.9379999638
1340.0	0.000754	69.9850001335
1340.0	0.000754	70.0160000324
1340.0	0.000754	70.0629999638
1350.0	0.0007473	70.3289999962
1350.0	0.0007443	70.3600001335
1350.0	0.0007423	70.4070000648
1350.0	0.0007403	70.4539999962
1350.0	0.000739	70.4850001335
1350.0	0.0007378	70.5320000648
1350.0	0.0007365	70.5789999962
1350.0	0.000736	70.6100001335
1350.0	0.0007353	70.6570000648
1350.0	0.0007348	70.7039999962
1350.0	0.0007343	70.7350001335
1350.0	0.000734	70.7820000648
1350.0	0.000734	70.8289999962
1350.0	0.000734	70.8600001335
1350.0	0.0007338	70.9070000648
1350.0	0.000734	70.9539999962
1350.0	0.000734	70.9850001335
1350.0	0.000734	71.0320000648
1350.0	0.0007343	71.0789999962
1350.0	0.000734	71.1100001335
1350.0	0.000734	71.1570000648
1350.0	0.0007338	71.2039999962
1350.0	0.0007338	71.2350001335
1350.0	0.0007338	71.2820000648
1360.0	0.0007268	71.5469999313
1360.0	0.0007243	71.5789999962
1360.0	0.0007218	71.625
1360.0	0.0007198	71.6719999313
1360.0	0.000718	71.7039999962
1360.0	0.0007165	71.75
1360.0	0.0007155	71.7820000648
1360.0	0.000715	71.8289999962
1360.0	0.000714	71.875
1360.0	0.000714	71.9219999313
1360.0	0.000714	71.9539999962
1360.0	0.0007135	72.0
1360.0	0.0007135	72.0469999313
1360.0	0.0007135	72.0789999962
1360.0	0.0007138	72.125
1360.0	0.000714	72.1570000648
1360.0	0.000714	72.2039999962
1360.0	0.000714	72.25
1360.0	0.000714	72.2820000648
1360.0	0.000714	72.3289999962
1360.0	0.000714	72.375
1360.0	0.000714	72.4070000648
1360.0	0.000714	72.4539999962
1360.0	0.000714	72.4850001335
1370.0	0.0007073	72.75
1370.0	0.0007043	72.7969999313
1370.0	0.0007023	72.8440001011
1370.0	0.0007003	72.875
1370.0	0.000699	72.9219999313
1370.0	0.000698	72.9539999962
1370.0	0.0006973	73.0
1370.0	0.0006965	73.0469999313
1370.0	0.0006963	73.0789999962
1370.0	0.000696	73.125
1370.0	0.0006955	73.1719999313
1370.0	0.0006953	73.2039999962
1370.0	0.0006953	73.25
1370.0	0.0006953	73.2820000648
1370.0	0.000695	73.3289999962
1370.0	0.0006953	73.375
1370.0	0.0006953	73.4070000648
1370.0	0.0006953	73.4539999962
1370.0	0.0006953	73.5
1370.0	0.000695	73.5320000648
1370.0	0.000695	73.5789999962
1370.0	0.000695	73.6100001335
1370.0	0.000695	73.6570000648
1370.0	0.000695	73.7039999962
1370.0	0.0006948	73.7350001335
1380.0	0.0006885	74.0
1380.0	0.0006863	74.0469999313
1380.0	0.000684	74.0789999962
1380.0	0.0006825	74.125
1380.0	0.000681	74.1719999313
1380.0	0.00068	74.2039999962
1380.0	0.000679	74.25
1380.0	0.0006785	74.2969999313
1380.0	0.000678	74.3289999962
1380.0	0.0006778	74.375
1380.0	0.0006778	74.4070000648
1380.0	0.0006775	74.4539999962
1380.0	0.0006773	74.5
1380.0	0.0006773	74.5320000648
1380.0	0.0006773	74.5789999962
1380.0	0.0006773	74.625
1380.0	0.0006775	74.6570000648
1380.0	0.0006775	74.7039999962
1380.0	0.0006778	74.75
1380.0	0.0006778	74.7820000648
1380.0	0.0006778	74.8289999962
1380.0	0.0006775	74.875
1380.0	0.0006775	74.9070000648
1380.0	0.0006775	74.9539999962
1390.0	0.0006723	75.2190001011
1390.0	0.0006705	75.2660000324
1390.0	0.000669	75.2969999313
1390.0	0.0006678	75.3440001011
1390.0	0.0006668	75.375
1390.0	0.0006665	75.4219999313
1390.0	0.000666	75.4690001011
1390.0	0.0006655	75.5
1390.0	0.0006653	75.5469999313
1390.0	0.0006653	75.5940001011
1390.0	0.0006648	75.6410000324
1390.0	0.0006643	75.6719999313
1390.0	0.000664	75.7190001011
1390.0	0.000664	75.75
1390.0	0.0006638	75.7969999313
1390.0	0.0006638	75.8440001011
1390.0	0.0006635	75.875
1390.0	0.0006635	75.9219999313
1390.0	0.0006638	75.9690001011
1390.0	0.0006638	76.0
1390.0	0.000664	76.0469999313
1390.0	0.000664	76.0789999962
1390.0	0.0006638	76.125
1390.0	0.0006638	76.1719999313
1400.0	0.0006593	76.4379999638
1400.0	0.0006575	76.4690001011
1400.0	0.0006563	76.5160000324
1400.0	0.0006553	76.5629999638
1400.0	0.0006548	76.5940001011
1400.0	0.0006543	76.6410000324
1400.0	0.0006538	76.6879999638
1400.0	0.0006535	76.7190001011
1400.0	0.000653	76.7660000324
1400.0	0.0006528	76.7969999313
1400.0	0.0006525	76.8440001011
1400.0	0.0006525	76.8910000324
1400.0	0.0006525	76.9219999313
1400.0	0.0006525	76.9690001011
1400.0	0.0006525	77.0160000324
1400.0	0.0006525	77.0469999313
1400.0	0.0006525	77.0940001011
1400.0	0.0006525	77.125
1400.0	0.0006523	77.1719999313
1400.0	0.0006525	77.2190001011
1400.0	0.0006528	77.25
1400.0	0.0006528	77.2969999313
1400.0	0.0006528	77.3440001011
1400.0	0.0006528	77.375
1400.0	0.0006525	77.4219999313
1410.0	0.000649	77.6879999638
1410.0	0.0006475	77.7350001335
1410.0	0.0006465	77.7660000324
1410.0	0.0006455	77.8129999638
1410.0	0.000645	77.8600001335
1410.0	0.0006448	77.8910000324
1410.0	0.0006443	77.9379999638
1410.0	0.000644	77.9690001011
1410.0	0.0006435	78.0160000324
1410.0	0.0006435	78.0629999638
1410.0	0.0006435	78.0940001011
1410.0	0.0006435	78.1410000324
1410.0	0.0006435	78.1879999638
1410.0	0.0006435	78.2190001011
1410.0	0.000643	78.2660000324
1410.0	0.000643	78.3129999638
1410.0	0.0006435	78.3600001335
1410.0	0.0006435	78.3910000324
1410.0	0.0006435	78.4379999638
1410.0	0.000643	78.4690001011
1410.0	0.000643	78.5160000324
1410.0	0.0006428	78.5629999638
1410.0	0.0006425	78.5940001011
1410.0	0.0006428	78.6410000324
1420.0	0.0006415	78.9070000648
1420.0	0.000641	78.9539999962
1420.0	0.0006403	78.9850001335
1420.0	0.0006398	79.0320000648
1420.0	0.0006395	79.0789999962
1420.0	0.000639	79.1100001335
1420.0	0.0006388	79.1570000648
1420.0	0.0006383	79.1879999638
1420.0	0.000638	79.2350001335
1420.0	0.0006378	79.2820000648
1420.0	0.0006378	79.3129999638
1420.0	0.0006378	79.3600001335
1420.0	0.0006375	79.4070000648
1420.0	0.0006375	79.4379999638
1420.0	0.0006375	79.4850001335
1420.0	0.0006375	79.5160000324
1420.0	0.0006375	79.5629999638
1420.0	0.0006375	79.6100001335
1420.0	0.0006378	79.6410000324
1420.0	0.000638	79.6879999638
1420.0	0.000638	79.7350001335
1420.0	0.000638	79.7660000324
1420.0	0.0006383	79.8129999638
1420.0	0.0006383	79.8600001335
1430.0	0.0006365	80.125
1430.0	0.0006365	80.1570000648
1430.0	0.0006358	80.2039999962
1430.0	0.0006363	80.2350001335
1430.0	0.0006358	80.2820000648
1430.0	0.0006358	80.3289999962
1430.0	0.0006358	80.3600001335
1430.0	0.0006358	80.4070000648
1430.0	0.0006363	80.4539999962
1430.0	0.0006363	80.4850001335
1430.0	0.0006363	80.5320000648
1430.0	0.0006363	80.5789999962
1430.0	0.0006363	80.6100001335
1430.0	0.0006363	80.6570000648
1430.0	0.0006365	80.6879999638
1430.0	0.0006365	80.7350001335
1430.0	0.0006365	80.7820000648
1430.0	0.0006363	80.8129999638
1430.0	0.0006365	80.8600001335
1430.0	0.0006368	80.9070000648
1430.0	0.0006368	80.9379999638
1430.0	0.0006368	80.9850001335
1430.0	0.0006365	81.0160000324
1430.0	0.0006365	81.0629999638
1430.0	0.0006365	81.1100001335
1440.0	0.0006378	81.375
1440.0	0.0006378	81.4070000648
1440.0	0.000638	81.4539999962
1440.0	0.0006383	81.5
1440.0	0.0006388	81.5320000648
1440.0	0.0006388	81.5789999962
1440.0	0.0006388	81.625
1440.0	0.000639	81.6570000648
1440.0	0.000639	81.7039999962
1440.0	0.000639	81.7350001335
1440.0	0.0006393	81.7820000648
1440.0	0.0006393	81.8289999962
1440.0	0.0006395	81.8600001335
1440.0	0.0006398	81.9070000648
1440.0	0.0006398	81.9539999962
1440.0	0.0006398	81.9850001335
1440.0	0.0006398	82.0320000648
1440.0	0.0006398	82.0629999638
1440.0	0.0006398	82.1100001335
1440.0	0.00064	82.1570000648
1440.0	0.0006398	82.1879999638
1440.0	0.00064	82.2350001335
1440.0	0.0006403	82.2820000648
1440.0	0.0006403	82.3129999638
1440.0	0.00064	82.3600001335
1450.0	0.0006418	82.625
1450.0	0.0006425	82.6719999313
1450.0	0.0006435	82.7039999962
1450.0	0.000644	82.75
1450.0	0.0006448	82.7820000648
1450.0	0.000645	82.8289999962
1450.0	0.0006453	82.875
1450.0	0.0006453	82.9219999313
1450.0	0.0006455	82.9539999962
1450.0	0.000646	83.0
1450.0	0.000646	83.0320000648
1450.0	0.0006463	83.0789999962
1450.0	0.0006465	83.125
1450.0	0.0006465	83.1570000648
1450.0	0.0006468	83.2039999962
1450.0	0.0006468	83.25
1450.0	0.0006465	83.2820000648
1450.0	0.0006465	83.3289999962
1450.0	0.0006468	83.375
1450.0	0.0006473	83.4070000648
1450.0	0.0006473	83.4539999962
1450.0	0.0006473	83.4850001335
1450.0	0.0006475	83.5320000648
1450.0	0.0006475	83.5789999962
1460.0	0.00065	83.8440001011
1460.0	0.000651	83.875
1460.0	0.0006523	83.9219999313
1460.0	0.0006535	83.9690001011
1460.0	0.000654	84.0
1460.0	0.0006543	84.0469999313
1460.0	0.0006548	84.0940001011
1460.0	0.0006548	84.125
1460.0	0.0006548	84.1719999313
1460.0	0.0006553	84.2190001011
1460.0	0.0006555	84.25
1460.0	0.0006555	84.2969999313
1460.0	0.0006555	84.3440001011
1460.0	0.000656	84.375
1460.0	0.000656	84.4219999313
1460.0	0.000656	84.4539999962
1460.0	0.0006555	84.5
1460.0	0.0006555	84.5469999313
1460.0	0.0006555	84.5940001011
1460.0	0.0006555	84.625
1460.0	0.0006553	84.6719999313
1460.0	0.0006553	84.7190001011
1460.0	0.000655	84.75
1460.0	0.000655	84.7969999313
1470.0	0.000659	85.0629999638
1470.0	0.0006603	85.1100001335
1470.0	0.000661	85.1410000324
1470.0	0.0006618	85.1879999638
1470.0	0.0006623	85.2350001335
1470.0	0.0006628	85.2660000324
1470.0	0.000663	85.3129999638
1470.0	0.0006638	85.3600001335
1470.0	0.000664	85.3910000324
1470.0	0.000665	85.4379999638
1470.0	0.0006653	85.4850001335
1470.0	0.0006653	85.5160000324
1470.0	0.0006653	85.5629999638
1470.0	0.000665	85.6100001335
1470.0	0.0006648	85.6410000324
1470.0	0.0006643	85.6879999638
1470.0	0.0006643	85.7190001011
1470.0	0.0006643	85.7660000324
1470.0	0.0006648	85.8129999638
1470.0	0.000665	85.8440001011
1470.0	0.0006653	85.8910000324
1470.0	0.0006655	85.9379999638
1470.0	0.0006655	85.9690001011
1470.0	0.0006655	86.0160000324
1480.0	0.000668	86.2820000648
1480.0	0.000669	86.3289999962
1480.0	0.0006698	86.3600001335
1480.0	0.0006703	86.4070000648
1480.0	0.000671	86.4539999962
1480.0	0.0006715	86.4850001335
1480.0	0.0006718	86.5320000648
1480.0	0.0006718	86.5789999962
1480.0	0.0006723	86.6100001335
1480.0	0.0006723	86.6570000648
1480.0	0.0006718	86.6879999638
1480.0	0.0006715	86.7350001335
1480.0	0.0006715	86.7820000648
1480.0	0.0006718	86.8289999962
1480.0	0.0006718	86.8600001335
1480.0	0.0006723	86.9070000648
1480.0	0.0006723	86.9379999638
1480.0	0.0006723	86.9850001335
1480.0	0.0006725	87.0320000648
1480.0	0.0006725	87.0629999638
1480.0	0.0006728	87.1100001335
1480.0	0.0006728	87.1570000648
1480.0	0.0006728	87.1879999638
1480.0	0.0006728	87.2350001335
1490.0	0.0006748	87.5
1490.0	0.000675	87.5469999313
1490.0	0.0006755	87.5789999962
1490.0	0.000676	87.625
1490.0	0.000676	87.6719999313
1490.0	0.000676	87.7039999962
1490.0	0.000676	87.75
1490.0	0.0006763	87.7969999313
1490.0	0.0006765	87.8289999962
1490.0	0.0006765	87.875
1490.0	0.0006765	87.9070000648
1490.0	0.0006765	87.9539999962
1490.0	0.0006765	88.0
1490.0	0.0006765	88.0320000648
1490.0	0.0006765	88.0789999962
1490.0	0.0006765	88.125
1490.0	0.0006763	88.1570000648
1490.0	0.0006763	88.2039999962
1490.0	0.0006763	88.2350001335
1490.0	0.000676	88.2820000648
1490.0	0.000676	88.3289999962
1490.0	0.000676	88.3600001335
1490.0	0.000676	88.4070000648
1490.0	0.000676	88.4539999962
1500.0	0.0006773	88.7190001011
1500.0	0.0006773	88.7660000324
1500.0	0.0006778	88.7969999313
1500.0	0.0006778	88.8440001011
1500.0	0.0006778	88.8910000324
1500.0	0.0006778	88.9219999313
1500.0	0.0006778	88.9690001011
1500.0	0.0006778	89.0
1500.0	0.000678	89.0469999313
1500.0	0.000678	89.0940001011
1500.0	0.000678	89.125
1500.0	0.000678	89.1719999313
1500.0	0.000678	89.2190001011
1500.0	0.000678	89.25
1500.0	0.0006785	89.2969999313
1500.0	0.0006785	89.3440001011
1500.0	0.0006785	89.375
1500.0	0.0006785	89.4219999313
1500.0	0.0006785	89.4690001011
1500.0	0.000678	89.5
1500.0	0.0006778	89.5469999313
1500.0	0.000678	89.5789999962
1500.0	0.0006778	89.625
1500.0	0.0006775	89.6719999313
1510.0	0.0006765	89.9379999638
1510.0	0.0006763	89.9850001335
1510.0	0.0006763	90.0320000648
1510.0	0.0006765	90.0629999638
1510.0	0.0006765	90.1100001335
1510.0	0.0006765	90.1570000648
1510.0	0.0006765	90.1879999638
1510.0	0.0006765	90.2350001335
1510.0	0.0006763	90.2820000648
1510.0	0.0006755	90.3129999638
1510.0	0.0006753	90.3600001335
1510.0	0.0006753	90.4070000648
1510.0	0.0006753	90.4379999638
1510.0	0.0006753	90.4850001335
1510.0	0.0006755	90.5160000324
1510.0	0.000676	90.5629999638
1510.0	0.0006763	90.6100001335
1510.0	0.0006765	90.6410000324
1510.0	0.0006768	90.6879999638
1510.0	0.0006768	90.7350001335
1510.0	0.0006765	90.7660000324
1510.0	0.0006765	90.8129999638
1510.0	0.0006765	90.8600001335
1510.0	0.0006765	90.8910000324
1510.0	0.0006765	90.9379999638
1520.0	0.000675	91.2039999962
1520.0	0.0006743	91.25
1520.0	0.000674	91.2969999313
1520.0	0.0006738	91.3289999962
1520.0	0.0006738	91.375
1520.0	0.0006738	91.4070000648
1520.0	0.0006735	91.4539999962
1520.0	0.000673	91.5
1520.0	0.0006728	91.5320000648
1520.0	0.0006725	91.5789999962
1520.0	0.0006725	91.625
1520.0	0.0006725	91.6570000648
1520.0	0.0006725	91.7039999962
1520.0	0.0006728	91.7350001335
1520.0	0.000673	91.7820000648
1520.0	0.0006735	91.8289999962
1520.0	0.0006735	91.8600001335
1520.0	0.0006735	91.9070000648
1520.0	0.0006735	91.9539999962
1520.0	0.0006735	91.9850001335
1520.0	0.0006735	92.0320000648
1520.0	0.0006735	92.0789999962
1520.0	0.000673	92.1100001335
1520.0	0.000673	92.1570000648
1530.0	0.000671	92.4379999638
1530.0	0.0006703	92.4690001011
1530.0	0.0006693	92.5160000324
1530.0	0.0006688	92.5629999638
1530.0	0.0006685	92.5940001011
1530.0	0.0006678	92.6410000324
1530.0	0.0006675	92.6719999313
1530.0	0.0006673	92.7190001011
1530.0	0.0006668	92.7660000324
1530.0	0.0006668	92.7969999313
1530.0	0.0006673	92.8440001011
1530.0	0.0006675	92.8910000324
1530.0	0.0006673	92.9219999313
1530.0	0.0006673	92.9690001011
1530.0	0.0006673	93.0
1530.0	0.0006673	93.0469999313
1530.0	0.0006668	93.0940001011
1530.0	0.0006668	93.125
1530.0	0.0006665	93.1719999313
1530.0	0.0006665	93.2190001011
1530.0	0.0006665	93.25
1530.0	0.0006665	93.2969999313
1530.0	0.0006665	93.3289999962
1530.0	0.0006665	93.375
1530.0	0.0006665	93.4219999313
1540.0	0.0006635	93.6879999638
1540.0	0.0006623	93.7350001335
1540.0	0.0006605	93.7820000648
1540.0	0.000659	93.8289999962
1540.0	0.0006585	93.8600001335
1540.0	0.0006575	93.9070000648
1540.0	0.0006568	93.9379999638
1540.0	0.0006565	93.9850001335
1540.0	0.0006563	94.0320000648
1540.0	0.000656	94.0629999638
1540.0	0.0006563	94.1100001335
1540.0	0.000656	94.1570000648
1540.0	0.0006555	94.1879999638
1540.0	0.000656	94.2350001335
1540.0	0.0006555	94.2660000324
1540.0	0.0006555	94.3129999638
1540.0	0.0006553	94.3600001335
1540.0	0.0006553	94.3910000324
1540.0	0.0006555	94.4379999638
1540.0	0.000656	94.4850001335
1540.0	0.000656	94.5160000324
1540.0	0.0006555	94.5629999638
1540.0	0.000656	94.5940001011
1540.0	0.0006555	94.6410000324
1540.0	0.0006553	94.6879999638
1550.0	0.0006503	94.9539999962
1550.0	0.0006485	95.0
1550.0	0.0006468	95.0469999313
1550.0	0.000646	95.0789999962
1550.0	0.0006448	95.125
1550.0	0.0006438	95.1570000648
1550.0	0.0006428	95.2039999962
1550.0	0.0006423	95.25
1550.0	0.0006418	95.2820000648
1550.0	0.0006418	95.3289999962
1550.0	0.0006415	95.375
1550.0	0.0006413	95.4070000648
1550.0	0.000641	95.4539999962
1550.0	0.0006405	95.5
1550.0	0.0006405	95.5320000648
1550.0	0.0006405	95.5789999962
1550.0	0.0006405	95.625
1550.0	0.0006403	95.6570000648
1550.0	0.0006403	95.7039999962
1550.0	0.00064	95.75
1550.0	0.00064	95.7820000648
1550.0	0.00064	95.8289999962
1550.0	0.0006403	95.8600001335
1550.0	0.0006403	95.9070000648
1550.0	0.0006403	95.9539999962
1560.0	0.0006345	96.2190001011
1560.0	0.000632	96.2660000324
1560.0	0.00063	96.2969999313
1560.0	0.0006283	96.3440001011
1560.0	0.0006268	96.375
1560.0	0.0006258	96.4219999313
1560.0	0.0006253	96.4690001011
1560.0	0.000625	96.5
1560.0	0.0006243	96.5469999313
1560.0	0.0006238	96.5940001011
1560.0	0.000623	96.625
1560.0	0.000623	96.6719999313
1560.0	0.000623	96.7190001011
1560.0	0.0006233	96.75
1560.0	0.0006233	96.7969999313
1560.0	0.000623	96.8289999962
1560.0	0.0006228	96.875
1560.0	0.0006225	96.9219999313
1560.0	0.0006225	96.9539999962
1560.0	0.0006225	97.0
1560.0	0.0006225	97.0469999313
1560.0	0.0006225	97.0789999962
1560.0	0.0006225	97.125
1560.0	0.0006225	97.1570000648
1560.0	0.000622	97.2039999962
1570.0	0.000615	97.4850001335
1570.0	0.0006125	97.5320000648
1570.0	0.0006095	97.5629999638
1570.0	0.0006075	97.6100001335
1570.0	0.0006058	97.6570000648
1570.0	0.0006043	97.6879999638
1570.0	0.000603	97.7350001335
1570.0	0.000602	97.7820000648
1570.0	0.0006018	97.8129999638
1570.0	0.0006018	97.8600001335
1570.0	0.0006018	97.9070000648
1570.0	0.0006018	97.9379999638
1570.0	0.0006015	97.9850001335
1570.0	0.0006008	98.0160000324
1570.0	0.0006008	98.0629999638
1570.0	0.0006013	98.1100001335
1570.0	0.0006013	98.1410000324
1570.0	0.0006013	98.1879999638
1570.0	0.0006015	98.2350001335
1570.0	0.0006013	98.2660000324
1570.0	0.0006013	98.3129999638
1570.0	0.0006015	98.3440001011
1570.0	0.0006018	98.3910000324
1570.0	0.0006015	98.4379999638
1580.0	0.0005925	98.7039999962
1580.0	0.000589	98.75
1580.0	0.0005863	98.7969999313
1580.0	0.0005838	98.8289999962
1580.0	0.0005818	98.875
1580.0	0.0005803	98.9070000648
1580.0	0.0005793	98.9539999962
1580.0	0.0005783	99.0
1580.0	0.0005775	99.0320000648
1580.0	0.0005768	99.0789999962
1580.0	0.0005768	99.125
1580.0	0.0005765	99.1570000648
1580.0	0.0005768	99.2039999962
1580.0	0.0005768	99.2350001335
1580.0	0.0005768	99.2820000648
1580.0	0.0005765	99.3289999962
1580.0	0.0005763	99.3600001335
1580.0	0.0005763	99.4070000648
1580.0	0.0005763	99.4539999962
1580.0	0.0005763	99.4850001335
1580.0	0.0005765	99.5320000648
1580.0	0.0005765	99.5789999962
1580.0	0.0005763	99.6100001335
1580.0	0.0005763	99.6570000648
1580.0	0.0005763	99.7039999962
1590.0	0.0005663	99.9690001011
1590.0	0.0005625	100.016000032
1590.0	0.0005593	100.046999931
1590.0	0.0005565	100.094000101
1590.0	0.0005543	100.141000032
1590.0	0.0005525	100.171999931
1590.0	0.0005513	100.219000101
1590.0	0.00055	100.266000032
1590.0	0.000549	100.296999931
1590.0	0.0005483	100.344000101
1590.0	0.0005483	100.391000032
1590.0	0.000548	100.421999931
1590.0	0.0005478	100.469000101
1590.0	0.0005475	100.5
1590.0	0.000547	100.546999931
1590.0	0.0005468	100.594000101
1590.0	0.000547	100.625
1590.0	0.0005475	100.671999931
1590.0	0.0005475	100.719000101
1590.0	0.000548	100.75
1590.0	0.0005483	100.796999931
1590.0	0.000548	100.828999996
1590.0	0.000548	100.875
1590.0	0.000548	100.921999931
1590.0	0.000548	100.953999996
1600.0	0.0005375	101.235000134
1600.0	0.0005328	101.282000065
1600.0	0.0005293	101.312999964
1600.0	0.0005263	101.360000134
1600.0	0.0005233	101.391000032
1600.0	0.0005215	101.437999964
1600.0	0.00052	101.485000134
1600.0	0.0005188	101.516000032
1600.0	0.000518	101.562999964
1600.0	0.0005175	101.610000134
1600.0	0.0005168	101.641000032
1600.0	0.0005168	101.687999964
1600.0	0.0005168	101.735000134
1600.0	0.0005165	101.766000032
1600.0	0.0005165	101.812999964
1600.0	0.0005165	101.844000101
1600.0	0.0005165	101.891000032
1600.0	0.0005165	101.937999964
1600.0	0.0005168	101.969000101
1600.0	0.0005168	102.016000032
1600.0	0.0005168	102.046999931
1600.0	0.0005168	102.094000101
1600.0	0.0005165	102.141000032
1600.0	0.0005163	102.171999931
1600.0	0.0005163	102.219000101
1610.0	0.000505	102.5
1610.0	0.0005003	102.546999931
1610.0	0.0004963	102.578999996
1610.0	0.0004928	102.625
1610.0	0.0004903	102.657000065
1610.0	0.000488	102.703999996
1610.0	0.0004868	102.75
1610.0	0.0004858	102.782000065
1610.0	0.0004853	102.828999996
1610.0	0.0004843	102.875
1610.0	0.0004838	102.907000065
1610.0	0.000483	102.953999996
1610.0	0.0004825	102.985000134
1610.0	0.000482	103.032000065
1610.0	0.0004818	103.078999996
1610.0	0.0004818	103.110000134
1610.0	0.0004818	103.157000065
1610.0	0.0004818	103.203999996
1610.0	0.0004818	103.235000134
1610.0	0.0004818	103.282000065
1610.0	0.0004818	103.312999964
1610.0	0.0004815	103.360000134
1610.0	0.000482	103.407000065
1610.0	0.000482	103.437999964
1610.0	0.000482	103.485000134
1620.0	0.0004693	103.766000032
1620.0	0.0004643	103.812999964
1620.0	0.0004603	103.844000101
1620.0	0.000457	103.891000032
1620.0	0.0004545	103.921999931
1620.0	0.0004525	103.969000101
1620.0	0.0004503	104.016000032
1620.0	0.0004488	104.046999931
1620.0	0.000448	104.094000101
1620.0	0.0004478	104.141000032
1620.0	0.000447	104.171999931
1620.0	0.000447	104.219000101
1620.0	0.0004468	104.25
1620.0	0.0004468	104.296999931
1620.0	0.0004468	104.344000101
1620.0	0.0004468	104.375
1620.0	0.0004465	104.421999931
1620.0	0.0004465	104.469000101
1620.0	0.0004463	104.5
1620.0	0.0004463	104.546999931
1620.0	0.0004463	104.578999996
1620.0	0.0004463	104.625
1620.0	0.0004463	104.671999931
1620.0	0.0004463	104.703999996
1620.0	0.0004458	104.75
1630.0	0.0004338	105.032000065
1630.0	0.0004288	105.062999964
1630.0	0.0004245	105.110000134
1630.0	0.0004215	105.157000065
1630.0	0.0004188	105.187999964
1630.0	0.0004163	105.235000134
1630.0	0.0004143	105.282000065
1630.0	0.000413	105.312999964
1630.0	0.0004125	105.360000134
1630.0	0.0004118	105.407000065
1630.0	0.0004113	105.437999964
1630.0	0.0004105	105.485000134
1630.0	0.0004105	105.532000065
1630.0	0.0004103	105.562999964
1630.0	0.0004105	105.610000134
1630.0	0.0004105	105.657000065
1630.0	0.0004105	105.687999964
1630.0	0.0004105	105.735000134
1630.0	0.0004105	105.766000032
1630.0	0.0004105	105.812999964
1630.0	0.0004103	105.860000134
1630.0	0.00041	105.891000032
1630.0	0.00041	105.937999964
1630.0	0.00041	105.985000134
1640.0	0.0003965	106.266000032
1640.0	0.0003918	106.296999931
1640.0	0.000388	106.344000101
1640.0	0.000385	106.391000032
1640.0	0.000382	106.421999931
1640.0	0.00038	106.469000101
1640.0	0.0003783	106.5
1640.0	0.000377	106.546999931
1640.0	0.0003763	106.594000101
1640.0	0.0003753	106.625
1640.0	0.000375	106.671999931
1640.0	0.0003743	106.719000101
1640.0	0.0003743	106.75
1640.0	0.000374	106.796999931
1640.0	0.0003738	106.828999996
1640.0	0.0003738	106.875
1640.0	0.0003738	106.921999931
1640.0	0.0003738	106.953999996
1640.0	0.0003733	107.0
1640.0	0.0003733	107.046999931
1640.0	0.0003733	107.078999996
1640.0	0.0003733	107.125
1640.0	0.000373	107.171999931
1640.0	0.0003733	107.203999996
1640.0	0.000373	107.25
1650.0	0.0003605	107.532000065
1650.0	0.0003558	107.578999996
1650.0	0.0003525	107.610000134
1650.0	0.0003495	107.657000065
1650.0	0.0003475	107.687999964
1650.0	0.0003455	107.735000134
1650.0	0.0003438	107.782000065
1650.0	0.0003425	107.812999964
1650.0	0.0003415	107.860000134
1650.0	0.0003408	107.907000065
1650.0	0.0003405	107.937999964
1650.0	0.0003405	107.985000134
1650.0	0.0003405	108.016000032
1650.0	0.0003405	108.062999964
1650.0	0.0003403	108.110000134
1650.0	0.0003403	108.157000065
1650.0	0.0003403	108.187999964
1650.0	0.0003403	108.235000134
1650.0	0.00034	108.282000065
1650.0	0.00034	108.312999964
1650.0	0.0003395	108.360000134
1650.0	0.0003395	108.391000032
1650.0	0.0003393	108.437999964
1650.0	0.0003395	108.485000134
1660.0	0.0003275	108.766000032
1660.0	0.0003233	108.796999931
1660.0	0.0003195	108.844000101
1660.0	0.0003168	108.891000032
1660.0	0.0003145	108.921999931
1660.0	0.000313	108.969000101
1660.0	0.0003115	109.016000032
1660.0	0.0003105	109.046999931
1660.0	0.0003095	109.094000101
1660.0	0.0003088	109.125
1660.0	0.000308	109.171999931
1660.0	0.0003078	109.219000101
1660.0	0.0003075	109.25
1660.0	0.0003075	109.296999931
1660.0	0.0003078	109.344000101
1660.0	0.0003075	109.375
1660.0	0.0003075	109.421999931
1660.0	0.0003075	109.469000101
1660.0	0.0003075	109.5
1660.0	0.0003075	109.546999931
1660.0	0.0003078	109.594000101
1660.0	0.0003078	109.625
1660.0	0.0003078	109.671999931
1660.0	0.0003078	109.703999996
1670.0	0.0002975	110.0
1670.0	0.0002938	110.032000065
1670.0	0.0002905	110.078999996
1670.0	0.0002878	110.125
1670.0	0.0002858	110.157000065
1670.0	0.000284	110.203999996
1670.0	0.0002828	110.235000134
1670.0	0.0002818	110.282000065
1670.0	0.0002808	110.328999996
1670.0	0.00028	110.360000134
1670.0	0.0002793	110.407000065
1670.0	0.000279	110.453999996
1670.0	0.000279	110.485000134
1670.0	0.000279	110.532000065
1670.0	0.000279	110.562999964
1670.0	0.0002788	110.610000134
1670.0	0.0002788	110.657000065
1670.0	0.0002783	110.687999964
1670.0	0.0002783	110.735000134
1670.0	0.0002783	110.782000065
1670.0	0.000278	110.812999964
1670.0	0.0002783	110.860000134
1670.0	0.0002783	110.891000032
1670.0	0.0002783	110.937999964
1670.0	0.000278	110.985000134
1680.0	0.0002688	111.266000032
1680.0	0.0002653	111.296999931
1680.0	0.0002625	111.344000101
1680.0	0.00026	111.391000032
1680.0	0.000258	111.421999931
1680.0	0.0002565	111.469000101
1680.0	0.0002555	111.516000032
1680.0	0.0002545	111.546999931
1680.0	0.000254	111.594000101
1680.0	0.0002533	111.641000032
1680.0	0.000253	111.671999931
1680.0	0.000253	111.719000101
1680.0	0.000253	111.75
1680.0	0.0002528	111.796999931
1680.0	0.0002525	111.844000101
1680.0	0.000252	111.875
1680.0	0.0002518	111.921999931
1680.0	0.0002518	111.969000101
1680.0	0.0002518	112.0
1680.0	0.0002518	112.046999931
1680.0	0.000252	112.078999996
1680.0	0.0002518	112.125
1680.0	0.000252	112.171999931
1680.0	0.0002518	112.219000101
1690.0	0.0002433	112.5
1690.0	0.0002405	112.546999931
1690.0	0.000238	112.578999996
1690.0	0.0002363	112.625
1690.0	0.0002343	112.671999931
1690.0	0.000233	112.703999996
1690.0	0.0002325	112.75
1690.0	0.0002315	112.782000065
1690.0	0.0002313	112.828999996
1690.0	0.0002308	112.875
1690.0	0.0002303	112.907000065
1690.0	0.00023	112.953999996
1690.0	0.0002295	113.0
1690.0	0.0002295	113.032000065
1690.0	0.0002295	113.078999996
1690.0	0.0002293	113.110000134
1690.0	0.0002293	113.157000065
1690.0	0.0002293	113.203999996
1690.0	0.0002293	113.235000134
1690.0	0.0002295	113.282000065
1690.0	0.00023	113.328999996
1690.0	0.00023	113.360000134
1690.0	0.0002295	113.407000065
1690.0	0.00023	113.453999996
1700.0	0.0002208	113.735000134
1700.0	0.000218	113.782000065
1700.0	0.0002158	113.812999964
1700.0	0.0002138	113.860000134
1700.0	0.0002125	113.907000065
1700.0	0.0002118	113.937999964
1700.0	0.0002105	113.985000134
1700.0	0.00021	114.032000065
1700.0	0.0002093	114.062999964
1700.0	0.000209	114.110000134
1700.0	0.000209	114.141000032
1700.0	0.000209	114.187999964
1700.0	0.000209	114.235000134
1700.0	0.0002093	114.266000032
1700.0	0.0002093	114.312999964
1700.0	0.0002093	114.360000134
1700.0	0.0002093	114.391000032
1700.0	0.0002093	114.437999964
1700.0	0.0002093	114.469000101
1700.0	0.0002095	114.516000032
1700.0	0.0002095	114.562999964
1700.0	0.0002095	114.594000101
1700.0	0.0002095	114.641000032
1700.0	0.0002095	114.687999964
1710.0	0.0002028	114.969000101
1710.0	0.0002	115.016000032
1710.0	0.0001978	115.046999931
1710.0	0.0001958	115.094000101
1710.0	0.0001945	115.125
1710.0	0.000194	115.171999931
1710.0	0.0001933	115.219000101
1710.0	0.0001928	115.25
1710.0	0.0001925	115.296999931
1710.0	0.000192	115.344000101
1710.0	0.0001918	115.375
1710.0	0.0001918	115.421999931
1710.0	0.0001918	115.469000101
1710.0	0.0001918	115.5
1710.0	0.0001918	115.546999931
1710.0	0.0001915	115.578999996
1710.0	0.0001915	115.625
1710.0	0.0001913	115.671999931
1710.0	0.0001913	115.703999996
1710.0	0.0001913	115.75
1710.0	0.0001913	115.796999931
1710.0	0.0001913	115.828999996
1710.0	0.0001913	115.875
1710.0	0.0001913	115.921999931
1720.0	0.0001843	116.203999996
1720.0	0.0001818	116.25
1720.0	0.00018	116.282000065
1720.0	0.0001783	116.328999996
1720.0	0.0001775	116.375
1720.0	0.0001765	116.407000065
1720.0	0.0001763	116.453999996
1720.0	0.0001763	116.485000134
1720.0	0.0001758	116.532000065
1720.0	0.0001753	116.578999996
1720.0	0.000175	116.610000134
1720.0	0.0001753	116.657000065
1720.0	0.000175	116.703999996
1720.0	0.0001753	116.735000134
1720.0	0.0001753	116.782000065
1720.0	0.0001753	116.828999996
1720.0	0.0001753	116.875
1720.0	0.0001753	116.907000065
1720.0	0.0001745	116.953999996
1720.0	0.0001745	117.0
1720.0	0.0001743	117.032000065
1720.0	0.000174	117.078999996
1720.0	0.000174	117.110000134
1720.0	0.000174	117.157000065
1730.0	0.0001688	117.437999964
1730.0	0.000167	117.485000134
1730.0	0.0001653	117.532000065
1730.0	0.0001638	117.562999964
1730.0	0.0001625	117.610000134
1730.0	0.0001615	117.657000065
1730.0	0.0001608	117.687999964
1730.0	0.0001608	117.735000134
1730.0	0.0001605	117.782000065
1730.0	0.0001605	117.812999964
1730.0	0.0001603	117.860000134
1730.0	0.0001603	117.891000032
1730.0	0.00016	117.937999964
1730.0	0.00016	117.985000134
1730.0	0.00016	118.016000032
1730.0	0.0001595	118.062999964
1730.0	0.0001595	118.110000134
1730.0	0.0001595	118.141000032
1730.0	0.0001593	118.187999964
1730.0	0.0001595	118.219000101
1730.0	0.0001595	118.266000032
1730.0	0.0001595	118.312999964
1730.0	0.0001595	118.344000101
1730.0	0.0001595	118.391000032
1730.0	0.0001595	118.437999964
1740.0	0.000154	118.719000101
1740.0	0.000152	118.766000032
1740.0	0.0001505	118.796999931
1740.0	0.0001495	118.844000101
1740.0	0.0001488	118.891000032
1740.0	0.0001475	118.937999964
1740.0	0.0001468	118.969000101
1740.0	0.0001463	119.016000032
1740.0	0.0001463	119.062999964
1740.0	0.0001458	119.094000101
1740.0	0.0001455	119.141000032
1740.0	0.000145	119.187999964
1740.0	0.0001445	119.219000101
1740.0	0.0001445	119.266000032
1740.0	0.0001445	119.312999964
1740.0	0.0001445	119.344000101
1740.0	0.0001445	119.391000032
1740.0	0.0001445	119.421999931
1740.0	0.0001445	119.469000101
1740.0	0.000145	119.516000032
1740.0	0.000145	119.546999931
1740.0	0.000145	119.594000101
1740.0	0.000145	119.641000032
1740.0	0.000145	119.671999931
1740.0	0.000145	119.719000101
1750.0	0.000139	120.016000032
1750.0	0.0001375	120.046999931
1750.0	0.0001358	120.094000101
1750.0	0.000135	120.141000032
1750.0	0.000134	120.171999931
1750.0	0.000133	120.219000101
1750.0	0.0001325	120.25
1750.0	0.0001318	120.296999931
1750.0	0.0001313	120.344000101
1750.0	0.0001303	120.375
1750.0	0.00013	120.421999931
1750.0	0.00013	120.469000101
1750.0	0.0001303	120.516000032
1750.0	0.0001305	120.546999931
1750.0	0.0001305	120.594000101
1750.0	0.0001305	120.625
1750.0	0.0001305	120.671999931
1750.0	0.0001305	120.719000101
1750.0	0.0001305	120.766000032
1750.0	0.0001305	120.796999931
1750.0	0.0001305	120.844000101
1750.0	0.0001305	120.875
1750.0	0.0001308	120.921999931
1750.0	0.0001305	120.969000101
1760.0	0.0001245	121.266000032
1760.0	0.0001228	121.312999964
1760.0	0.0001215	121.344000101
1760.0	0.0001203	121.391000032
1760.0	0.0001193	121.421999931
1760.0	0.000119	121.469000101
1760.0	0.0001183	121.516000032
1760.0	0.000118	121.546999931
1760.0	0.0001178	121.594000101
1760.0	0.0001175	121.641000032
1760.0	0.0001175	121.671999931
1760.0	0.000117	121.719000101
1760.0	0.000117	121.75
1760.0	0.0001168	121.796999931
1760.0	0.0001168	121.844000101
1760.0	0.0001168	121.875
1760.0	0.000117	121.921999931
1760.0	0.000117	121.969000101
1760.0	0.000117	122.0
1760.0	0.000117	122.046999931
1760.0	0.000117	122.094000101
1760.0	0.000117	122.125
1760.0	0.0001168	122.171999931
1760.0	0.0001168	122.203999996
1760.0	0.0001168	122.25
1770.0	0.0001113	122.546999931
1770.0	0.0001093	122.594000101
1770.0	0.000108	122.641000032
1770.0	0.000107	122.671999931
1770.0	0.0001065	122.719000101
1770.0	0.0001058	122.766000032
1770.0	0.0001053	122.796999931
1770.0	0.000105	122.844000101
1770.0	0.0001045	122.891000032
1770.0	0.0001045	122.921999931
1770.0	0.0001045	122.969000101
1770.0	0.000105	123.0
1770.0	0.0001053	123.046999931
1770.0	0.0001053	123.094000101
1770.0	0.0001053	123.141000032
1770.0	0.0001053	123.171999931
1770.0	0.0001053	123.219000101
1770.0	0.0001055	123.25
1770.0	0.0001055	123.296999931
1770.0	0.0001055	123.344000101
1770.0	0.0001053	123.375
1770.0	0.0001053	123.421999931
1770.0	0.0001055	123.469000101
1770.0	0.0001053	123.5
1770.0	0.0001053	123.546999931
1780.0	0.0001003	123.844000101
1780.0	9.88e-05	123.891000032
1780.0	9.75e-05	123.937999964
1780.0	9.65e-05	123.969000101
1780.0	9.55e-05	124.016000032
1780.0	9.5e-05	124.046999931
1780.0	9.45e-05	124.094000101
1780.0	9.43e-05	124.141000032
1780.0	9.38e-05	124.171999931
1780.0	9.33e-05	124.219000101
1780.0	9.33e-05	124.266000032
1780.0	9.3e-05	124.296999931
1780.0	9.33e-05	124.344000101
1780.0	9.33e-05	124.375
1780.0	9.33e-05	124.421999931
1780.0	9.33e-05	124.469000101
1780.0	9.33e-05	124.516000032
1780.0	9.3e-05	124.546999931
1780.0	9.33e-05	124.594000101
1780.0	9.33e-05	124.625
1780.0	9.38e-05	124.671999931
1780.0	9.38e-05	124.719000101
1780.0	9.38e-05	124.75
1780.0	9.38e-05	124.796999931
1780.0	9.33e-05	124.844000101
1790.0	8.88e-05	125.141000032
1790.0	8.75e-05	125.187999964
1790.0	8.63e-05	125.219000101
1790.0	8.5e-05	125.266000032
1790.0	8.43e-05	125.312999964
1790.0	8.43e-05	125.344000101
1790.0	8.4e-05	125.391000032
1790.0	8.33e-05	125.421999931
1790.0	8.3e-05	125.469000101
1790.0	8.28e-05	125.516000032
1790.0	8.28e-05	125.546999931
1790.0	8.2e-05	125.594000101
1790.0	8.18e-05	125.641000032
1790.0	8.15e-05	125.671999931
1790.0	8.13e-05	125.719000101
1790.0	8.13e-05	125.75
1790.0	8.15e-05	125.796999931
1790.0	8.15e-05	125.844000101
1790.0	8.18e-05	125.875
1790.0	8.18e-05	125.921999931
1790.0	8.2e-05	125.969000101
1790.0	8.2e-05	126.0
1790.0	8.2e-05	126.046999931
1790.0	8.2e-05	126.094000101
1800.0	7.75e-05	126.391000032
1800.0	7.63e-05	126.437999964
1800.0	7.5e-05	126.469000101
1800.0	7.4e-05	126.516000032
1800.0	7.33e-05	126.546999931
1800.0	7.28e-05	126.594000101
1800.0	7.25e-05	126.641000032
1800.0	7.18e-05	126.671999931
1800.0	7.15e-05	126.719000101
1800.0	7.13e-05	126.766000032
1800.0	7.15e-05	126.796999931
1800.0	7.18e-05	126.844000101
1800.0	7.18e-05	126.875
1800.0	7.18e-05	126.921999931
1800.0	7.15e-05	126.969000101
1800.0	7.15e-05	127.0
1800.0	7.15e-05	127.046999931
1800.0	7.15e-05	127.094000101
1800.0	7.15e-05	127.125
1800.0	7.13e-05	127.171999931
1800.0	7.13e-05	127.219000101
1800.0	7.13e-05	127.25
1800.0	7.15e-05	127.296999931
1800.0	7.15e-05	127.328999996
1800.0	7.13e-05	127.375
