Your edit line - do NOT delete this line
Wavelength [nm], Voltage [V], Elapsed time [s]
1000.0	0.0008443	15.7970001698
1000.0	0.0008403	15.8440001011
1000.0	0.0008365	15.875
1000.0	0.0008343	15.9220001698
1000.0	0.000833	15.9539999962
1000.0	0.0008313	16.0
1000.0	0.0008298	16.0470001698
1000.0	0.000828	16.0789999962
1000.0	0.0008278	16.125
1000.0	0.0008275	16.1570000648
1000.0	0.0008275	16.2039999962
1000.0	0.0008273	16.25
1000.0	0.0008265	16.2820000648
1000.0	0.0008268	16.3289999962
1000.0	0.0008278	16.375
1000.0	0.0008278	16.4070000648
1000.0	0.0008275	16.4539999962
1000.0	0.0008275	16.5
1000.0	0.0008268	16.5320000648
1000.0	0.0008265	16.5789999962
1000.0	0.0008263	16.6100001335
1000.0	0.0008253	16.6570000648
1000.0	0.000825	16.7039999962
1000.0	0.0008238	16.7350001335
1000.0	0.0008238	16.7820000648
1000.0	0.000824	16.8289999962
1000.0	0.000825	16.8600001335
1000.0	0.0008248	16.9070000648
1000.0	0.0008235	16.9380002022
1000.0	0.0008223	16.9850001335
1000.0	0.0008225	17.0320000648
1000.0	0.0008235	17.0630002022
1000.0	0.0008243	17.1100001335
1000.0	0.0008243	17.1570000648
1000.0	0.0008238	17.1880002022
1000.0	0.0008213	17.2350001335
1000.0	0.0008198	17.2660000324
1010.0	0.0008298	17.5470001698
1010.0	0.0008328	17.5940001011
1010.0	0.000834	17.6410000324
1010.0	0.0008353	17.6720001698
1010.0	0.0008365	17.7190001011
1010.0	0.000839	17.7660000324
1010.0	0.0008415	17.7970001698
1010.0	0.0008423	17.8440001011
1010.0	0.0008415	17.875
1010.0	0.0008415	17.9220001698
1010.0	0.0008413	17.9690001011
1010.0	0.0008413	18.0
1010.0	0.0008405	18.0470001698
1010.0	0.0008418	18.0940001011
1010.0	0.0008425	18.125
1010.0	0.0008423	18.1720001698
1010.0	0.000841	18.2039999962
1010.0	0.0008418	18.25
1010.0	0.000843	18.2970001698
1010.0	0.000844	18.3289999962
1010.0	0.000843	18.375
1010.0	0.0008435	18.4220001698
1010.0	0.000844	18.4539999962
1010.0	0.0008435	18.5
1010.0	0.000843	18.5320000648
1010.0	0.0008448	18.5789999962
1010.0	0.0008465	18.625
1010.0	0.0008475	18.6570000648
1010.0	0.000848	18.7039999962
1010.0	0.0008485	18.75
1010.0	0.000849	18.7820000648
1010.0	0.0008485	18.8289999962
1010.0	0.0008473	18.8600001335
1010.0	0.0008478	18.9070000648
1010.0	0.000848	18.9539999962
1010.0	0.0008485	18.9850001335
1010.0	0.0008485	19.0320000648
1020.0	0.000854	19.3130002022
1020.0	0.0008568	19.3600001335
1020.0	0.0008588	19.3910000324
1020.0	0.0008605	19.4380002022
1020.0	0.0008623	19.4690001011
1020.0	0.0008635	19.5160000324
1020.0	0.0008648	19.5630002022
1020.0	0.0008648	19.5940001011
1020.0	0.0008653	19.6410000324
1020.0	0.0008665	19.6880002022
1020.0	0.0008675	19.7190001011
1020.0	0.0008678	19.7660000324
1020.0	0.0008685	19.7970001698
1020.0	0.0008688	19.8440001011
1020.0	0.0008688	19.8910000324
1020.0	0.000869	19.9220001698
1020.0	0.0008693	19.9690001011
1020.0	0.0008693	20.0160000324
1020.0	0.0008693	20.0470001698
1020.0	0.0008685	20.0940001011
1020.0	0.000868	20.1410000324
1020.0	0.0008673	20.1720001698
1020.0	0.0008673	20.2190001011
1020.0	0.0008678	20.25
1020.0	0.0008675	20.2970001698
1020.0	0.0008668	20.3440001011
1020.0	0.0008663	20.375
1020.0	0.0008655	20.4220001698
1020.0	0.0008663	20.4690001011
1020.0	0.000865	20.5
1020.0	0.0008648	20.5470001698
1020.0	0.0008655	20.5940001011
1020.0	0.0008668	20.625
1020.0	0.0008685	20.6720001698
1020.0	0.00087	20.7190001011
1020.0	0.0008715	20.75
1020.0	0.0008725	20.7970001698
1030.0	0.0008763	21.0789999962
1030.0	0.0008785	21.125
1030.0	0.0008803	21.1570000648
1030.0	0.0008818	21.2039999962
1030.0	0.0008835	21.2350001335
1030.0	0.000885	21.2820000648
1030.0	0.0008853	21.3289999962
1030.0	0.0008853	21.3600001335
1030.0	0.0008853	21.4070000648
1030.0	0.000884	21.4539999962
1030.0	0.0008835	21.4850001335
1030.0	0.0008835	21.5320000648
1030.0	0.0008853	21.5630002022
1030.0	0.0008863	21.6100001335
1030.0	0.0008873	21.6570000648
1030.0	0.0008888	21.6880002022
1030.0	0.000891	21.7350001335
1030.0	0.0008918	21.7820000648
1030.0	0.0008918	21.8130002022
1030.0	0.0008918	21.8600001335
1030.0	0.0008913	21.8910000324
1030.0	0.0008903	21.9380002022
1030.0	0.0008905	21.9850001335
1030.0	0.0008913	22.0160000324
1030.0	0.0008923	22.0630002022
1030.0	0.0008925	22.1100001335
1030.0	0.000893	22.1410000324
1030.0	0.0008935	22.1880002022
1030.0	0.0008943	22.2350001335
1030.0	0.0008938	22.2660000324
1030.0	0.0008918	22.3130002022
1030.0	0.0008913	22.3440001011
1030.0	0.0008915	22.3910000324
1030.0	0.000891	22.4380002022
1030.0	0.000891	22.4690001011
1030.0	0.0008918	22.5160000324
1030.0	0.0008925	22.5630002022
1040.0	0.0008968	22.8289999962
1040.0	0.0009003	22.875
1040.0	0.0009025	22.9220001698
1040.0	0.0009043	22.9539999962
1040.0	0.000906	23.0
1040.0	0.000906	23.0470001698
1040.0	0.0009075	23.0789999962
1040.0	0.0009085	23.125
1040.0	0.0009088	23.1570000648
1040.0	0.0009088	23.2039999962
1040.0	0.0009085	23.25
1040.0	0.0009088	23.2820000648
1040.0	0.000909	23.3289999962
1040.0	0.00091	23.375
1040.0	0.0009088	23.4070000648
1040.0	0.0009078	23.4539999962
1040.0	0.0009073	23.4850001335
1040.0	0.0009075	23.5320000648
1040.0	0.0009085	23.5789999962
1040.0	0.0009093	23.6100001335
1040.0	0.0009113	23.6570000648
1040.0	0.0009115	23.7039999962
1040.0	0.0009118	23.7350001335
1040.0	0.000913	23.7820000648
1040.0	0.0009135	23.8289999962
1040.0	0.0009135	23.8600001335
1040.0	0.0009128	23.9070000648
1040.0	0.0009115	23.9380002022
1040.0	0.0009118	23.9850001335
1040.0	0.0009118	24.0320000648
1040.0	0.000911	24.0630002022
1040.0	0.0009103	24.1100001335
1040.0	0.0009098	24.1570000648
1040.0	0.0009098	24.1880002022
1040.0	0.00091	24.2350001335
1040.0	0.000911	24.2660000324
1040.0	0.0009113	24.3130002022
1050.0	0.0009198	24.5940001011
1050.0	0.0009225	24.6410000324
1050.0	0.0009248	24.6720001698
1050.0	0.000926	24.7190001011
1050.0	0.0009263	24.7660000324
1050.0	0.0009268	24.8130002022
1050.0	0.0009285	24.8440001011
1050.0	0.0009285	24.8910000324
1050.0	0.000928	24.9220001698
1050.0	0.0009265	24.9690001011
1050.0	0.0009253	25.0160000324
1050.0	0.0009265	25.0470001698
1050.0	0.0009285	25.0940001011
1050.0	0.000928	25.1410000324
1050.0	0.0009278	25.1720001698
1050.0	0.0009278	25.2190001011
1050.0	0.0009285	25.25
1050.0	0.0009285	25.2970001698
1050.0	0.0009288	25.3440001011
1050.0	0.000929	25.375
1050.0	0.000929	25.4220001698
1050.0	0.0009288	25.4690001011
1050.0	0.00093	25.5
1050.0	0.0009313	25.5470001698
1050.0	0.0009328	25.5940001011
1050.0	0.0009335	25.625
1050.0	0.0009323	25.6720001698
1050.0	0.0009315	25.7039999962
1050.0	0.000931	25.75
1050.0	0.0009298	25.7970001698
1050.0	0.0009303	25.8440001011
1050.0	0.0009315	25.875
1050.0	0.0009305	25.9220001698
1050.0	0.0009298	25.9539999962
1050.0	0.0009293	26.0
1050.0	0.0009288	26.0470001698
1060.0	0.0009373	26.3289999962
1060.0	0.0009398	26.3600001335
1060.0	0.0009425	26.4070000648
1060.0	0.0009448	26.4539999962
1060.0	0.0009453	26.4850001335
1060.0	0.0009463	26.5320000648
1060.0	0.000946	26.5789999962
1060.0	0.0009443	26.6100001335
1060.0	0.000943	26.6570000648
1060.0	0.0009435	26.7039999962
1060.0	0.0009448	26.7350001335
1060.0	0.0009465	26.7820000648
1060.0	0.000948	26.8289999962
1060.0	0.00095	26.8600001335
1060.0	0.0009505	26.9070000648
1060.0	0.0009515	26.9539999962
1060.0	0.000951	26.9850001335
1060.0	0.000951	27.0320000648
1060.0	0.0009505	27.0630002022
1060.0	0.0009498	27.1100001335
1060.0	0.0009498	27.1570000648
1060.0	0.000951	27.1880002022
1060.0	0.000951	27.2350001335
1060.0	0.00095	27.2820000648
1060.0	0.000949	27.3130002022
1060.0	0.000949	27.3600001335
1060.0	0.0009503	27.3910000324
1060.0	0.0009505	27.4380002022
1060.0	0.000951	27.4850001335
1060.0	0.0009505	27.5160000324
1060.0	0.0009505	27.5630002022
1060.0	0.000951	27.6100001335
1060.0	0.000951	27.6410000324
1060.0	0.000951	27.6880002022
1060.0	0.0009503	27.7190001011
1060.0	0.000949	27.7660000324
1060.0	0.000948	27.8130002022
1070.0	0.0009503	28.0940001011
1070.0	0.0009525	28.125
1070.0	0.000954	28.1720001698
1070.0	0.0009555	28.2190001011
1070.0	0.0009575	28.25
1070.0	0.0009578	28.2970001698
1070.0	0.0009575	28.3289999962
1070.0	0.0009578	28.375
1070.0	0.0009585	28.4220001698
1070.0	0.0009585	28.4690001011
1070.0	0.0009573	28.5
1070.0	0.0009565	28.5470001698
1070.0	0.0009573	28.5789999962
1070.0	0.0009593	28.625
1070.0	0.0009605	28.6720001698
1070.0	0.000961	28.7039999962
1070.0	0.0009603	28.75
1070.0	0.0009593	28.7970001698
1070.0	0.0009585	28.8289999962
1070.0	0.0009573	28.875
1070.0	0.0009573	28.9070000648
1070.0	0.0009573	28.9539999962
1070.0	0.0009578	29.0
1070.0	0.000959	29.0320000648
1070.0	0.0009603	29.0789999962
1070.0	0.0009615	29.125
1070.0	0.0009628	29.1570000648
1070.0	0.000964	29.2039999962
1070.0	0.0009643	29.2350001335
1070.0	0.0009625	29.2820000648
1070.0	0.000961	29.3289999962
1070.0	0.0009598	29.3600001335
1070.0	0.0009598	29.4070000648
1070.0	0.000959	29.4539999962
1070.0	0.0009588	29.4850001335
1070.0	0.0009578	29.5320000648
1070.0	0.000958	29.5630002022
1080.0	0.0009635	29.8440001011
1080.0	0.0009653	29.8910000324
1080.0	0.0009648	29.9380002022
1080.0	0.0009643	29.9690001011
1080.0	0.0009648	30.0160000324
1080.0	0.0009655	30.0630002022
1080.0	0.0009673	30.0940001011
1080.0	0.0009693	30.1410000324
1080.0	0.0009703	30.1720001698
1080.0	0.0009698	30.2190001011
1080.0	0.0009703	30.2660000324
1080.0	0.0009703	30.2970001698
1080.0	0.0009698	30.3440001011
1080.0	0.0009698	30.3910000324
1080.0	0.0009693	30.4220001698
1080.0	0.0009688	30.4690001011
1080.0	0.0009685	30.5160000324
1080.0	0.000968	30.5470001698
1080.0	0.0009675	30.5940001011
1080.0	0.0009675	30.6410000324
1080.0	0.0009668	30.6720001698
1080.0	0.000966	30.7190001011
1080.0	0.0009665	30.7660000324
1080.0	0.0009675	30.7970001698
1080.0	0.0009668	30.8440001011
1080.0	0.0009678	30.875
1080.0	0.0009685	30.9220001698
1080.0	0.000969	30.9690001011
1080.0	0.0009698	31.0
1080.0	0.0009705	31.0470001698
1080.0	0.0009703	31.0940001011
1080.0	0.0009688	31.125
1080.0	0.0009688	31.1720001698
1080.0	0.0009693	31.2039999962
1080.0	0.0009698	31.25
1080.0	0.0009698	31.2970001698
1080.0	0.00097	31.3289999962
1090.0	0.0009673	31.6100001335
1090.0	0.0009665	31.6410000324
1090.0	0.0009675	31.6880002022
1090.0	0.0009685	31.7350001335
1090.0	0.000968	31.7660000324
1090.0	0.0009688	31.8130002022
1090.0	0.0009703	31.8600001335
1090.0	0.0009735	31.8910000324
1090.0	0.0009743	31.9380002022
1090.0	0.0009743	31.9850001335
1090.0	0.0009748	32.0160000324
1090.0	0.0009748	32.0630002022
1090.0	0.0009738	32.0940001011
1090.0	0.000974	32.1410000324
1090.0	0.0009743	32.1880002022
1090.0	0.0009725	32.2190001011
1090.0	0.0009725	32.2660000324
1090.0	0.0009725	32.3130002022
1090.0	0.0009715	32.3440001011
1090.0	0.0009713	32.3910000324
1090.0	0.0009715	32.4220001698
1090.0	0.0009713	32.4690001011
1090.0	0.000971	32.5160000324
1090.0	0.0009715	32.5470001698
1090.0	0.0009725	32.5940001011
1090.0	0.0009728	32.6410000324
1090.0	0.0009723	32.6720001698
1090.0	0.0009723	32.7190001011
1090.0	0.0009723	32.75
1090.0	0.0009715	32.7970001698
1090.0	0.000971	32.8440001011
1090.0	0.0009705	32.875
1090.0	0.0009703	32.9220001698
1090.0	0.0009698	32.9690001011
1090.0	0.000969	33.0
1090.0	0.0009688	33.0470001698
1090.0	0.0009698	33.0940001011
1100.0	0.0009723	33.3600001335
1100.0	0.0009703	33.3910000324
1100.0	0.0009698	33.4380002022
1100.0	0.0009693	33.4850001335
1100.0	0.0009685	33.5160000324
1100.0	0.0009678	33.5630002022
1100.0	0.0009668	33.6100001335
1100.0	0.0009673	33.6410000324
1100.0	0.0009678	33.6880002022
1100.0	0.0009675	33.7350001335
1100.0	0.0009678	33.7660000324
1100.0	0.0009678	33.8130002022
1100.0	0.0009668	33.8440001011
1100.0	0.0009663	33.8910000324
1100.0	0.000968	33.9380002022
1100.0	0.0009698	33.9690001011
1100.0	0.0009698	34.0160000324
1100.0	0.0009698	34.0630002022
1100.0	0.00097	34.0940001011
1100.0	0.0009698	34.1410000324
1100.0	0.000968	34.1720001698
1100.0	0.0009685	34.2190001011
1100.0	0.000969	34.2660000324
1100.0	0.000971	34.2970001698
1100.0	0.0009725	34.3440001011
1100.0	0.0009728	34.3910000324
1100.0	0.000973	34.4220001698
1100.0	0.0009728	34.4690001011
1100.0	0.0009723	34.5160000324
1100.0	0.0009715	34.5470001698
1100.0	0.000971	34.5940001011
1100.0	0.0009705	34.625
1100.0	0.0009693	34.6720001698
1100.0	0.0009688	34.7190001011
1100.0	0.0009688	34.75
1100.0	0.0009698	34.7970001698
1100.0	0.000971	34.8440001011
1110.0	0.0009668	35.1100001335
1110.0	0.0009643	35.1570000648
1110.0	0.0009623	35.1880002022
1110.0	0.000961	35.2350001335
1110.0	0.000961	35.2820000648
1110.0	0.000961	35.3289999962
1110.0	0.0009603	35.3600001335
1110.0	0.000961	35.4070000648
1110.0	0.0009615	35.4380002022
1110.0	0.0009618	35.4850001335
1110.0	0.0009615	35.5320000648
1110.0	0.000961	35.5630002022
1110.0	0.0009603	35.6100001335
1110.0	0.0009598	35.6570000648
1110.0	0.0009588	35.6880002022
1110.0	0.0009578	35.7350001335
1110.0	0.0009568	35.7660000324
1110.0	0.0009555	35.8130002022
1110.0	0.000954	35.8600001335
1110.0	0.0009528	35.8910000324
1110.0	0.0009523	35.9380002022
1110.0	0.0009535	35.9850001335
1110.0	0.000954	36.0160000324
1110.0	0.0009548	36.0630002022
1110.0	0.0009553	36.0940001011
1110.0	0.0009555	36.1410000324
1110.0	0.0009555	36.1880002022
1110.0	0.0009548	36.2190001011
1110.0	0.0009538	36.2660000324
1110.0	0.0009535	36.3130002022
1110.0	0.0009538	36.3440001011
1110.0	0.0009553	36.3910000324
1110.0	0.000956	36.4380002022
1110.0	0.0009555	36.4690001011
1110.0	0.0009565	36.5160000324
1110.0	0.0009578	36.5470001698
1110.0	0.0009585	36.5940001011
1120.0	0.0009578	36.8600001335
1120.0	0.000955	36.9070000648
1120.0	0.0009543	36.9380002022
1120.0	0.0009535	36.9850001335
1120.0	0.0009505	37.0320000648
1120.0	0.000949	37.0789999962
1120.0	0.0009485	37.1100001335
1120.0	0.000946	37.1570000648
1120.0	0.0009443	37.1880002022
1120.0	0.0009425	37.2350001335
1120.0	0.0009403	37.2820000648
1120.0	0.000939	37.3130002022
1120.0	0.0009405	37.3600001335
1120.0	0.0009425	37.4070000648
1120.0	0.0009438	37.4380002022
1120.0	0.0009453	37.4850001335
1120.0	0.0009463	37.5160000324
1120.0	0.0009463	37.5630002022
1120.0	0.000945	37.6100001335
1120.0	0.000944	37.6410000324
1120.0	0.0009418	37.6880002022
1120.0	0.0009413	37.7350001335
1120.0	0.0009418	37.7660000324
1120.0	0.0009423	37.8130002022
1120.0	0.0009425	37.8440001011
1120.0	0.000943	37.8910000324
1120.0	0.0009435	37.9380002022
1120.0	0.0009438	37.9690001011
1120.0	0.0009453	38.0160000324
1120.0	0.0009455	38.0630002022
1120.0	0.000945	38.0940001011
1120.0	0.000946	38.1410000324
1120.0	0.0009463	38.1720001698
1120.0	0.0009463	38.2190001011
1120.0	0.000946	38.2660000324
1120.0	0.0009453	38.2970001698
1120.0	0.0009448	38.3440001011
1130.0	0.0009405	38.6100001335
1130.0	0.0009373	38.6570000648
1130.0	0.000933	38.6880002022
1130.0	0.0009313	38.7350001335
1130.0	0.0009305	38.7820000648
1130.0	0.0009298	38.8130002022
1130.0	0.0009285	38.8600001335
1130.0	0.0009278	38.8910000324
1130.0	0.0009268	38.9380002022
1130.0	0.0009263	38.9850001335
1130.0	0.0009248	39.0160000324
1130.0	0.0009248	39.0630002022
1130.0	0.0009253	39.1100001335
1130.0	0.000926	39.1410000324
1130.0	0.0009268	39.1880002022
1130.0	0.0009278	39.2190001011
1130.0	0.0009278	39.2660000324
1130.0	0.0009278	39.3130002022
1130.0	0.0009285	39.3440001011
1130.0	0.0009288	39.3910000324
1130.0	0.000929	39.4380002022
1130.0	0.0009285	39.4690001011
1130.0	0.0009278	39.5160000324
1130.0	0.0009285	39.5630002022
1130.0	0.0009285	39.5940001011
1130.0	0.0009285	39.6410000324
1130.0	0.000928	39.6720001698
1130.0	0.0009278	39.7190001011
1130.0	0.0009285	39.7660000324
1130.0	0.0009293	39.7970001698
1130.0	0.000929	39.8440001011
1130.0	0.0009275	39.8910000324
1130.0	0.0009275	39.9220001698
1130.0	0.0009285	39.9690001011
1130.0	0.0009293	40.0
1130.0	0.000931	40.0470001698
1130.0	0.0009315	40.0940001011
1140.0	0.0009215	40.3600001335
1140.0	0.000919	40.3910000324
1140.0	0.0009175	40.4380002022
1140.0	0.000916	40.4850001335
1140.0	0.000915	40.5160000324
1140.0	0.0009153	40.5630002022
1140.0	0.000914	40.6100001335
1140.0	0.0009135	40.6410000324
1140.0	0.0009135	40.6880002022
1140.0	0.0009123	40.7190001011
1140.0	0.0009118	40.7660000324
1140.0	0.0009103	40.8130002022
1140.0	0.0009073	40.8440001011
1140.0	0.0009053	40.8910000324
1140.0	0.0009048	40.9380002022
1140.0	0.000904	40.9690001011
1140.0	0.0009035	41.0160000324
1140.0	0.0009043	41.0470001698
1140.0	0.0009055	41.0940001011
1140.0	0.0009065	41.1410000324
1140.0	0.0009078	41.1720001698
1140.0	0.000908	41.2190001011
1140.0	0.0009073	41.2660000324
1140.0	0.0009078	41.2970001698
1140.0	0.0009073	41.3440001011
1140.0	0.0009073	41.3910000324
1140.0	0.0009078	41.4220001698
1140.0	0.0009078	41.4690001011
1140.0	0.0009075	41.5
1140.0	0.0009068	41.5470001698
1140.0	0.0009078	41.5940001011
1140.0	0.0009088	41.625
1140.0	0.0009093	41.6720001698
1140.0	0.0009098	41.7190001011
1140.0	0.0009093	41.75
1140.0	0.000908	41.7970001698
1140.0	0.000909	41.8440001011
1150.0	0.0009065	42.1100001335
1150.0	0.000903	42.1410000324
1150.0	0.000901	42.1880002022
1150.0	0.000899	42.2350001335
1150.0	0.0008965	42.2660000324
1150.0	0.000894	42.3130002022
1150.0	0.0008925	42.3600001335
1150.0	0.0008915	42.3910000324
1150.0	0.0008918	42.4380002022
1150.0	0.0008915	42.4690001011
1150.0	0.0008905	42.5160000324
1150.0	0.0008893	42.5630002022
1150.0	0.0008893	42.5940001011
1150.0	0.0008888	42.6410000324
1150.0	0.0008865	42.6880002022
1150.0	0.0008853	42.7350001335
1150.0	0.0008863	42.7660000324
1150.0	0.000888	42.8130002022
1150.0	0.0008888	42.8600001335
1150.0	0.0008888	42.9070000648
1150.0	0.00089	42.9380002022
1150.0	0.0008913	42.9850001335
1150.0	0.000891	43.0320000648
1150.0	0.0008893	43.0630002022
1150.0	0.000889	43.1100001335
1150.0	0.0008885	43.1570000648
1150.0	0.0008873	43.1880002022
1150.0	0.0008855	43.2350001335
1150.0	0.0008843	43.2660000324
1150.0	0.000885	43.3130002022
1150.0	0.000886	43.3600001335
1150.0	0.0008878	43.3910000324
1150.0	0.00089	43.4380002022
1150.0	0.0008915	43.4850001335
1150.0	0.0008915	43.5160000324
1150.0	0.0008918	43.5630002022
1160.0	0.0008815	43.8289999962
1160.0	0.0008785	43.875
1160.0	0.000876	43.9070000648
1160.0	0.000874	43.9539999962
1160.0	0.0008735	44.0
1160.0	0.000873	44.0320000648
1160.0	0.0008713	44.0789999962
1160.0	0.000869	44.125
1160.0	0.00087	44.1570000648
1160.0	0.0008703	44.2039999962
1160.0	0.0008693	44.2350001335
1160.0	0.0008688	44.2820000648
1160.0	0.000868	44.3289999962
1160.0	0.0008675	44.375
1160.0	0.0008685	44.4070000648
1160.0	0.0008688	44.4539999962
1160.0	0.0008688	44.4850001335
1160.0	0.0008698	44.5320000648
1160.0	0.0008703	44.5789999962
1160.0	0.0008705	44.6100001335
1160.0	0.0008705	44.6570000648
1160.0	0.000871	44.7039999962
1160.0	0.00087	44.7350001335
1160.0	0.000869	44.7820000648
1160.0	0.000869	44.8289999962
1160.0	0.000868	44.8600001335
1160.0	0.0008685	44.9070000648
1160.0	0.000868	44.9539999962
1160.0	0.000869	44.9850001335
1160.0	0.000869	45.0320000648
1160.0	0.0008673	45.0789999962
1160.0	0.000866	45.1100001335
1160.0	0.000866	45.1570000648
1160.0	0.0008668	45.1880002022
1160.0	0.0008685	45.2350001335
1160.0	0.0008685	45.2820000648
1170.0	0.0008653	45.5470001698
1170.0	0.0008623	45.5940001011
1170.0	0.0008603	45.625
1170.0	0.0008575	45.6720001698
1170.0	0.0008553	45.7190001011
1170.0	0.0008543	45.75
1170.0	0.0008543	45.7970001698
1170.0	0.0008535	45.8289999962
1170.0	0.0008513	45.875
1170.0	0.0008505	45.9220001698
1170.0	0.000851	45.9539999962
1170.0	0.000851	46.0
1170.0	0.0008525	46.0470001698
1170.0	0.0008543	46.0789999962
1170.0	0.0008553	46.125
1170.0	0.0008543	46.1570000648
1170.0	0.0008543	46.2039999962
1170.0	0.0008555	46.25
1170.0	0.000856	46.2820000648
1170.0	0.000856	46.3289999962
1170.0	0.000855	46.375
1170.0	0.0008548	46.4070000648
1170.0	0.000855	46.4539999962
1170.0	0.0008565	46.4850001335
1170.0	0.0008565	46.5320000648
1170.0	0.0008565	46.5789999962
1170.0	0.0008565	46.6100001335
1170.0	0.0008555	46.6570000648
1170.0	0.0008548	46.7039999962
1170.0	0.0008538	46.7350001335
1170.0	0.000853	46.7820000648
1170.0	0.0008528	46.8289999962
1170.0	0.0008518	46.8600001335
1170.0	0.0008518	46.9070000648
1170.0	0.0008515	46.9380002022
1170.0	0.0008523	46.9850001335
1170.0	0.0008535	47.0320000648
1180.0	0.0008498	47.2970001698
1180.0	0.0008488	47.3440001011
1180.0	0.000848	47.375
1180.0	0.0008485	47.4220001698
1180.0	0.0008475	47.4539999962
1180.0	0.000846	47.5
1180.0	0.000846	47.5470001698
1180.0	0.0008448	47.5789999962
1180.0	0.0008438	47.625
1180.0	0.0008428	47.6720001698
1180.0	0.0008423	47.7039999962
1180.0	0.0008415	47.75
1180.0	0.0008405	47.7970001698
1180.0	0.0008403	47.8289999962
1180.0	0.0008398	47.875
1180.0	0.0008393	47.9220001698
1180.0	0.0008403	47.9539999962
1180.0	0.0008403	48.0
1180.0	0.0008398	48.0470001698
1180.0	0.0008388	48.0789999962
1180.0	0.0008398	48.125
1180.0	0.0008403	48.1720001698
1180.0	0.0008403	48.2039999962
1180.0	0.0008388	48.25
1180.0	0.0008385	48.2970001698
1180.0	0.000839	48.3289999962
1180.0	0.0008393	48.375
1180.0	0.000839	48.4220001698
1180.0	0.000839	48.4539999962
1180.0	0.0008378	48.5
1180.0	0.0008353	48.5320000648
1180.0	0.0008343	48.5789999962
1180.0	0.000835	48.625
1180.0	0.0008363	48.6570000648
1180.0	0.0008378	48.7039999962
1180.0	0.0008393	48.75
1190.0	0.000839	49.0160000324
1190.0	0.0008393	49.0630002022
1190.0	0.000839	49.0940001011
1190.0	0.0008388	49.1410000324
1190.0	0.0008398	49.1720001698
1190.0	0.00084	49.2190001011
1190.0	0.000839	49.2660000324
1190.0	0.0008385	49.2970001698
1190.0	0.0008375	49.3440001011
1190.0	0.000836	49.3910000324
1190.0	0.0008348	49.4220001698
1190.0	0.0008335	49.4690001011
1190.0	0.0008325	49.5
1190.0	0.0008303	49.5470001698
1190.0	0.000829	49.5940001011
1190.0	0.0008285	49.625
1190.0	0.0008298	49.6720001698
1190.0	0.0008323	49.7190001011
1190.0	0.0008335	49.7660000324
1190.0	0.0008343	49.7970001698
1190.0	0.0008343	49.8440001011
1190.0	0.000834	49.875
1190.0	0.0008343	49.9220001698
1190.0	0.0008353	49.9690001011
1190.0	0.0008365	50.0
1190.0	0.000836	50.0470001698
1190.0	0.0008343	50.0940001011
1190.0	0.0008328	50.125
1190.0	0.0008315	50.1720001698
1190.0	0.0008318	50.2190001011
1190.0	0.0008325	50.25
1190.0	0.000833	50.2970001698
1190.0	0.0008323	50.3289999962
1190.0	0.0008318	50.375
1190.0	0.000831	50.4220001698
1190.0	0.0008305	50.4539999962
1190.0	0.0008303	50.5
1200.0	0.0008293	50.7660000324
1200.0	0.0008303	50.8130002022
1200.0	0.000831	50.8600001335
1200.0	0.0008315	50.8910000324
1200.0	0.0008325	50.9380002022
1200.0	0.0008315	50.9850001335
1200.0	0.0008305	51.0160000324
1200.0	0.00083	51.0630002022
1200.0	0.0008285	51.0940001011
1200.0	0.0008265	51.1410000324
1200.0	0.0008268	51.1880002022
1200.0	0.000828	51.2190001011
1200.0	0.000828	51.2660000324
1200.0	0.0008275	51.3130002022
1200.0	0.0008278	51.3440001011
1200.0	0.0008273	51.3910000324
1200.0	0.0008275	51.4220001698
1200.0	0.0008288	51.4690001011
1200.0	0.0008303	51.5160000324
1200.0	0.0008318	51.5470001698
1200.0	0.0008335	51.5940001011
1200.0	0.000833	51.6410000324
1200.0	0.0008323	51.6880002022
1200.0	0.0008313	51.7190001011
1200.0	0.000831	51.7660000324
1200.0	0.0008303	51.7970001698
1200.0	0.0008305	51.8440001011
1200.0	0.0008303	51.8910000324
1200.0	0.000831	51.9220001698
1200.0	0.000831	51.9690001011
1200.0	0.0008303	52.0160000324
1200.0	0.000831	52.0470001698
1200.0	0.000831	52.0940001011
1200.0	0.0008328	52.125
1200.0	0.0008335	52.1720001698
1200.0	0.0008335	52.2190001011
1200.0	0.0008348	52.25
1210.0	0.0008323	52.5320000648
1210.0	0.0008338	52.5630002022
1210.0	0.000834	52.6100001335
1210.0	0.000834	52.6570000648
1210.0	0.0008338	52.6880002022
1210.0	0.0008328	52.7350001335
1210.0	0.0008323	52.7660000324
1210.0	0.0008323	52.8130002022
1210.0	0.0008313	52.8600001335
1210.0	0.000831	52.8910000324
1210.0	0.0008293	52.9380002022
1210.0	0.0008278	52.9850001335
1210.0	0.0008268	53.0160000324
1210.0	0.0008263	53.0630002022
1210.0	0.0008265	53.0940001011
1210.0	0.0008288	53.1410000324
1210.0	0.0008293	53.1880002022
1210.0	0.0008298	53.2190001011
1210.0	0.0008298	53.2660000324
1210.0	0.0008298	53.3130002022
1210.0	0.0008303	53.3440001011
1210.0	0.0008305	53.3910000324
1210.0	0.0008315	53.4380002022
1210.0	0.000833	53.4690001011
1210.0	0.0008338	53.5160000324
1210.0	0.0008328	53.5470001698
1210.0	0.0008318	53.5940001011
1210.0	0.0008323	53.6410000324
1210.0	0.0008318	53.6720001698
1210.0	0.000831	53.7190001011
1210.0	0.00083	53.7660000324
1210.0	0.0008298	53.7970001698
1210.0	0.0008288	53.8440001011
1210.0	0.0008285	53.875
1210.0	0.0008285	53.9220001698
1210.0	0.0008278	53.9690001011
1210.0	0.000828	54.0
1220.0	0.0008285	54.2660000324
1220.0	0.0008303	54.3130002022
1220.0	0.0008325	54.3600001335
1220.0	0.000834	54.3910000324
1220.0	0.0008338	54.4380002022
1220.0	0.0008338	54.4690001011
1220.0	0.0008335	54.5160000324
1220.0	0.0008328	54.5630002022
1220.0	0.0008323	54.5940001011
1220.0	0.0008315	54.6410000324
1220.0	0.0008313	54.6880002022
1220.0	0.000831	54.7190001011
1220.0	0.0008298	54.7660000324
1220.0	0.0008298	54.8130002022
1220.0	0.0008293	54.8440001011
1220.0	0.000829	54.8910000324
1220.0	0.0008285	54.9220001698
1220.0	0.0008285	54.9690001011
1220.0	0.0008298	55.0160000324
1220.0	0.000831	55.0470001698
1220.0	0.0008313	55.0940001011
1220.0	0.0008315	55.1410000324
1220.0	0.0008313	55.1720001698
1220.0	0.000831	55.2190001011
1220.0	0.00083	55.25
1220.0	0.00083	55.2970001698
1220.0	0.0008305	55.3440001011
1220.0	0.000831	55.375
1220.0	0.000831	55.4220001698
1220.0	0.0008313	55.4690001011
1220.0	0.0008313	55.5
1220.0	0.000831	55.5470001698
1220.0	0.000831	55.5789999962
1220.0	0.0008305	55.625
1220.0	0.0008303	55.6720001698
1220.0	0.0008305	55.7039999962
1220.0	0.0008315	55.75
1230.0	0.000835	56.0160000324
1230.0	0.0008353	56.0630002022
1230.0	0.0008353	56.0940001011
1230.0	0.000836	56.1410000324
1230.0	0.0008365	56.1880002022
1230.0	0.0008373	56.2190001011
1230.0	0.000838	56.2660000324
1230.0	0.0008385	56.2970001698
1230.0	0.0008388	56.3440001011
1230.0	0.0008393	56.3910000324
1230.0	0.000839	56.4380002022
1230.0	0.000839	56.4690001011
1230.0	0.0008398	56.5160000324
1230.0	0.0008405	56.5630002022
1230.0	0.000841	56.5940001011
1230.0	0.0008398	56.6410000324
1230.0	0.0008388	56.6720001698
1230.0	0.0008385	56.7190001011
1230.0	0.000839	56.7660000324
1230.0	0.0008398	56.7970001698
1230.0	0.0008405	56.8440001011
1230.0	0.000841	56.8910000324
1230.0	0.000841	56.9220001698
1230.0	0.0008398	56.9690001011
1230.0	0.0008378	57.0
1230.0	0.0008365	57.0470001698
1230.0	0.0008348	57.0940001011
1230.0	0.000833	57.125
1230.0	0.0008328	57.1720001698
1230.0	0.0008335	57.2190001011
1230.0	0.0008348	57.25
1230.0	0.0008348	57.2970001698
1230.0	0.000834	57.3289999962
1230.0	0.000835	57.375
1230.0	0.0008365	57.4220001698
1230.0	0.000838	57.4539999962
1230.0	0.000839	57.5
1240.0	0.0008405	57.7660000324
1240.0	0.0008423	57.8130002022
1240.0	0.0008435	57.8440001011
1240.0	0.0008438	57.8910000324
1240.0	0.000844	57.9380002022
1240.0	0.000844	57.9690001011
1240.0	0.0008443	58.0160000324
1240.0	0.000846	58.0470001698
1240.0	0.0008463	58.0940001011
1240.0	0.0008455	58.1410000324
1240.0	0.000844	58.1720001698
1240.0	0.000844	58.2190001011
1240.0	0.000844	58.2660000324
1240.0	0.0008435	58.2970001698
1240.0	0.000844	58.3440001011
1240.0	0.0008448	58.375
1240.0	0.0008448	58.4220001698
1240.0	0.0008448	58.4690001011
1240.0	0.0008438	58.5
1240.0	0.0008428	58.5470001698
1240.0	0.0008428	58.5940001011
1240.0	0.0008435	58.625
1240.0	0.0008425	58.6720001698
1240.0	0.0008423	58.7039999962
1240.0	0.0008418	58.75
1240.0	0.0008418	58.7970001698
1240.0	0.0008428	58.8289999962
1240.0	0.000843	58.875
1240.0	0.0008428	58.9220001698
1240.0	0.0008423	58.9539999962
1240.0	0.0008415	59.0
1240.0	0.0008423	59.0470001698
1240.0	0.0008418	59.0789999962
1240.0	0.000843	59.125
1240.0	0.0008453	59.1570000648
1240.0	0.0008463	59.2039999962
1240.0	0.0008463	59.25
1250.0	0.000849	59.5160000324
1250.0	0.00085	59.5470001698
1250.0	0.0008498	59.5940001011
1250.0	0.0008493	59.6410000324
1250.0	0.0008488	59.6720001698
1250.0	0.0008485	59.7190001011
1250.0	0.000848	59.7660000324
1250.0	0.0008468	59.7970001698
1250.0	0.0008463	59.8440001011
1250.0	0.0008473	59.875
1250.0	0.00085	59.9220001698
1250.0	0.0008515	59.9690001011
1250.0	0.0008518	60.0
1250.0	0.0008518	60.0470001698
1250.0	0.000851	60.0940001011
1250.0	0.000851	60.125
1250.0	0.0008518	60.1720001698
1250.0	0.0008518	60.2039999962
1250.0	0.0008515	60.25
1250.0	0.0008505	60.2970001698
1250.0	0.000851	60.3440001011
1250.0	0.0008518	60.3910000324
1250.0	0.0008515	60.4220001698
1250.0	0.0008513	60.4690001011
1250.0	0.0008515	60.5160000324
1250.0	0.0008513	60.5470001698
1250.0	0.0008503	60.5940001011
1250.0	0.0008498	60.6410000324
1250.0	0.0008498	60.6720001698
1250.0	0.0008498	60.7190001011
1250.0	0.0008493	60.75
1250.0	0.0008498	60.7970001698
1250.0	0.0008503	60.8440001011
1250.0	0.000851	60.875
1250.0	0.0008513	60.9220001698
1250.0	0.0008505	60.9690001011
1260.0	0.0008528	61.2350001335
1260.0	0.0008523	61.2660000324
1260.0	0.000851	61.3130002022
1260.0	0.000851	61.3600001335
1260.0	0.000851	61.3910000324
1260.0	0.0008505	61.4380002022
1260.0	0.000851	61.4690001011
1260.0	0.0008513	61.5160000324
1260.0	0.0008518	61.5630002022
1260.0	0.0008528	61.5940001011
1260.0	0.0008535	61.6410000324
1260.0	0.000854	61.6880002022
1260.0	0.000854	61.7190001011
1260.0	0.0008548	61.7660000324
1260.0	0.0008563	61.7970001698
1260.0	0.0008553	61.8440001011
1260.0	0.0008553	61.8910000324
1260.0	0.0008553	61.9380002022
1260.0	0.0008553	61.9690001011
1260.0	0.000854	62.0160000324
1260.0	0.000853	62.0630002022
1260.0	0.0008528	62.0940001011
1260.0	0.0008528	62.1410000324
1260.0	0.0008528	62.1720001698
1260.0	0.0008523	62.2190001011
1260.0	0.0008525	62.2660000324
1260.0	0.0008525	62.2970001698
1260.0	0.0008518	62.3440001011
1260.0	0.000851	62.3910000324
1260.0	0.0008503	62.4220001698
1260.0	0.0008503	62.4690001011
1260.0	0.000851	62.5
1260.0	0.0008523	62.5470001698
1260.0	0.0008523	62.5940001011
1260.0	0.0008513	62.625
1260.0	0.0008518	62.6720001698
1260.0	0.0008535	62.7190001011
1270.0	0.000853	62.9850001335
1270.0	0.0008528	63.0160000324
1270.0	0.0008528	63.0630002022
1270.0	0.0008535	63.1100001335
1270.0	0.0008543	63.1410000324
1270.0	0.0008525	63.1880002022
1270.0	0.000851	63.2350001335
1270.0	0.0008498	63.2660000324
1270.0	0.0008493	63.3130002022
1270.0	0.0008498	63.3600001335
1270.0	0.0008498	63.3910000324
1270.0	0.00085	63.4380002022
1270.0	0.0008503	63.4850001335
1270.0	0.000851	63.5160000324
1270.0	0.0008513	63.5630002022
1270.0	0.0008513	63.6100001335
1270.0	0.000851	63.6410000324
1270.0	0.0008493	63.6880002022
1270.0	0.0008485	63.7190001011
1270.0	0.0008488	63.7660000324
1270.0	0.0008498	63.8130002022
1270.0	0.0008505	63.8600001335
1270.0	0.0008523	63.8910000324
1270.0	0.000853	63.9380002022
1270.0	0.000853	63.9850001335
1270.0	0.000853	64.0160000324
1270.0	0.0008535	64.0630002022
1270.0	0.000853	64.0940001011
1270.0	0.0008515	64.1410000324
1270.0	0.0008505	64.1880002022
1270.0	0.000849	64.2190001011
1270.0	0.0008498	64.2660000324
1270.0	0.0008505	64.3130002022
1270.0	0.000851	64.3440001011
1270.0	0.0008515	64.3910000324
1270.0	0.0008525	64.4220001698
1270.0	0.0008538	64.4690001011
1280.0	0.0008548	64.7350001335
1280.0	0.0008538	64.7820000648
1280.0	0.0008518	64.8130002022
1280.0	0.0008513	64.8600001335
1280.0	0.0008515	64.9070000648
1280.0	0.0008505	64.9380002022
1280.0	0.0008493	64.9850001335
1280.0	0.000849	65.0320000648
1280.0	0.0008503	65.0630002022
1280.0	0.000851	65.1100001335
1280.0	0.0008518	65.1570000648
1280.0	0.0008523	65.1880002022
1280.0	0.0008515	65.2350001335
1280.0	0.00085	65.2820000648
1280.0	0.0008485	65.3130002022
1280.0	0.0008475	65.3600001335
1280.0	0.0008473	65.4070000648
1280.0	0.0008475	65.4380002022
1280.0	0.0008473	65.4850001335
1280.0	0.0008488	65.5320000648
1280.0	0.0008493	65.5630002022
1280.0	0.0008498	65.6100001335
1280.0	0.0008503	65.6570000648
1280.0	0.00085	65.6880002022
1280.0	0.0008498	65.7350001335
1280.0	0.0008498	65.7660000324
1280.0	0.0008513	65.8130002022
1280.0	0.0008513	65.8600001335
1280.0	0.0008518	65.8910000324
1280.0	0.0008515	65.9380002022
1280.0	0.00085	65.9850001335
1280.0	0.0008488	66.0160000324
1280.0	0.0008498	66.0630002022
1280.0	0.00085	66.0940001011
1280.0	0.0008498	66.1410000324
1280.0	0.000849	66.1880002022
1290.0	0.000849	66.4539999962
1290.0	0.000848	66.5
1290.0	0.0008468	66.5320000648
1290.0	0.000845	66.5789999962
1290.0	0.000844	66.625
1290.0	0.0008453	66.6570000648
1290.0	0.0008453	66.7039999962
1290.0	0.0008453	66.7350001335
1290.0	0.0008455	66.7820000648
1290.0	0.000845	66.8289999962
1290.0	0.0008438	66.875
1290.0	0.0008428	66.9070000648
1290.0	0.0008423	66.9539999962
1290.0	0.0008418	66.9850001335
1290.0	0.0008413	67.0320000648
1290.0	0.0008405	67.0789999962
1290.0	0.0008413	67.125
1290.0	0.000841	67.1570000648
1290.0	0.00084	67.2039999962
1290.0	0.000841	67.2350001335
1290.0	0.0008425	67.2820000648
1290.0	0.0008435	67.3289999962
1290.0	0.0008443	67.375
1290.0	0.000845	67.4070000648
1290.0	0.000846	67.4539999962
1290.0	0.0008465	67.4850001335
1290.0	0.0008468	67.5320000648
1290.0	0.0008478	67.5789999962
1290.0	0.0008475	67.6100001335
1290.0	0.0008475	67.6570000648
1290.0	0.0008473	67.7039999962
1290.0	0.0008473	67.7350001335
1290.0	0.0008473	67.7820000648
1290.0	0.0008463	67.8289999962
1290.0	0.0008453	67.8600001335
1290.0	0.000845	67.9070000648
1300.0	0.00084	68.1720001698
1300.0	0.0008365	68.2039999962
1300.0	0.0008343	68.25
1300.0	0.0008325	68.2970001698
1300.0	0.0008303	68.3289999962
1300.0	0.000829	68.375
1300.0	0.000829	68.4220001698
1300.0	0.0008278	68.4539999962
1300.0	0.0008275	68.5
1300.0	0.0008288	68.5470001698
1300.0	0.0008285	68.5789999962
1300.0	0.0008288	68.625
1300.0	0.000829	68.6570000648
1300.0	0.0008288	68.7039999962
1300.0	0.0008285	68.75
1300.0	0.00083	68.7820000648
1300.0	0.000831	68.8289999962
1300.0	0.0008313	68.875
1300.0	0.0008318	68.9070000648
1300.0	0.0008313	68.9539999962
1300.0	0.00083	68.9850001335
1300.0	0.0008288	69.0320000648
1300.0	0.0008273	69.0789999962
1300.0	0.000826	69.1100001335
1300.0	0.0008243	69.1570000648
1300.0	0.0008243	69.2039999962
1300.0	0.0008253	69.2350001335
1300.0	0.0008265	69.2820000648
1300.0	0.0008268	69.3130002022
1300.0	0.0008275	69.3600001335
1300.0	0.0008268	69.4070000648
1300.0	0.0008273	69.4380002022
1300.0	0.000828	69.4850001335
1300.0	0.0008278	69.5320000648
1300.0	0.0008275	69.5630002022
1300.0	0.0008265	69.6100001335
1300.0	0.000826	69.6570000648
1310.0	0.0008198	69.9220001698
1310.0	0.0008173	69.9539999962
1310.0	0.0008148	70.0
1310.0	0.0008135	70.0470001698
1310.0	0.0008123	70.0789999962
1310.0	0.0008105	70.125
1310.0	0.0008105	70.1720001698
1310.0	0.0008103	70.2039999962
1310.0	0.000809	70.25
1310.0	0.0008085	70.2820000648
1310.0	0.0008073	70.3289999962
1310.0	0.0008065	70.375
1310.0	0.0008065	70.4070000648
1310.0	0.0008073	70.4539999962
1310.0	0.0008065	70.5
1310.0	0.0008048	70.5320000648
1310.0	0.0008053	70.5789999962
1310.0	0.0008055	70.625
1310.0	0.0008053	70.6570000648
1310.0	0.000804	70.7039999962
1310.0	0.0008043	70.7350001335
1310.0	0.000804	70.7820000648
1310.0	0.0008038	70.8289999962
1310.0	0.000803	70.8600001335
1310.0	0.0008035	70.9070000648
1310.0	0.0008043	70.9539999962
1310.0	0.0008043	70.9850001335
1310.0	0.0008038	71.0320000648
1310.0	0.0008035	71.0630002022
1310.0	0.0008035	71.1100001335
1310.0	0.0008048	71.1570000648
1310.0	0.0008055	71.1880002022
1310.0	0.0008063	71.2350001335
1310.0	0.0008063	71.2820000648
1310.0	0.000806	71.3130002022
1310.0	0.0008053	71.3600001335
1310.0	0.000805	71.3910000324
1320.0	0.0007953	71.6720001698
1320.0	0.00079	71.7039999962
1320.0	0.0007855	71.75
1320.0	0.0007823	71.7970001698
1320.0	0.0007793	71.8289999962
1320.0	0.0007773	71.875
1320.0	0.000776	71.9220001698
1320.0	0.0007753	71.9539999962
1320.0	0.0007743	72.0
1320.0	0.0007738	72.0320000648
1320.0	0.000773	72.0789999962
1320.0	0.000774	72.125
1320.0	0.0007748	72.1570000648
1320.0	0.000776	72.2039999962
1320.0	0.0007775	72.25
1320.0	0.0007773	72.2820000648
1320.0	0.000776	72.3289999962
1320.0	0.0007755	72.375
1320.0	0.0007753	72.4070000648
1320.0	0.000774	72.4539999962
1320.0	0.000773	72.4850001335
1320.0	0.000773	72.5320000648
1320.0	0.0007735	72.5789999962
1320.0	0.0007738	72.6100001335
1320.0	0.0007738	72.6570000648
1320.0	0.0007735	72.7039999962
1320.0	0.000773	72.7350001335
1320.0	0.0007735	72.7820000648
1320.0	0.0007738	72.8130002022
1320.0	0.000774	72.8600001335
1320.0	0.0007738	72.9070000648
1320.0	0.000773	72.9380002022
1320.0	0.0007723	72.9850001335
1320.0	0.0007725	73.0320000648
1320.0	0.0007728	73.0630002022
1320.0	0.0007728	73.1100001335
1320.0	0.000774	73.1570000648
1330.0	0.000754	73.4220001698
1330.0	0.0007485	73.4539999962
1330.0	0.0007453	73.5
1330.0	0.000743	73.5470001698
1330.0	0.0007415	73.5789999962
1330.0	0.0007403	73.625
1330.0	0.00074	73.6720001698
1330.0	0.0007388	73.7039999962
1330.0	0.0007365	73.75
1330.0	0.000735	73.7820000648
1330.0	0.0007328	73.8289999962
1330.0	0.0007318	73.875
1330.0	0.0007318	73.9070000648
1330.0	0.0007313	73.9539999962
1330.0	0.0007313	74.0
1330.0	0.0007325	74.0320000648
1330.0	0.0007328	74.0789999962
1330.0	0.0007323	74.125
1330.0	0.000731	74.1570000648
1330.0	0.0007298	74.2039999962
1330.0	0.000729	74.2350001335
1330.0	0.00073	74.2820000648
1330.0	0.0007315	74.3289999962
1330.0	0.0007315	74.3600001335
1330.0	0.000731	74.4070000648
1330.0	0.0007293	74.4539999962
1330.0	0.000729	74.4850001335
1330.0	0.000731	74.5320000648
1330.0	0.0007323	74.5789999962
1330.0	0.0007315	74.6100001335
1330.0	0.0007323	74.6570000648
1330.0	0.0007335	74.7039999962
1330.0	0.000734	74.7350001335
1330.0	0.0007348	74.7820000648
1330.0	0.0007348	74.8130002022
1330.0	0.000734	74.8600001335
1330.0	0.000734	74.9070000648
1340.0	0.0007185	75.1720001698
1340.0	0.0007115	75.2190001011
1340.0	0.0007055	75.2660000324
1340.0	0.0006978	75.2970001698
1340.0	0.0006923	75.3440001011
1340.0	0.0006898	75.375
1340.0	0.0006878	75.4220001698
1340.0	0.0006863	75.4690001011
1340.0	0.0006865	75.5
1340.0	0.0006865	75.5470001698
1340.0	0.0006868	75.5940001011
1340.0	0.0006863	75.625
1340.0	0.0006865	75.6720001698
1340.0	0.0006868	75.7039999962
1340.0	0.0006873	75.75
1340.0	0.0006885	75.7970001698
1340.0	0.0006888	75.8289999962
1340.0	0.000689	75.875
1340.0	0.0006885	75.9220001698
1340.0	0.0006868	75.9539999962
1340.0	0.0006865	76.0
1340.0	0.000685	76.0470001698
1340.0	0.000685	76.0789999962
1340.0	0.000684	76.125
1340.0	0.000684	76.1570000648
1340.0	0.000686	76.2039999962
1340.0	0.0006865	76.25
1340.0	0.0006878	76.2820000648
1340.0	0.0006868	76.3289999962
1340.0	0.0006855	76.375
1340.0	0.000685	76.4220001698
1340.0	0.0006848	76.4539999962
1340.0	0.0006838	76.5
1340.0	0.0006828	76.5470001698
1340.0	0.0006818	76.5789999962
1340.0	0.0006813	76.625
1350.0	0.0006625	76.8910000324
1350.0	0.0006555	76.9380002022
1350.0	0.00065	76.9690001011
1350.0	0.0006443	77.0160000324
1350.0	0.0006415	77.0470001698
1350.0	0.0006395	77.0940001011
1350.0	0.0006383	77.1410000324
1350.0	0.0006368	77.1720001698
1350.0	0.0006353	77.2190001011
1350.0	0.0006343	77.2660000324
1350.0	0.0006325	77.2970001698
1350.0	0.0006305	77.3440001011
1350.0	0.0006305	77.3910000324
1350.0	0.00063	77.4220001698
1350.0	0.0006293	77.4690001011
1350.0	0.00063	77.5
1350.0	0.0006308	77.5470001698
1350.0	0.00063	77.5940001011
1350.0	0.000629	77.625
1350.0	0.0006293	77.6720001698
1350.0	0.00063	77.7190001011
1350.0	0.0006305	77.75
1350.0	0.0006303	77.7970001698
1350.0	0.0006283	77.8289999962
1350.0	0.000627	77.875
1350.0	0.0006275	77.9220001698
1350.0	0.0006275	77.9539999962
1350.0	0.000627	78.0
1350.0	0.0006268	78.0470001698
1350.0	0.0006258	78.0789999962
1350.0	0.0006255	78.125
1350.0	0.000625	78.1570000648
1350.0	0.0006255	78.2039999962
1350.0	0.0006255	78.25
1350.0	0.000625	78.2820000648
1350.0	0.0006245	78.3289999962
1350.0	0.0006245	78.375
1360.0	0.0006028	78.6410000324
1360.0	0.0005968	78.6720001698
1360.0	0.0005915	78.7190001011
1360.0	0.000587	78.7660000324
1360.0	0.000584	78.7970001698
1360.0	0.000582	78.8440001011
1360.0	0.0005818	78.8910000324
1360.0	0.000582	78.9220001698
1360.0	0.0005818	78.9690001011
1360.0	0.0005805	79.0160000324
1360.0	0.0005805	79.0470001698
1360.0	0.0005803	79.0940001011
1360.0	0.00058	79.1410000324
1360.0	0.00058	79.1720001698
1360.0	0.00058	79.2190001011
1360.0	0.0005803	79.2660000324
1360.0	0.00058	79.2970001698
1360.0	0.000579	79.3440001011
1360.0	0.000578	79.3910000324
1360.0	0.0005778	79.4220001698
1360.0	0.0005778	79.4690001011
1360.0	0.0005775	79.5
1360.0	0.0005778	79.5470001698
1360.0	0.000579	79.5940001011
1360.0	0.00058	79.6410000324
1360.0	0.0005803	79.6720001698
1360.0	0.0005793	79.7190001011
1360.0	0.000579	79.75
1360.0	0.0005778	79.7970001698
1360.0	0.0005763	79.8440001011
1360.0	0.0005753	79.875
1360.0	0.000574	79.9220001698
1360.0	0.0005738	79.9690001011
1360.0	0.000575	80.0
1360.0	0.0005765	80.0470001698
1360.0	0.0005783	80.0940001011
1370.0	0.0005643	80.3600001335
1370.0	0.0005568	80.4070000648
1370.0	0.0005495	80.4380002022
1370.0	0.000544	80.4850001335
1370.0	0.0005413	80.5320000648
1370.0	0.000539	80.5630002022
1370.0	0.0005363	80.6100001335
1370.0	0.000534	80.6410000324
1370.0	0.0005325	80.6880002022
1370.0	0.0005305	80.7350001335
1370.0	0.0005303	80.7660000324
1370.0	0.0005305	80.8130002022
1370.0	0.0005305	80.8600001335
1370.0	0.0005315	80.8910000324
1370.0	0.0005315	80.9380002022
1370.0	0.0005318	80.9850001335
1370.0	0.0005325	81.0160000324
1370.0	0.0005333	81.0630002022
1370.0	0.0005338	81.1100001335
1370.0	0.0005355	81.1410000324
1370.0	0.0005365	81.1880002022
1370.0	0.0005363	81.2350001335
1370.0	0.0005355	81.2660000324
1370.0	0.0005358	81.3130002022
1370.0	0.0005358	81.3440001011
1370.0	0.0005355	81.3910000324
1370.0	0.0005358	81.4380002022
1370.0	0.0005355	81.4690001011
1370.0	0.0005343	81.5160000324
1370.0	0.0005343	81.5630002022
1370.0	0.0005345	81.5940001011
1370.0	0.000535	81.6410000324
1370.0	0.000535	81.6720001698
1370.0	0.0005353	81.7190001011
1370.0	0.0005343	81.7660000324
1370.0	0.0005343	81.7970001698
1370.0	0.0005343	81.8440001011
1380.0	0.0005188	82.1100001335
1380.0	0.0005143	82.1570000648
1380.0	0.0005113	82.1880002022
1380.0	0.000508	82.2350001335
1380.0	0.0005055	82.2820000648
1380.0	0.0005038	82.3130002022
1380.0	0.0005025	82.3600001335
1380.0	0.0005025	82.3910000324
1380.0	0.0005015	82.4380002022
1380.0	0.0005013	82.4850001335
1380.0	0.0005	82.5160000324
1380.0	0.0004988	82.5630002022
1380.0	0.0004978	82.6100001335
1380.0	0.0004978	82.6410000324
1380.0	0.0004975	82.6880002022
1380.0	0.0004968	82.7190001011
1380.0	0.0004978	82.7660000324
1380.0	0.0004988	82.8130002022
1380.0	0.0005003	82.8440001011
1380.0	0.0004995	82.8910000324
1380.0	0.0004988	82.9380002022
1380.0	0.0004975	82.9690001011
1380.0	0.0004963	83.0160000324
1380.0	0.0004963	83.0630002022
1380.0	0.0004963	83.0940001011
1380.0	0.0004968	83.1410000324
1380.0	0.000497	83.1720001698
1380.0	0.000497	83.2190001011
1380.0	0.0004963	83.2660000324
1380.0	0.0004958	83.2970001698
1380.0	0.0004958	83.3440001011
1380.0	0.0004965	83.3910000324
1380.0	0.0004963	83.4220001698
1380.0	0.000497	83.4690001011
1380.0	0.0004958	83.5160000324
1380.0	0.0004945	83.5470001698
1380.0	0.000494	83.5940001011
1390.0	0.0004843	83.8600001335
1390.0	0.0004805	83.8910000324
1390.0	0.000479	83.9380002022
1390.0	0.000479	83.9850001335
1390.0	0.0004783	84.0160000324
1390.0	0.000478	84.0630002022
1390.0	0.0004775	84.1100001335
1390.0	0.0004778	84.1410000324
1390.0	0.000477	84.1880002022
1390.0	0.0004763	84.2190001011
1390.0	0.0004745	84.2660000324
1390.0	0.0004738	84.3130002022
1390.0	0.0004738	84.3440001011
1390.0	0.000473	84.3910000324
1390.0	0.000472	84.4380002022
1390.0	0.0004718	84.4690001011
1390.0	0.0004728	84.5160000324
1390.0	0.000474	84.5630002022
1390.0	0.0004745	84.5940001011
1390.0	0.0004745	84.6410000324
1390.0	0.0004745	84.6880002022
1390.0	0.0004743	84.7190001011
1390.0	0.0004745	84.7660000324
1390.0	0.0004753	84.7970001698
1390.0	0.0004755	84.8440001011
1390.0	0.0004758	84.8910000324
1390.0	0.0004758	84.9220001698
1390.0	0.000475	84.9690001011
1390.0	0.0004758	85.0160000324
1390.0	0.0004758	85.0470001698
1390.0	0.0004745	85.0940001011
1390.0	0.0004733	85.1410000324
1390.0	0.0004713	85.1720001698
1390.0	0.00047	85.2190001011
1390.0	0.0004688	85.2660000324
1390.0	0.0004683	85.3130002022
1400.0	0.0004655	85.5789999962
1400.0	0.0004638	85.6100001335
1400.0	0.0004613	85.6570000648
1400.0	0.0004588	85.7039999962
1400.0	0.0004565	85.7350001335
1400.0	0.0004545	85.7820000648
1400.0	0.000454	85.8130002022
1400.0	0.000455	85.8600001335
1400.0	0.0004565	85.9070000648
1400.0	0.000458	85.9380002022
1400.0	0.000459	85.9850001335
1400.0	0.0004595	86.0320000648
1400.0	0.0004605	86.0630002022
1400.0	0.0004595	86.1100001335
1400.0	0.0004593	86.1410000324
1400.0	0.0004593	86.1880002022
1400.0	0.000459	86.2350001335
1400.0	0.0004593	86.2660000324
1400.0	0.000458	86.3130002022
1400.0	0.0004568	86.3600001335
1400.0	0.0004578	86.3910000324
1400.0	0.000458	86.4380002022
1400.0	0.000458	86.4690001011
1400.0	0.0004565	86.5160000324
1400.0	0.0004543	86.5630002022
1400.0	0.0004553	86.5940001011
1400.0	0.0004563	86.6410000324
1400.0	0.0004568	86.6880002022
1400.0	0.0004568	86.7190001011
1400.0	0.0004578	86.7660000324
1400.0	0.0004583	86.8130002022
1400.0	0.0004575	86.8440001011
1400.0	0.0004568	86.8910000324
1400.0	0.0004578	86.9220001698
1400.0	0.0004568	86.9690001011
1400.0	0.0004563	87.0160000324
1400.0	0.0004558	87.0470001698
1410.0	0.0004483	87.3130002022
1410.0	0.0004478	87.3600001335
1410.0	0.000448	87.4070000648
1410.0	0.0004475	87.4380002022
1410.0	0.000447	87.4850001335
1410.0	0.0004463	87.5160000324
1410.0	0.0004463	87.5630002022
1410.0	0.000448	87.6100001335
1410.0	0.00045	87.6410000324
1410.0	0.00045	87.6880002022
1410.0	0.00045	87.7350001335
1410.0	0.0004508	87.7660000324
1410.0	0.0004508	87.8130002022
1410.0	0.00045	87.8600001335
1410.0	0.0004488	87.8910000324
1410.0	0.0004483	87.9380002022
1410.0	0.0004475	87.9690001011
1410.0	0.000447	88.0160000324
1410.0	0.0004468	88.0630002022
1410.0	0.0004458	88.0940001011
1410.0	0.0004463	88.1410000324
1410.0	0.0004463	88.1880002022
1410.0	0.0004455	88.2190001011
1410.0	0.0004458	88.2660000324
1410.0	0.0004465	88.3130002022
1410.0	0.0004463	88.3440001011
1410.0	0.0004463	88.3910000324
1410.0	0.000445	88.4380002022
1410.0	0.0004433	88.4690001011
1410.0	0.0004428	88.5160000324
1410.0	0.0004438	88.5470001698
1410.0	0.000445	88.5940001011
1410.0	0.0004463	88.6410000324
1410.0	0.0004475	88.6880002022
1410.0	0.0004495	88.7190001011
1410.0	0.00045	88.7660000324
1410.0	0.00045	88.8130002022
1420.0	0.0004505	89.0789999962
1420.0	0.0004508	89.1100001335
1420.0	0.0004515	89.1570000648
1420.0	0.0004518	89.2039999962
1420.0	0.0004528	89.2350001335
1420.0	0.0004528	89.2820000648
1420.0	0.000452	89.3289999962
1420.0	0.0004515	89.3600001335
1420.0	0.0004513	89.4070000648
1420.0	0.0004503	89.4380002022
1420.0	0.0004495	89.4850001335
1420.0	0.0004493	89.5320000648
1420.0	0.0004493	89.5630002022
1420.0	0.0004493	89.6100001335
1420.0	0.0004488	89.6570000648
1420.0	0.000448	89.6880002022
1420.0	0.0004483	89.7350001335
1420.0	0.00045	89.7820000648
1420.0	0.0004508	89.8130002022
1420.0	0.0004515	89.8600001335
1420.0	0.0004518	89.8910000324
1420.0	0.000452	89.9380002022
1420.0	0.0004518	89.9850001335
1420.0	0.000452	90.0160000324
1420.0	0.0004533	90.0630002022
1420.0	0.000453	90.1100001335
1420.0	0.0004528	90.1410000324
1420.0	0.0004518	90.1880002022
1420.0	0.0004525	90.2350001335
1420.0	0.0004533	90.2660000324
1420.0	0.0004545	90.3130002022
1420.0	0.000454	90.3440001011
1420.0	0.0004528	90.3910000324
1420.0	0.0004513	90.4380002022
1420.0	0.0004505	90.4690001011
1420.0	0.00045	90.5160000324
1420.0	0.000449	90.5630002022
1430.0	0.0004505	90.8130002022
1430.0	0.0004503	90.8600001335
1430.0	0.000452	90.9070000648
1430.0	0.000454	90.9380002022
1430.0	0.000455	90.9850001335
1430.0	0.0004565	91.0160000324
1430.0	0.0004578	91.0630002022
1430.0	0.0004568	91.1100001335
1430.0	0.0004558	91.1410000324
1430.0	0.0004563	91.1880002022
1430.0	0.000457	91.2350001335
1430.0	0.0004575	91.2660000324
1430.0	0.0004578	91.3130002022
1430.0	0.000458	91.3440001011
1430.0	0.0004575	91.3910000324
1430.0	0.0004565	91.4380002022
1430.0	0.0004563	91.4690001011
1430.0	0.0004565	91.5160000324
1430.0	0.0004568	91.5630002022
1430.0	0.0004565	91.5940001011
1430.0	0.0004558	91.6410000324
1430.0	0.000454	91.6880002022
1430.0	0.0004525	91.7190001011
1430.0	0.0004513	91.7660000324
1430.0	0.0004513	91.7970001698
1430.0	0.000452	91.8440001011
1430.0	0.000453	91.8910000324
1430.0	0.0004533	91.9220001698
1430.0	0.000454	91.9690001011
1430.0	0.000454	92.0160000324
1430.0	0.000453	92.0470001698
1430.0	0.0004525	92.0940001011
1430.0	0.0004518	92.125
1430.0	0.0004518	92.1720001698
1430.0	0.000453	92.2190001011
1430.0	0.000454	92.25
1430.0	0.0004558	92.2970001698
1440.0	0.0004565	92.5630002022
1440.0	0.000459	92.6100001335
1440.0	0.0004605	92.6410000324
1440.0	0.0004628	92.6880002022
1440.0	0.000465	92.7350001335
1440.0	0.0004658	92.7660000324
1440.0	0.0004658	92.8130002022
1440.0	0.0004663	92.8440001011
1440.0	0.0004658	92.8910000324
1440.0	0.000465	92.9380002022
1440.0	0.0004645	92.9690001011
1440.0	0.0004643	93.0160000324
1440.0	0.0004653	93.0630002022
1440.0	0.0004653	93.0940001011
1440.0	0.000465	93.1410000324
1440.0	0.0004638	93.1720001698
1440.0	0.0004638	93.2190001011
1440.0	0.000464	93.2660000324
1440.0	0.0004638	93.2970001698
1440.0	0.000463	93.3440001011
1440.0	0.0004633	93.3910000324
1440.0	0.0004638	93.4220001698
1440.0	0.000463	93.4690001011
1440.0	0.000464	93.5
1440.0	0.0004645	93.5470001698
1440.0	0.0004643	93.5940001011
1440.0	0.0004645	93.625
1440.0	0.0004655	93.6720001698
1440.0	0.0004668	93.7190001011
1440.0	0.000468	93.7660000324
1440.0	0.0004683	93.7970001698
1440.0	0.000467	93.8440001011
1440.0	0.0004665	93.875
1440.0	0.0004655	93.9220001698
1440.0	0.0004645	93.9690001011
1440.0	0.0004633	94.0
1440.0	0.0004628	94.0470001698
1450.0	0.0004653	94.3130002022
1450.0	0.000468	94.3600001335
1450.0	0.0004708	94.3910000324
1450.0	0.0004713	94.4380002022
1450.0	0.0004713	94.4850001335
1450.0	0.0004713	94.5160000324
1450.0	0.0004708	94.5630002022
1450.0	0.0004695	94.5940001011
1450.0	0.00047	94.6410000324
1450.0	0.0004708	94.6880002022
1450.0	0.0004713	94.7190001011
1450.0	0.000473	94.7660000324
1450.0	0.0004743	94.8130002022
1450.0	0.000475	94.8440001011
1450.0	0.000475	94.8910000324
1450.0	0.000475	94.9220001698
1450.0	0.0004758	94.9690001011
1450.0	0.0004755	95.0160000324
1450.0	0.0004758	95.0630002022
1450.0	0.0004763	95.0940001011
1450.0	0.0004765	95.1410000324
1450.0	0.0004758	95.1720001698
1450.0	0.0004738	95.2190001011
1450.0	0.0004738	95.2660000324
1450.0	0.0004743	95.2970001698
1450.0	0.0004733	95.3440001011
1450.0	0.0004718	95.3910000324
1450.0	0.0004708	95.4220001698
1450.0	0.0004703	95.4690001011
1450.0	0.00047	95.5
1450.0	0.0004713	95.5470001698
1450.0	0.0004728	95.5940001011
1450.0	0.0004738	95.625
1450.0	0.0004745	95.6720001698
1450.0	0.000475	95.7190001011
1450.0	0.000475	95.75
1450.0	0.000475	95.7970001698
1460.0	0.0004788	96.0630002022
1460.0	0.0004793	96.1100001335
1460.0	0.0004805	96.1410000324
1460.0	0.000482	96.1880002022
1460.0	0.0004825	96.2350001335
1460.0	0.0004825	96.2660000324
1460.0	0.0004838	96.3130002022
1460.0	0.000485	96.3600001335
1460.0	0.0004855	96.3910000324
1460.0	0.0004853	96.4380002022
1460.0	0.0004845	96.4850001335
1460.0	0.0004845	96.5160000324
1460.0	0.0004845	96.5630002022
1460.0	0.0004843	96.5940001011
1460.0	0.0004833	96.6410000324
1460.0	0.000482	96.6880002022
1460.0	0.0004813	96.7190001011
1460.0	0.0004815	96.7660000324
1460.0	0.000483	96.8130002022
1460.0	0.000484	96.8440001011
1460.0	0.0004855	96.8910000324
1460.0	0.0004868	96.9220001698
1460.0	0.0004863	96.9690001011
1460.0	0.0004855	97.0160000324
1460.0	0.0004865	97.0470001698
1460.0	0.0004863	97.0940001011
1460.0	0.0004855	97.1410000324
1460.0	0.0004838	97.1720001698
1460.0	0.0004825	97.2190001011
1460.0	0.0004815	97.25
1460.0	0.0004813	97.2970001698
1460.0	0.0004815	97.3440001011
1460.0	0.0004815	97.375
1460.0	0.0004808	97.4220001698
1460.0	0.0004803	97.4690001011
1460.0	0.0004803	97.5
1460.0	0.00048	97.5470001698
1470.0	0.0004833	97.8130002022
1470.0	0.0004855	97.8600001335
1470.0	0.0004868	97.8910000324
1470.0	0.0004875	97.9380002022
1470.0	0.000487	97.9850001335
1470.0	0.0004868	98.0160000324
1470.0	0.0004875	98.0630002022
1470.0	0.000488	98.1100001335
1470.0	0.0004878	98.1570000648
1470.0	0.000487	98.1880002022
1470.0	0.0004865	98.2350001335
1470.0	0.0004865	98.2660000324
1470.0	0.0004878	98.3130002022
1470.0	0.000489	98.3600001335
1470.0	0.000489	98.3910000324
1470.0	0.000488	98.4380002022
1470.0	0.0004878	98.4850001335
1470.0	0.0004863	98.5160000324
1470.0	0.0004863	98.5630002022
1470.0	0.0004855	98.6100001335
1470.0	0.0004845	98.6410000324
1470.0	0.0004858	98.6880002022
1470.0	0.0004865	98.7350001335
1470.0	0.0004865	98.7660000324
1470.0	0.000487	98.8130002022
1470.0	0.000487	98.8600001335
1470.0	0.0004863	98.8910000324
1470.0	0.000485	98.9380002022
1470.0	0.0004853	98.9690001011
1470.0	0.0004855	99.0160000324
1470.0	0.0004863	99.0630002022
1470.0	0.0004858	99.0940001011
1470.0	0.0004855	99.1410000324
1470.0	0.0004863	99.1880002022
1470.0	0.0004868	99.2190001011
1470.0	0.0004863	99.2660000324
1480.0	0.0004903	99.5320000648
1480.0	0.000492	99.5789999962
1480.0	0.0004928	99.6100001335
1480.0	0.000493	99.6570000648
1480.0	0.0004933	99.7039999962
1480.0	0.000493	99.7350001335
1480.0	0.0004925	99.7820000648
1480.0	0.0004925	99.8289999962
1480.0	0.000492	99.8600001335
1480.0	0.0004913	99.9070000648
1480.0	0.000492	99.9380002022
1480.0	0.000493	99.9850001335
1480.0	0.0004933	100.032000065
1480.0	0.0004925	100.078999996
1480.0	0.0004915	100.110000134
1480.0	0.0004905	100.157000065
1480.0	0.000489	100.188000202
1480.0	0.0004878	100.235000134
1480.0	0.0004875	100.282000065
1480.0	0.000488	100.313000202
1480.0	0.0004888	100.360000134
1480.0	0.0004895	100.407000065
1480.0	0.0004895	100.438000202
1480.0	0.0004893	100.485000134
1480.0	0.0004895	100.516000032
1480.0	0.0004895	100.563000202
1480.0	0.0004908	100.610000134
1480.0	0.0004908	100.641000032
1480.0	0.0004908	100.688000202
1480.0	0.0004918	100.735000134
1480.0	0.0004933	100.766000032
1480.0	0.0004943	100.813000202
1480.0	0.0004945	100.844000101
1480.0	0.0004955	100.891000032
1480.0	0.0004945	100.938000202
1480.0	0.000494	100.969000101
1480.0	0.0004933	101.016000032
1490.0	0.000489	101.282000065
1490.0	0.0004895	101.328999996
1490.0	0.000489	101.375
1490.0	0.0004883	101.407000065
1490.0	0.0004888	101.453999996
1490.0	0.0004888	101.485000134
1490.0	0.00049	101.532000065
1490.0	0.000492	101.578999996
1490.0	0.000492	101.610000134
1490.0	0.0004915	101.657000065
1490.0	0.00049	101.703999996
1490.0	0.0004893	101.735000134
1490.0	0.000489	101.782000065
1490.0	0.0004893	101.828999996
1490.0	0.0004905	101.860000134
1490.0	0.0004925	101.907000065
1490.0	0.0004943	101.953999996
1490.0	0.000495	101.985000134
1490.0	0.0004945	102.032000065
1490.0	0.0004963	102.078999996
1490.0	0.000497	102.110000134
1490.0	0.0004968	102.157000065
1490.0	0.0004963	102.203999996
1490.0	0.000497	102.235000134
1490.0	0.0004963	102.282000065
1490.0	0.0004955	102.328999996
1490.0	0.0004938	102.360000134
1490.0	0.000492	102.407000065
1490.0	0.0004918	102.438000202
1490.0	0.000492	102.485000134
1490.0	0.0004928	102.532000065
1490.0	0.0004928	102.563000202
1490.0	0.0004938	102.610000134
1490.0	0.0004945	102.657000065
1490.0	0.0004955	102.688000202
1490.0	0.000495	102.735000134
1490.0	0.0004953	102.782000065
1500.0	0.0004938	103.04700017
1500.0	0.0004933	103.078999996
1500.0	0.000493	103.125
1500.0	0.0004928	103.17200017
1500.0	0.0004933	103.203999996
1500.0	0.0004915	103.25
1500.0	0.0004915	103.29700017
1500.0	0.0004915	103.328999996
1500.0	0.0004913	103.375
1500.0	0.000492	103.407000065
1500.0	0.0004925	103.453999996
1500.0	0.0004918	103.5
1500.0	0.0004903	103.54700017
1500.0	0.000489	103.578999996
1500.0	0.0004883	103.625
1500.0	0.000489	103.67200017
1500.0	0.0004913	103.703999996
1500.0	0.0004925	103.75
1500.0	0.0004933	103.79700017
1500.0	0.0004928	103.844000101
1500.0	0.0004928	103.875
1500.0	0.000493	103.92200017
1500.0	0.0004928	103.953999996
1500.0	0.0004918	104.0
1500.0	0.0004903	104.04700017
1500.0	0.0004893	104.078999996
1500.0	0.0004875	104.125
1500.0	0.0004875	104.17200017
1500.0	0.0004888	104.203999996
1500.0	0.000489	104.25
1500.0	0.0004888	104.282000065
1500.0	0.0004893	104.328999996
1500.0	0.0004905	104.375
1500.0	0.0004895	104.407000065
1500.0	0.0004893	104.453999996
1500.0	0.000489	104.5
1510.0	0.0004938	104.766000032
1510.0	0.000493	104.813000202
1510.0	0.0004915	104.860000134
1510.0	0.0004903	104.891000032
1510.0	0.0004908	104.938000202
1510.0	0.0004908	104.969000101
1510.0	0.0004918	105.016000032
1510.0	0.0004925	105.063000202
1510.0	0.0004925	105.094000101
1510.0	0.0004913	105.141000032
1510.0	0.0004895	105.188000202
1510.0	0.0004875	105.219000101
1510.0	0.0004883	105.266000032
1510.0	0.000489	105.313000202
1510.0	0.0004895	105.344000101
1510.0	0.0004905	105.391000032
1510.0	0.0004905	105.438000202
1510.0	0.0004908	105.469000101
1510.0	0.0004905	105.516000032
1510.0	0.0004908	105.563000202
1510.0	0.0004915	105.594000101
1510.0	0.0004918	105.641000032
1510.0	0.000492	105.67200017
1510.0	0.0004925	105.719000101
1510.0	0.0004905	105.766000032
1510.0	0.0004903	105.79700017
1510.0	0.00049	105.844000101
1510.0	0.00049	105.875
1510.0	0.00049	105.92200017
1510.0	0.0004893	105.969000101
1510.0	0.0004895	106.0
1510.0	0.0004908	106.04700017
1510.0	0.000493	106.094000101
1510.0	0.0004943	106.125
1510.0	0.0004938	106.17200017
1510.0	0.0004925	106.203999996
1510.0	0.0004913	106.25
1520.0	0.0004915	106.532000065
1520.0	0.0004908	106.563000202
1520.0	0.0004903	106.610000134
1520.0	0.0004908	106.657000065
1520.0	0.0004918	106.688000202
1520.0	0.000493	106.735000134
1520.0	0.0004943	106.782000065
1520.0	0.0004945	106.813000202
1520.0	0.0004945	106.860000134
1520.0	0.0004943	106.907000065
1520.0	0.0004943	106.938000202
1520.0	0.000495	106.985000134
1520.0	0.0004953	107.032000065
1520.0	0.000495	107.063000202
1520.0	0.000493	107.110000134
1520.0	0.0004908	107.141000032
1520.0	0.0004888	107.188000202
1520.0	0.000487	107.235000134
1520.0	0.0004863	107.266000032
1520.0	0.0004868	107.313000202
1520.0	0.0004883	107.360000134
1520.0	0.0004895	107.391000032
1520.0	0.0004903	107.438000202
1520.0	0.0004893	107.485000134
1520.0	0.000487	107.516000032
1520.0	0.000487	107.563000202
1520.0	0.0004868	107.610000134
1520.0	0.0004865	107.641000032
1520.0	0.0004863	107.688000202
1520.0	0.0004863	107.735000134
1520.0	0.0004855	107.766000032
1520.0	0.0004865	107.813000202
1520.0	0.000487	107.844000101
1520.0	0.0004868	107.891000032
1520.0	0.0004878	107.938000202
1520.0	0.000487	107.969000101
1520.0	0.0004863	108.016000032
1530.0	0.000487	108.29700017
1530.0	0.0004853	108.328999996
1530.0	0.0004838	108.375
1530.0	0.0004843	108.407000065
1530.0	0.0004845	108.453999996
1530.0	0.0004855	108.5
1530.0	0.0004858	108.532000065
1530.0	0.0004855	108.578999996
1530.0	0.0004838	108.625
1530.0	0.000484	108.657000065
1530.0	0.000485	108.703999996
1530.0	0.000485	108.735000134
1530.0	0.0004855	108.782000065
1530.0	0.0004863	108.828999996
1530.0	0.0004858	108.860000134
1530.0	0.0004858	108.907000065
1530.0	0.0004858	108.953999996
1530.0	0.0004853	108.985000134
1530.0	0.0004855	109.032000065
1530.0	0.000488	109.063000202
1530.0	0.000489	109.110000134
1530.0	0.0004888	109.157000065
1530.0	0.0004868	109.188000202
1530.0	0.0004843	109.235000134
1530.0	0.0004825	109.282000065
1530.0	0.0004825	109.313000202
1530.0	0.000483	109.360000134
1530.0	0.000483	109.391000032
1530.0	0.0004845	109.438000202
1530.0	0.0004855	109.485000134
1530.0	0.0004865	109.516000032
1530.0	0.0004878	109.563000202
1530.0	0.000489	109.610000134
1530.0	0.00049	109.641000032
1530.0	0.0004903	109.688000202
1530.0	0.0004908	109.735000134
1530.0	0.000492	109.766000032
1540.0	0.000487	110.04700017
1540.0	0.0004863	110.078999996
1540.0	0.0004858	110.125
1540.0	0.0004855	110.17200017
1540.0	0.000485	110.203999996
1540.0	0.000485	110.25
1540.0	0.0004845	110.29700017
1540.0	0.000484	110.328999996
1540.0	0.0004838	110.375
1540.0	0.0004838	110.407000065
1540.0	0.0004838	110.453999996
1540.0	0.000484	110.5
1540.0	0.0004838	110.532000065
1540.0	0.0004825	110.578999996
1540.0	0.0004813	110.625
1540.0	0.0004805	110.657000065
1540.0	0.0004808	110.703999996
1540.0	0.0004805	110.75
1540.0	0.0004795	110.782000065
1540.0	0.000479	110.828999996
1540.0	0.000479	110.875
1540.0	0.0004795	110.907000065
1540.0	0.0004795	110.953999996
1540.0	0.0004793	111.0
1540.0	0.000479	111.032000065
1540.0	0.00048	111.078999996
1540.0	0.0004805	111.110000134
1540.0	0.0004815	111.157000065
1540.0	0.000482	111.203999996
1540.0	0.0004825	111.235000134
1540.0	0.0004815	111.282000065
1540.0	0.0004813	111.328999996
1540.0	0.0004813	111.360000134
1540.0	0.0004815	111.407000065
1540.0	0.0004818	111.438000202
1540.0	0.0004813	111.485000134
1540.0	0.0004808	111.532000065
1550.0	0.0004788	111.79700017
1550.0	0.000479	111.844000101
1550.0	0.0004783	111.875
1550.0	0.000479	111.92200017
1550.0	0.0004788	111.969000101
1550.0	0.000478	112.016000032
1550.0	0.000478	112.04700017
1550.0	0.000478	112.094000101
1550.0	0.0004775	112.141000032
1550.0	0.000478	112.17200017
1550.0	0.0004778	112.219000101
1550.0	0.0004765	112.25
1550.0	0.0004763	112.29700017
1550.0	0.0004763	112.344000101
1550.0	0.0004765	112.375
1550.0	0.0004758	112.42200017
1550.0	0.0004753	112.469000101
1550.0	0.0004755	112.5
1550.0	0.0004758	112.54700017
1550.0	0.0004765	112.578999996
1550.0	0.000477	112.625
1550.0	0.0004768	112.67200017
1550.0	0.0004768	112.703999996
1550.0	0.0004768	112.75
1550.0	0.0004775	112.79700017
1550.0	0.0004775	112.828999996
1550.0	0.0004778	112.875
1550.0	0.000478	112.907000065
1550.0	0.000479	112.953999996
1550.0	0.0004793	113.0
1550.0	0.0004793	113.032000065
1550.0	0.0004783	113.078999996
1550.0	0.0004778	113.125
1550.0	0.0004778	113.157000065
1550.0	0.0004768	113.203999996
1550.0	0.000477	113.25
1550.0	0.0004768	113.282000065
1560.0	0.0004738	113.563000202
1560.0	0.0004728	113.594000101
1560.0	0.0004718	113.641000032
1560.0	0.0004718	113.688000202
1560.0	0.0004715	113.719000101
1560.0	0.0004713	113.766000032
1560.0	0.0004713	113.813000202
1560.0	0.0004708	113.844000101
1560.0	0.0004708	113.891000032
1560.0	0.0004713	113.938000202
1560.0	0.0004713	113.969000101
1560.0	0.0004705	114.016000032
1560.0	0.0004703	114.04700017
1560.0	0.0004703	114.094000101
1560.0	0.000469	114.141000032
1560.0	0.000468	114.17200017
1560.0	0.0004668	114.219000101
1560.0	0.0004663	114.25
1560.0	0.0004655	114.29700017
1560.0	0.000465	114.344000101
1560.0	0.0004645	114.375
1560.0	0.0004645	114.42200017
1560.0	0.0004658	114.469000101
1560.0	0.000468	114.5
1560.0	0.000469	114.54700017
1560.0	0.0004693	114.578999996
1560.0	0.000469	114.625
1560.0	0.000468	114.67200017
1560.0	0.0004675	114.703999996
1560.0	0.0004675	114.75
1560.0	0.000468	114.79700017
1560.0	0.0004693	114.828999996
1560.0	0.0004708	114.875
1560.0	0.0004725	114.92200017
1560.0	0.0004728	114.953999996
1560.0	0.000473	115.0
1560.0	0.0004733	115.032000065
1570.0	0.0004693	115.313000202
1570.0	0.000469	115.360000134
1570.0	0.0004675	115.391000032
1570.0	0.0004655	115.438000202
1570.0	0.0004638	115.485000134
1570.0	0.0004625	115.516000032
1570.0	0.0004615	115.563000202
1570.0	0.0004628	115.594000101
1570.0	0.000464	115.641000032
1570.0	0.0004653	115.688000202
1570.0	0.0004655	115.719000101
1570.0	0.0004663	115.766000032
1570.0	0.0004668	115.813000202
1570.0	0.0004658	115.844000101
1570.0	0.0004645	115.891000032
1570.0	0.000464	115.92200017
1570.0	0.0004638	115.969000101
1570.0	0.0004638	116.016000032
1570.0	0.0004638	116.063000202
1570.0	0.0004643	116.094000101
1570.0	0.0004653	116.141000032
1570.0	0.0004655	116.188000202
1570.0	0.0004665	116.219000101
1570.0	0.0004668	116.266000032
1570.0	0.0004655	116.29700017
1570.0	0.0004653	116.344000101
1570.0	0.000465	116.391000032
1570.0	0.0004653	116.42200017
1570.0	0.0004658	116.469000101
1570.0	0.0004668	116.516000032
1570.0	0.0004663	116.54700017
1570.0	0.0004653	116.594000101
1570.0	0.0004653	116.641000032
1570.0	0.0004645	116.67200017
1570.0	0.000464	116.719000101
1570.0	0.0004638	116.766000032
1580.0	0.000464	117.032000065
1580.0	0.0004618	117.078999996
1580.0	0.0004595	117.110000134
1580.0	0.000458	117.157000065
1580.0	0.0004558	117.203999996
1580.0	0.0004543	117.235000134
1580.0	0.0004533	117.282000065
1580.0	0.0004543	117.328999996
1580.0	0.000455	117.360000134
1580.0	0.0004545	117.407000065
1580.0	0.000454	117.453999996
1580.0	0.000454	117.485000134
1580.0	0.0004538	117.532000065
1580.0	0.000454	117.578999996
1580.0	0.000454	117.610000134
1580.0	0.000454	117.657000065
1580.0	0.0004543	117.688000202
1580.0	0.0004555	117.735000134
1580.0	0.0004565	117.782000065
1580.0	0.0004575	117.813000202
1580.0	0.000458	117.860000134
1580.0	0.000457	117.907000065
1580.0	0.0004578	117.938000202
1580.0	0.0004583	117.985000134
1580.0	0.0004575	118.032000065
1580.0	0.0004568	118.063000202
1580.0	0.0004568	118.110000134
1580.0	0.000457	118.141000032
1580.0	0.000457	118.188000202
1580.0	0.0004575	118.235000134
1580.0	0.000457	118.266000032
1580.0	0.0004575	118.313000202
1580.0	0.000458	118.360000134
1580.0	0.000459	118.391000032
1580.0	0.0004588	118.438000202
1580.0	0.000459	118.469000101
1580.0	0.0004605	118.516000032
1590.0	0.0004555	118.79700017
1590.0	0.0004538	118.828999996
1590.0	0.0004515	118.875
1590.0	0.0004503	118.92200017
1590.0	0.0004503	118.953999996
1590.0	0.0004493	119.0
1590.0	0.0004478	119.032000065
1590.0	0.0004468	119.078999996
1590.0	0.0004455	119.125
1590.0	0.0004453	119.157000065
1590.0	0.0004445	119.203999996
1590.0	0.000444	119.25
1590.0	0.0004428	119.282000065
1590.0	0.0004405	119.328999996
1590.0	0.000438	119.375
1590.0	0.000438	119.407000065
1590.0	0.0004383	119.453999996
1590.0	0.0004393	119.5
1590.0	0.0004415	119.532000065
1590.0	0.0004438	119.578999996
1590.0	0.0004463	119.625
1590.0	0.0004475	119.657000065
1590.0	0.0004475	119.703999996
1590.0	0.0004478	119.75
1590.0	0.0004475	119.782000065
1590.0	0.0004468	119.828999996
1590.0	0.0004455	119.875
1590.0	0.0004443	119.907000065
1590.0	0.0004438	119.953999996
1590.0	0.0004428	119.985000134
1590.0	0.0004425	120.032000065
1590.0	0.0004428	120.078999996
1590.0	0.000443	120.110000134
1590.0	0.0004438	120.157000065
1590.0	0.000444	120.203999996
1590.0	0.000443	120.235000134
1590.0	0.000443	120.282000065
1600.0	0.0004438	120.54700017
1600.0	0.0004425	120.594000101
1600.0	0.000442	120.641000032
1600.0	0.0004415	120.67200017
1600.0	0.0004405	120.719000101
1600.0	0.000438	120.766000032
1600.0	0.0004358	120.79700017
1600.0	0.0004343	120.844000101
1600.0	0.0004338	120.875
1600.0	0.000433	120.92200017
1600.0	0.0004333	120.969000101
1600.0	0.000433	121.0
1600.0	0.0004328	121.04700017
1600.0	0.0004333	121.094000101
1600.0	0.000434	121.125
1600.0	0.0004355	121.17200017
1600.0	0.000437	121.203999996
1600.0	0.0004375	121.25
1600.0	0.0004365	121.29700017
1600.0	0.0004345	121.328999996
1600.0	0.0004328	121.375
1600.0	0.0004318	121.42200017
1600.0	0.000432	121.453999996
1600.0	0.0004325	121.5
1600.0	0.0004325	121.54700017
1600.0	0.0004325	121.578999996
1600.0	0.000432	121.625
1600.0	0.0004318	121.657000065
1600.0	0.0004308	121.703999996
1600.0	0.0004313	121.75
1600.0	0.0004308	121.782000065
1600.0	0.00043	121.828999996
1600.0	0.00043	121.875
1600.0	0.00043	121.907000065
1600.0	0.0004303	121.953999996
1600.0	0.0004313	121.985000134
1600.0	0.000432	122.032000065
1610.0	0.0004305	122.313000202
1610.0	0.000428	122.360000134
1610.0	0.000425	122.391000032
1610.0	0.000424	122.438000202
1610.0	0.0004225	122.469000101
1610.0	0.0004225	122.516000032
1610.0	0.000422	122.563000202
1610.0	0.000422	122.594000101
1610.0	0.0004215	122.641000032
1610.0	0.00042	122.688000202
1610.0	0.00042	122.719000101
1610.0	0.0004195	122.766000032
1610.0	0.0004183	122.79700017
1610.0	0.0004183	122.844000101
1610.0	0.000418	122.891000032
1610.0	0.000417	122.92200017
1610.0	0.0004163	122.969000101
1610.0	0.0004153	123.016000032
1610.0	0.000415	123.04700017
1610.0	0.0004158	123.094000101
1610.0	0.0004158	123.125
1610.0	0.0004158	123.17200017
1610.0	0.0004163	123.219000101
1610.0	0.0004165	123.25
1610.0	0.0004155	123.29700017
1610.0	0.0004163	123.344000101
1610.0	0.0004178	123.391000032
1610.0	0.000417	123.42200017
1610.0	0.0004168	123.469000101
1610.0	0.0004175	123.5
1610.0	0.0004178	123.54700017
1610.0	0.000418	123.594000101
1610.0	0.0004178	123.625
1610.0	0.0004163	123.67200017
1610.0	0.0004155	123.719000101
1610.0	0.0004155	123.75
1610.0	0.000415	123.79700017
1620.0	0.0004105	124.078999996
1620.0	0.0004095	124.110000134
1620.0	0.0004095	124.157000065
1620.0	0.0004103	124.203999996
1620.0	0.0004103	124.235000134
1620.0	0.0004093	124.282000065
1620.0	0.0004095	124.313000202
1620.0	0.000409	124.360000134
1620.0	0.0004095	124.407000065
1620.0	0.0004095	124.438000202
1620.0	0.0004078	124.485000134
1620.0	0.000407	124.532000065
1620.0	0.0004083	124.563000202
1620.0	0.00041	124.610000134
1620.0	0.0004105	124.657000065
1620.0	0.0004105	124.688000202
1620.0	0.0004095	124.735000134
1620.0	0.0004075	124.766000032
1620.0	0.000407	124.813000202
1620.0	0.000407	124.860000134
1620.0	0.0004063	124.891000032
1620.0	0.0004053	124.938000202
1620.0	0.000405	124.985000134
1620.0	0.0004043	125.016000032
1620.0	0.000403	125.063000202
1620.0	0.0004028	125.094000101
1620.0	0.0004028	125.141000032
1620.0	0.0004038	125.188000202
1620.0	0.000404	125.219000101
1620.0	0.0004043	125.266000032
1620.0	0.0004038	125.313000202
1620.0	0.000404	125.344000101
1620.0	0.0004045	125.391000032
1620.0	0.000405	125.42200017
1620.0	0.0004058	125.469000101
1620.0	0.0004063	125.516000032
1620.0	0.0004063	125.54700017
1630.0	0.000397	125.828999996
1630.0	0.0003945	125.875
1630.0	0.000392	125.92200017
1630.0	0.0003895	125.953999996
1630.0	0.0003883	126.0
1630.0	0.0003883	126.04700017
1630.0	0.0003883	126.078999996
1630.0	0.0003888	126.125
1630.0	0.000388	126.17200017
1630.0	0.0003868	126.203999996
1630.0	0.0003853	126.25
1630.0	0.0003838	126.29700017
1630.0	0.0003828	126.328999996
1630.0	0.000382	126.375
1630.0	0.000382	126.42200017
1630.0	0.0003838	126.453999996
1630.0	0.0003853	126.5
1630.0	0.0003863	126.532000065
1630.0	0.0003868	126.578999996
1630.0	0.0003865	126.625
1630.0	0.000387	126.657000065
1630.0	0.0003888	126.703999996
1630.0	0.0003883	126.75
1630.0	0.0003875	126.782000065
1630.0	0.0003883	126.828999996
1630.0	0.000389	126.860000134
1630.0	0.0003893	126.907000065
1630.0	0.000388	126.953999996
1630.0	0.000387	126.985000134
1630.0	0.0003868	127.032000065
1630.0	0.0003875	127.078999996
1630.0	0.0003893	127.110000134
1630.0	0.0003895	127.157000065
1630.0	0.0003895	127.188000202
1630.0	0.0003903	127.235000134
1630.0	0.0003908	127.282000065
1630.0	0.0003905	127.328999996
1640.0	0.0003825	127.610000134
1640.0	0.0003805	127.641000032
1640.0	0.0003788	127.688000202
1640.0	0.0003765	127.735000134
1640.0	0.0003743	127.766000032
1640.0	0.000372	127.813000202
1640.0	0.0003705	127.860000134
1640.0	0.0003693	127.891000032
1640.0	0.0003688	127.938000202
1640.0	0.0003675	127.969000101
1640.0	0.0003668	128.016000032
1640.0	0.0003675	128.063000202
1640.0	0.000369	128.094000101
1640.0	0.000369	128.141000032
1640.0	0.0003695	128.188000202
1640.0	0.000368	128.219000101
1640.0	0.0003663	128.266000032
1640.0	0.0003653	128.29700017
1640.0	0.0003663	128.344000101
1640.0	0.0003663	128.391000032
1640.0	0.000368	128.42200017
1640.0	0.0003703	128.469000101
1640.0	0.0003715	128.516000032
1640.0	0.0003703	128.54700017
1640.0	0.0003693	128.594000101
1640.0	0.0003688	128.641000032
1640.0	0.0003683	128.67200017
1640.0	0.000368	128.719000101
1640.0	0.0003683	128.766000032
1640.0	0.0003688	128.79700017
1640.0	0.0003678	128.844000101
1640.0	0.0003668	128.891000032
1640.0	0.0003658	128.92200017
1640.0	0.0003668	128.969000101
1640.0	0.000367	129.0
1640.0	0.0003665	129.04700017
1640.0	0.0003663	129.094000101
1650.0	0.0003638	129.375
1650.0	0.0003608	129.407000065
1650.0	0.0003588	129.453999996
1650.0	0.0003568	129.5
1650.0	0.0003553	129.54700017
1650.0	0.0003538	129.578999996
1650.0	0.0003525	129.625
1650.0	0.0003505	129.657000065
1650.0	0.0003495	129.703999996
1650.0	0.00035	129.75
1650.0	0.0003505	129.782000065
1650.0	0.0003505	129.828999996
1650.0	0.0003495	129.875
1650.0	0.0003488	129.907000065
1650.0	0.0003478	129.953999996
1650.0	0.0003468	129.985000134
1650.0	0.0003463	130.032000065
1650.0	0.000347	130.078999996
1650.0	0.0003483	130.110000134
1650.0	0.0003488	130.157000065
1650.0	0.000348	130.203999996
1650.0	0.0003475	130.235000134
1650.0	0.0003468	130.282000065
1650.0	0.000347	130.328999996
1650.0	0.0003475	130.360000134
1650.0	0.000347	130.407000065
1650.0	0.0003475	130.438000202
1650.0	0.000348	130.485000134
1650.0	0.0003478	130.532000065
1650.0	0.0003483	130.563000202
1650.0	0.000348	130.610000134
1650.0	0.000348	130.657000065
1650.0	0.0003475	130.688000202
1650.0	0.0003475	130.735000134
1650.0	0.000347	130.766000032
1650.0	0.000347	130.813000202
1650.0	0.000347	130.860000134
1660.0	0.0003425	131.141000032
1660.0	0.0003413	131.17200017
1660.0	0.0003395	131.219000101
1660.0	0.0003383	131.266000032
1660.0	0.0003368	131.313000202
1660.0	0.0003353	131.344000101
1660.0	0.0003338	131.391000032
1660.0	0.0003318	131.438000202
1660.0	0.0003313	131.469000101
1660.0	0.0003295	131.516000032
1660.0	0.0003288	131.54700017
1660.0	0.0003293	131.594000101
1660.0	0.0003295	131.641000032
1660.0	0.000329	131.67200017
1660.0	0.0003283	131.719000101
1660.0	0.0003288	131.75
1660.0	0.0003295	131.79700017
1660.0	0.0003303	131.844000101
1660.0	0.0003308	131.875
1660.0	0.0003315	131.92200017
1660.0	0.0003315	131.969000101
1660.0	0.0003313	132.0
1660.0	0.0003305	132.04700017
1660.0	0.0003295	132.094000101
1660.0	0.0003303	132.125
1660.0	0.00033	132.17200017
1660.0	0.00033	132.219000101
1660.0	0.0003295	132.25
1660.0	0.0003303	132.29700017
1660.0	0.0003303	132.344000101
1660.0	0.0003303	132.375
1660.0	0.0003305	132.42200017
1660.0	0.0003305	132.453999996
1660.0	0.0003315	132.5
1660.0	0.0003328	132.54700017
1660.0	0.0003338	132.578999996
1660.0	0.000333	132.625
1670.0	0.0003215	132.907000065
1670.0	0.0003195	132.953999996
1670.0	0.0003183	133.0
1670.0	0.0003163	133.032000065
1670.0	0.0003145	133.078999996
1670.0	0.0003128	133.125
1670.0	0.0003113	133.157000065
1670.0	0.0003108	133.203999996
1670.0	0.0003108	133.235000134
1670.0	0.00031	133.282000065
1670.0	0.0003095	133.328999996
1670.0	0.0003108	133.375
1670.0	0.000312	133.407000065
1670.0	0.0003125	133.453999996
1670.0	0.0003128	133.485000134
1670.0	0.0003125	133.532000065
1670.0	0.000313	133.578999996
1670.0	0.0003118	133.610000134
1670.0	0.0003113	133.657000065
1670.0	0.0003108	133.703999996
1670.0	0.0003105	133.735000134
1670.0	0.0003108	133.782000065
1670.0	0.0003113	133.813000202
1670.0	0.0003118	133.860000134
1670.0	0.0003128	133.907000065
1670.0	0.000314	133.938000202
1670.0	0.0003143	133.985000134
1670.0	0.0003133	134.032000065
1670.0	0.0003118	134.063000202
1670.0	0.0003103	134.110000134
1670.0	0.0003103	134.157000065
1670.0	0.0003115	134.188000202
1670.0	0.0003125	134.235000134
1670.0	0.0003118	134.266000032
1670.0	0.000312	134.313000202
1670.0	0.0003125	134.360000134
1670.0	0.0003118	134.391000032
1680.0	0.000307	134.67200017
1680.0	0.0003045	134.719000101
1680.0	0.0003025	134.766000032
1680.0	0.0003008	134.79700017
1680.0	0.0002993	134.844000101
1680.0	0.000298	134.891000032
1680.0	0.000297	134.92200017
1680.0	0.0002968	134.969000101
1680.0	0.0002978	135.0
1680.0	0.0002983	135.04700017
1680.0	0.0002978	135.094000101
1680.0	0.0002978	135.125
1680.0	0.0002993	135.17200017
1680.0	0.0003	135.219000101
1680.0	0.0002993	135.25
1680.0	0.000299	135.29700017
1680.0	0.000299	135.328999996
1680.0	0.000298	135.375
1680.0	0.0002968	135.42200017
1680.0	0.0002965	135.453999996
1680.0	0.000297	135.5
1680.0	0.000297	135.54700017
1680.0	0.0002963	135.594000101
1680.0	0.0002968	135.625
1680.0	0.0002975	135.67200017
1680.0	0.000297	135.703999996
1680.0	0.000297	135.75
1680.0	0.0002965	135.79700017
1680.0	0.000297	135.828999996
1680.0	0.0002975	135.875
1680.0	0.000297	135.92200017
1680.0	0.0002983	135.953999996
1680.0	0.0002993	136.0
1680.0	0.0003	136.032000065
1680.0	0.0002995	136.078999996
1680.0	0.0003	136.125
1680.0	0.0003003	136.157000065
1690.0	0.0002938	136.453999996
1690.0	0.0002905	136.485000134
1690.0	0.000289	136.532000065
1690.0	0.000287	136.578999996
1690.0	0.0002843	136.610000134
1690.0	0.000282	136.657000065
1690.0	0.0002795	136.703999996
1690.0	0.0002783	136.75
1690.0	0.0002788	136.782000065
1690.0	0.0002793	136.828999996
1690.0	0.0002788	136.875
1690.0	0.0002783	136.907000065
1690.0	0.0002788	136.953999996
1690.0	0.0002795	136.985000134
1690.0	0.0002793	137.032000065
1690.0	0.0002793	137.078999996
1690.0	0.0002803	137.110000134
1690.0	0.0002815	137.157000065
1690.0	0.000282	137.203999996
1690.0	0.0002815	137.235000134
1690.0	0.0002808	137.282000065
1690.0	0.0002805	137.313000202
1690.0	0.00028	137.360000134
1690.0	0.00028	137.407000065
1690.0	0.0002803	137.438000202
1690.0	0.0002813	137.485000134
1690.0	0.0002818	137.532000065
1690.0	0.0002833	137.563000202
1690.0	0.0002843	137.610000134
1690.0	0.0002853	137.641000032
1690.0	0.000285	137.688000202
1690.0	0.0002838	137.735000134
1690.0	0.000282	137.766000032
1690.0	0.0002808	137.813000202
1690.0	0.0002795	137.860000134
1690.0	0.0002793	137.891000032
1690.0	0.00028	137.938000202
1700.0	0.000278	138.219000101
1700.0	0.0002778	138.266000032
1700.0	0.0002783	138.313000202
1700.0	0.0002775	138.344000101
1700.0	0.0002763	138.391000032
1700.0	0.0002738	138.42200017
1700.0	0.0002725	138.469000101
1700.0	0.0002715	138.516000032
1700.0	0.0002708	138.54700017
1700.0	0.0002703	138.594000101
1700.0	0.000268	138.641000032
1700.0	0.000267	138.67200017
1700.0	0.0002675	138.719000101
1700.0	0.0002675	138.75
1700.0	0.0002675	138.79700017
1700.0	0.0002688	138.844000101
1700.0	0.000269	138.875
1700.0	0.0002688	138.92200017
1700.0	0.0002683	138.969000101
1700.0	0.0002693	139.0
1700.0	0.0002693	139.04700017
1700.0	0.00027	139.078999996
1700.0	0.000272	139.125
1700.0	0.000273	139.17200017
1700.0	0.0002718	139.203999996
1700.0	0.0002693	139.25
1700.0	0.0002675	139.29700017
1700.0	0.0002668	139.328999996
1700.0	0.000267	139.375
1700.0	0.0002675	139.407000065
1700.0	0.000267	139.453999996
1700.0	0.000267	139.5
1700.0	0.0002675	139.532000065
1700.0	0.0002678	139.578999996
1700.0	0.000269	139.625
1700.0	0.0002705	139.657000065
1700.0	0.0002713	139.703999996
1710.0	0.000265	139.985000134
1710.0	0.0002643	140.032000065
1710.0	0.000264	140.078999996
1710.0	0.0002628	140.110000134
1710.0	0.000262	140.157000065
1710.0	0.0002613	140.188000202
1710.0	0.00026	140.235000134
1710.0	0.0002595	140.282000065
1710.0	0.0002605	140.313000202
1710.0	0.0002613	140.360000134
1710.0	0.0002608	140.407000065
1710.0	0.00026	140.438000202
1710.0	0.0002593	140.485000134
1710.0	0.000259	140.516000032
1710.0	0.0002583	140.563000202
1710.0	0.000257	140.610000134
1710.0	0.0002558	140.641000032
1710.0	0.000255	140.688000202
1710.0	0.000255	140.735000134
1710.0	0.0002558	140.766000032
1710.0	0.0002558	140.813000202
1710.0	0.0002553	140.860000134
1710.0	0.0002558	140.891000032
1710.0	0.0002565	140.938000202
1710.0	0.0002575	140.969000101
1710.0	0.000258	141.016000032
1710.0	0.0002578	141.063000202
1710.0	0.0002588	141.094000101
1710.0	0.0002593	141.141000032
1710.0	0.000259	141.188000202
1710.0	0.0002593	141.219000101
1710.0	0.00026	141.266000032
1710.0	0.0002595	141.29700017
1710.0	0.0002595	141.344000101
1710.0	0.000259	141.391000032
1710.0	0.0002578	141.42200017
1710.0	0.0002565	141.469000101
1720.0	0.0002505	141.75
1720.0	0.0002508	141.79700017
1720.0	0.0002505	141.844000101
1720.0	0.0002513	141.875
1720.0	0.0002518	141.92200017
1720.0	0.0002513	141.953999996
1720.0	0.0002503	142.0
1720.0	0.0002505	142.04700017
1720.0	0.00025	142.078999996
1720.0	0.000249	142.125
1720.0	0.000249	142.17200017
1720.0	0.0002493	142.203999996
1720.0	0.00025	142.25
1720.0	0.0002503	142.29700017
1720.0	0.0002505	142.328999996
1720.0	0.0002503	142.375
1720.0	0.0002503	142.407000065
1720.0	0.00025	142.453999996
1720.0	0.00025	142.5
1720.0	0.0002505	142.532000065
1720.0	0.0002505	142.578999996
1720.0	0.00025	142.625
1720.0	0.0002488	142.657000065
1720.0	0.0002483	142.703999996
1720.0	0.000248	142.75
1720.0	0.0002478	142.782000065
1720.0	0.0002483	142.828999996
1720.0	0.000249	142.875
1720.0	0.0002488	142.907000065
1720.0	0.0002493	142.953999996
1720.0	0.0002488	143.0
1720.0	0.0002475	143.032000065
1720.0	0.0002468	143.078999996
1720.0	0.0002465	143.125
1720.0	0.0002465	143.157000065
1720.0	0.0002478	143.203999996
1720.0	0.0002488	143.25
1730.0	0.0002483	143.532000065
1730.0	0.000248	143.578999996
1730.0	0.0002468	143.625
1730.0	0.0002465	143.657000065
1730.0	0.0002463	143.703999996
1730.0	0.0002458	143.75
1730.0	0.000245	143.782000065
1730.0	0.0002455	143.828999996
1730.0	0.0002458	143.860000134
1730.0	0.0002458	143.907000065
1730.0	0.0002468	143.953999996
1730.0	0.000247	143.985000134
1730.0	0.0002468	144.032000065
1730.0	0.0002475	144.078999996
1730.0	0.0002468	144.110000134
1730.0	0.0002458	144.157000065
1730.0	0.0002453	144.188000202
1730.0	0.0002453	144.235000134
1730.0	0.0002455	144.282000065
1730.0	0.0002455	144.313000202
1730.0	0.0002445	144.360000134
1730.0	0.0002428	144.407000065
1730.0	0.0002415	144.438000202
1730.0	0.0002415	144.485000134
1730.0	0.0002418	144.532000065
1730.0	0.0002428	144.563000202
1730.0	0.0002433	144.610000134
1730.0	0.000244	144.641000032
1730.0	0.0002453	144.688000202
1730.0	0.0002463	144.735000134
1730.0	0.0002463	144.766000032
1730.0	0.000245	144.813000202
1730.0	0.0002443	144.860000134
1730.0	0.0002455	144.891000032
1730.0	0.0002463	144.938000202
1730.0	0.0002455	144.969000101
1730.0	0.0002445	145.016000032
1740.0	0.0002438	145.313000202
1740.0	0.0002425	145.344000101
1740.0	0.000242	145.391000032
1740.0	0.0002418	145.438000202
1740.0	0.0002418	145.485000134
1740.0	0.0002405	145.516000032
1740.0	0.0002393	145.563000202
1740.0	0.000239	145.594000101
1740.0	0.0002383	145.641000032
1740.0	0.0002383	145.688000202
1740.0	0.000239	145.735000134
1740.0	0.0002395	145.766000032
1740.0	0.000239	145.813000202
1740.0	0.0002378	145.844000101
1740.0	0.0002368	145.891000032
1740.0	0.000237	145.938000202
1740.0	0.000238	145.969000101
1740.0	0.000239	146.016000032
1740.0	0.000239	146.04700017
1740.0	0.000239	146.094000101
1740.0	0.0002388	146.141000032
1740.0	0.0002388	146.17200017
1740.0	0.00024	146.219000101
1740.0	0.0002393	146.266000032
1740.0	0.0002395	146.29700017
1740.0	0.0002405	146.344000101
1740.0	0.0002403	146.391000032
1740.0	0.00024	146.42200017
1740.0	0.0002403	146.469000101
1740.0	0.0002403	146.516000032
1740.0	0.0002403	146.54700017
1740.0	0.0002393	146.594000101
1740.0	0.0002383	146.641000032
1740.0	0.000238	146.67200017
1740.0	0.000238	146.719000101
1740.0	0.0002393	146.75
1750.0	0.0002415	147.04700017
1750.0	0.0002405	147.094000101
1750.0	0.000239	147.125
1750.0	0.0002365	147.17200017
1750.0	0.0002343	147.203999996
1750.0	0.000234	147.25
1750.0	0.0002345	147.29700017
1750.0	0.0002353	147.328999996
1750.0	0.0002365	147.375
1750.0	0.0002363	147.42200017
1750.0	0.0002363	147.453999996
1750.0	0.0002355	147.5
1750.0	0.0002355	147.532000065
1750.0	0.0002363	147.578999996
1750.0	0.000237	147.625
1750.0	0.0002388	147.657000065
1750.0	0.0002375	147.703999996
1750.0	0.0002363	147.75
1750.0	0.0002355	147.782000065
1750.0	0.0002355	147.828999996
1750.0	0.0002363	147.860000134
1750.0	0.0002355	147.907000065
1750.0	0.0002355	147.953999996
1750.0	0.0002355	147.985000134
1750.0	0.0002363	148.032000065
1750.0	0.0002365	148.078999996
1750.0	0.0002358	148.110000134
1750.0	0.000235	148.157000065
1750.0	0.0002353	148.188000202
1750.0	0.0002363	148.235000134
1750.0	0.0002358	148.282000065
1750.0	0.0002358	148.313000202
1750.0	0.0002363	148.360000134
1750.0	0.0002363	148.407000065
1750.0	0.0002358	148.438000202
1750.0	0.0002365	148.485000134
1750.0	0.000237	148.532000065
1760.0	0.0002315	148.813000202
1760.0	0.0002313	148.860000134
1760.0	0.00023	148.891000032
1760.0	0.0002295	148.938000202
1760.0	0.0002303	148.985000134
1760.0	0.0002315	149.016000032
1760.0	0.000232	149.063000202
1760.0	0.0002325	149.110000134
1760.0	0.0002325	149.141000032
1760.0	0.0002328	149.188000202
1760.0	0.0002338	149.235000134
1760.0	0.000234	149.266000032
1760.0	0.0002325	149.313000202
1760.0	0.0002313	149.344000101
1760.0	0.0002305	149.391000032
1760.0	0.00023	149.438000202
1760.0	0.000229	149.469000101
1760.0	0.0002288	149.516000032
1760.0	0.0002288	149.54700017
1760.0	0.0002293	149.594000101
1760.0	0.0002303	149.641000032
1760.0	0.0002318	149.67200017
1760.0	0.0002325	149.719000101
1760.0	0.0002338	149.766000032
1760.0	0.000234	149.79700017
1760.0	0.0002338	149.844000101
1760.0	0.0002345	149.891000032
1760.0	0.0002345	149.92200017
1760.0	0.000233	149.969000101
1760.0	0.0002315	150.016000032
1760.0	0.0002293	150.04700017
1760.0	0.0002295	150.094000101
1760.0	0.00023	150.141000032
1760.0	0.0002295	150.17200017
1760.0	0.0002295	150.219000101
1760.0	0.0002313	150.25
1760.0	0.0002325	150.29700017
1770.0	0.0002278	150.578999996
1770.0	0.0002263	150.625
1770.0	0.0002258	150.67200017
1770.0	0.0002268	150.703999996
1770.0	0.0002268	150.75
1770.0	0.0002275	150.79700017
1770.0	0.0002283	150.828999996
1770.0	0.0002283	150.875
1770.0	0.0002288	150.92200017
1770.0	0.0002293	150.953999996
1770.0	0.00023	151.0
1770.0	0.00023	151.032000065
1770.0	0.00023	151.078999996
1770.0	0.00023	151.125
1770.0	0.000229	151.157000065
1770.0	0.0002278	151.203999996
1770.0	0.0002265	151.25
1770.0	0.0002255	151.282000065
1770.0	0.0002258	151.328999996
1770.0	0.0002265	151.375
1770.0	0.0002263	151.407000065
1770.0	0.0002268	151.453999996
1770.0	0.0002265	151.5
1770.0	0.0002253	151.532000065
1770.0	0.0002243	151.578999996
1770.0	0.0002245	151.610000134
1770.0	0.0002255	151.657000065
1770.0	0.0002268	151.703999996
1770.0	0.0002288	151.735000134
1770.0	0.00023	151.782000065
1770.0	0.0002303	151.828999996
1770.0	0.00023	151.860000134
1770.0	0.0002293	151.907000065
1770.0	0.000229	151.953999996
1770.0	0.0002283	151.985000134
1770.0	0.0002263	152.032000065
1770.0	0.000225	152.063000202
1780.0	0.0002245	152.360000134
1780.0	0.0002245	152.391000032
1780.0	0.000225	152.438000202
1780.0	0.000225	152.485000134
1780.0	0.0002245	152.516000032
1780.0	0.0002243	152.563000202
1780.0	0.0002233	152.610000134
1780.0	0.000223	152.641000032
1780.0	0.0002225	152.688000202
1780.0	0.0002215	152.719000101
1780.0	0.0002208	152.766000032
1780.0	0.00022	152.813000202
1780.0	0.0002193	152.844000101
1780.0	0.0002205	152.891000032
1780.0	0.0002208	152.938000202
1780.0	0.0002205	152.969000101
1780.0	0.0002203	153.016000032
1780.0	0.0002213	153.04700017
1780.0	0.0002208	153.094000101
1780.0	0.0002213	153.141000032
1780.0	0.0002228	153.17200017
1780.0	0.0002238	153.219000101
1780.0	0.0002238	153.266000032
1780.0	0.0002238	153.29700017
1780.0	0.0002238	153.344000101
1780.0	0.000223	153.391000032
1780.0	0.0002215	153.42200017
1780.0	0.000223	153.469000101
1780.0	0.0002243	153.516000032
1780.0	0.000224	153.54700017
1780.0	0.0002225	153.594000101
1780.0	0.0002205	153.641000032
1780.0	0.0002203	153.67200017
1780.0	0.0002213	153.719000101
1780.0	0.000222	153.75
1780.0	0.0002218	153.79700017
1780.0	0.0002213	153.844000101
1790.0	0.000223	154.125
1790.0	0.0002228	154.17200017
1790.0	0.0002213	154.203999996
1790.0	0.0002195	154.25
1790.0	0.0002188	154.29700017
1790.0	0.0002188	154.328999996
1790.0	0.0002188	154.375
1790.0	0.000218	154.407000065
1790.0	0.0002168	154.453999996
1790.0	0.0002163	154.5
1790.0	0.0002163	154.532000065
1790.0	0.0002158	154.578999996
1790.0	0.0002163	154.625
1790.0	0.0002155	154.657000065
1790.0	0.0002158	154.703999996
1790.0	0.0002163	154.75
1790.0	0.0002168	154.782000065
1790.0	0.000217	154.828999996
1790.0	0.0002163	154.860000134
1790.0	0.0002155	154.907000065
1790.0	0.000214	154.953999996
1790.0	0.0002138	154.985000134
1790.0	0.0002145	155.032000065
1790.0	0.000214	155.078999996
1790.0	0.0002143	155.110000134
1790.0	0.0002145	155.157000065
1790.0	0.000215	155.188000202
1790.0	0.0002143	155.235000134
1790.0	0.0002143	155.282000065
1790.0	0.0002158	155.313000202
1790.0	0.0002158	155.360000134
1790.0	0.0002165	155.407000065
1790.0	0.0002168	155.438000202
1790.0	0.0002163	155.485000134
1790.0	0.0002163	155.516000032
1790.0	0.0002163	155.563000202
1790.0	0.0002163	155.610000134
1800.0	0.0002168	155.891000032
1800.0	0.0002165	155.938000202
1800.0	0.0002158	155.985000134
1800.0	0.0002145	156.016000032
1800.0	0.0002138	156.063000202
1800.0	0.000213	156.110000134
1800.0	0.0002125	156.141000032
1800.0	0.0002108	156.188000202
1800.0	0.000209	156.219000101
1800.0	0.0002083	156.266000032
1800.0	0.000208	156.313000202
1800.0	0.0002095	156.344000101
1800.0	0.0002115	156.391000032
1800.0	0.000213	156.438000202
1800.0	0.000214	156.469000101
1800.0	0.0002138	156.516000032
1800.0	0.0002128	156.54700017
1800.0	0.0002133	156.594000101
1800.0	0.0002145	156.641000032
1800.0	0.0002155	156.67200017
1800.0	0.0002155	156.719000101
1800.0	0.0002153	156.766000032
1800.0	0.0002143	156.79700017
1800.0	0.0002125	156.844000101
1800.0	0.0002108	156.875
1800.0	0.0002093	156.92200017
1800.0	0.000208	156.969000101
1800.0	0.0002083	157.0
1800.0	0.000209	157.04700017
1800.0	0.000208	157.094000101
1800.0	0.0002068	157.125
1800.0	0.0002063	157.17200017
1800.0	0.0002063	157.203999996
1800.0	0.0002078	157.25
1800.0	0.0002093	157.29700017
1800.0	0.0002108	157.328999996
1800.0	0.0002108	157.375
1810.0	0.0002065	157.67200017
1810.0	0.0002055	157.703999996
1810.0	0.000205	157.75
1810.0	0.0002053	157.79700017
1810.0	0.0002045	157.828999996
1810.0	0.0002033	157.875
1810.0	0.000202	157.907000065
1810.0	0.0002013	157.953999996
1810.0	0.0002008	158.0
1810.0	0.0002015	158.032000065
1810.0	0.0002028	158.078999996
1810.0	0.0002043	158.125
1810.0	0.0002053	158.157000065
1810.0	0.000205	158.203999996
1810.0	0.000204	158.235000134
1810.0	0.0002038	158.282000065
1810.0	0.000204	158.328999996
1810.0	0.0002028	158.360000134
1810.0	0.0002018	158.407000065
1810.0	0.0002018	158.453999996
1810.0	0.000202	158.485000134
1810.0	0.0002013	158.532000065
1810.0	0.0002005	158.563000202
1810.0	0.0002008	158.610000134
1810.0	0.0002015	158.657000065
1810.0	0.0002008	158.688000202
1810.0	0.0002015	158.735000134
1810.0	0.0002018	158.782000065
1810.0	0.0002018	158.813000202
1810.0	0.0002018	158.860000134
1810.0	0.0002018	158.907000065
1810.0	0.0002013	158.938000202
1810.0	0.0002015	158.985000134
1810.0	0.000202	159.016000032
1810.0	0.0002028	159.063000202
1810.0	0.0002033	159.110000134
1810.0	0.0002038	159.141000032
1820.0	0.0002015	159.438000202
1820.0	0.0001995	159.485000134
1820.0	0.0001983	159.516000032
1820.0	0.0001965	159.563000202
1820.0	0.0001945	159.610000134
1820.0	0.0001925	159.641000032
1820.0	0.0001913	159.688000202
1820.0	0.00019	159.735000134
1820.0	0.0001893	159.766000032
1820.0	0.0001903	159.813000202
1820.0	0.0001915	159.860000134
1820.0	0.0001938	159.891000032
1820.0	0.000195	159.938000202
1820.0	0.000195	159.969000101
1820.0	0.0001953	160.016000032
1820.0	0.0001968	160.063000202
1820.0	0.000197	160.094000101
1820.0	0.000197	160.141000032
1820.0	0.0001968	160.17200017
1820.0	0.000195	160.219000101
1820.0	0.0001943	160.266000032
1820.0	0.000194	160.29700017
1820.0	0.0001943	160.344000101
1820.0	0.0001945	160.391000032
1820.0	0.0001945	160.42200017
1820.0	0.0001938	160.469000101
1820.0	0.000192	160.516000032
1820.0	0.0001913	160.54700017
1820.0	0.0001905	160.594000101
1820.0	0.0001908	160.625
1820.0	0.000192	160.67200017
1820.0	0.0001918	160.719000101
1820.0	0.0001905	160.75
1820.0	0.00019	160.79700017
1820.0	0.00019	160.844000101
1820.0	0.00019	160.875
1820.0	0.0001908	160.92200017
1830.0	0.0001913	161.219000101
1830.0	0.0001895	161.25
1830.0	0.000188	161.29700017
1830.0	0.0001865	161.344000101
1830.0	0.0001858	161.375
1830.0	0.0001845	161.42200017
1830.0	0.000184	161.469000101
1830.0	0.0001838	161.5
1830.0	0.0001833	161.54700017
1830.0	0.0001838	161.578999996
1830.0	0.0001838	161.625
1830.0	0.000183	161.67200017
1830.0	0.0001815	161.719000101
1830.0	0.0001815	161.75
1830.0	0.000182	161.79700017
1830.0	0.0001833	161.828999996
1830.0	0.0001833	161.875
1830.0	0.000185	161.92200017
1830.0	0.0001865	161.953999996
1830.0	0.000187	162.0
1830.0	0.000187	162.04700017
1830.0	0.0001888	162.078999996
1830.0	0.0001903	162.125
1830.0	0.0001903	162.157000065
1830.0	0.0001888	162.203999996
1830.0	0.000188	162.25
1830.0	0.000187	162.282000065
1830.0	0.0001863	162.328999996
1830.0	0.0001858	162.375
1830.0	0.0001858	162.407000065
1830.0	0.0001863	162.453999996
1830.0	0.0001865	162.5
1830.0	0.0001875	162.532000065
1830.0	0.0001878	162.578999996
1830.0	0.0001878	162.610000134
1830.0	0.0001878	162.657000065
1830.0	0.000188	162.703999996
1840.0	0.0001875	163.0
1840.0	0.0001855	163.032000065
1840.0	0.0001838	163.078999996
1840.0	0.0001818	163.110000134
1840.0	0.0001813	163.157000065
1840.0	0.00018	163.203999996
1840.0	0.0001788	163.235000134
1840.0	0.0001793	163.282000065
1840.0	0.00018	163.328999996
1840.0	0.000179	163.360000134
1840.0	0.000178	163.407000065
1840.0	0.0001775	163.453999996
1840.0	0.0001763	163.485000134
1840.0	0.0001765	163.532000065
1840.0	0.0001775	163.563000202
1840.0	0.0001783	163.610000134
1840.0	0.0001783	163.657000065
1840.0	0.000179	163.688000202
1840.0	0.0001795	163.735000134
1840.0	0.000179	163.782000065
1840.0	0.0001793	163.813000202
1840.0	0.0001793	163.860000134
1840.0	0.0001793	163.891000032
1840.0	0.0001788	163.938000202
1840.0	0.0001788	163.985000134
1840.0	0.0001778	164.016000032
1840.0	0.0001768	164.063000202
1840.0	0.0001755	164.110000134
1840.0	0.000175	164.141000032
1840.0	0.0001745	164.188000202
1840.0	0.0001745	164.219000101
1840.0	0.0001738	164.266000032
1840.0	0.0001733	164.313000202
1840.0	0.0001745	164.344000101
1840.0	0.0001755	164.391000032
1840.0	0.0001763	164.438000202
1840.0	0.000177	164.469000101
1850.0	0.0001743	164.766000032
1850.0	0.0001738	164.813000202
1850.0	0.000173	164.844000101
1850.0	0.0001728	164.891000032
1850.0	0.0001725	164.938000202
1850.0	0.000173	164.969000101
1850.0	0.0001725	165.016000032
1850.0	0.00017	165.063000202
1850.0	0.0001688	165.094000101
1850.0	0.0001683	165.141000032
1850.0	0.0001675	165.17200017
1850.0	0.0001663	165.219000101
1850.0	0.0001645	165.266000032
1850.0	0.0001653	165.29700017
1850.0	0.0001655	165.344000101
1850.0	0.0001658	165.391000032
1850.0	0.0001678	165.42200017
1850.0	0.0001678	165.469000101
1850.0	0.0001675	165.5
1850.0	0.0001675	165.54700017
1850.0	0.000168	165.594000101
1850.0	0.0001703	165.625
1850.0	0.0001713	165.67200017
1850.0	0.0001713	165.719000101
1850.0	0.0001705	165.75
1850.0	0.00017	165.79700017
1850.0	0.0001695	165.828999996
1850.0	0.000169	165.875
1850.0	0.0001683	165.92200017
1850.0	0.0001668	165.969000101
1850.0	0.0001663	166.0
1850.0	0.000167	166.04700017
1850.0	0.0001665	166.078999996
1850.0	0.0001663	166.125
1850.0	0.0001668	166.17200017
1850.0	0.0001668	166.203999996
1850.0	0.0001668	166.25
1860.0	0.000165	166.54700017
1860.0	0.0001645	166.594000101
1860.0	0.0001633	166.625
1860.0	0.0001628	166.67200017
1860.0	0.0001613	166.703999996
1860.0	0.00016	166.75
1860.0	0.00016	166.79700017
1860.0	0.0001615	166.828999996
1860.0	0.0001628	166.875
1860.0	0.0001625	166.92200017
1860.0	0.0001618	166.969000101
1860.0	0.0001615	167.0
1860.0	0.0001605	167.04700017
1860.0	0.0001593	167.078999996
1860.0	0.0001593	167.125
1860.0	0.00016	167.17200017
1860.0	0.0001593	167.203999996
1860.0	0.00016	167.25
1860.0	0.0001608	167.29700017
1860.0	0.0001615	167.328999996
1860.0	0.0001608	167.375
1860.0	0.0001613	167.407000065
1860.0	0.0001618	167.453999996
1860.0	0.0001625	167.5
1860.0	0.000163	167.532000065
1860.0	0.0001633	167.578999996
1860.0	0.0001638	167.625
1860.0	0.0001643	167.657000065
1860.0	0.0001645	167.703999996
1860.0	0.0001645	167.735000134
1860.0	0.0001633	167.782000065
1860.0	0.0001625	167.828999996
1860.0	0.0001618	167.860000134
1860.0	0.0001613	167.907000065
1860.0	0.0001605	167.953999996
1860.0	0.0001615	167.985000134
1860.0	0.0001628	168.032000065
1870.0	0.0001615	168.328999996
1870.0	0.0001595	168.375
1870.0	0.0001575	168.407000065
1870.0	0.0001555	168.453999996
1870.0	0.0001545	168.5
1870.0	0.0001533	168.532000065
1870.0	0.000153	168.578999996
1870.0	0.0001525	168.610000134
1870.0	0.000153	168.657000065
1870.0	0.000154	168.703999996
1870.0	0.0001543	168.735000134
1870.0	0.0001538	168.782000065
1870.0	0.000153	168.828999996
1870.0	0.000153	168.860000134
1870.0	0.0001528	168.907000065
1870.0	0.000152	168.953999996
1870.0	0.0001525	168.985000134
1870.0	0.0001518	169.032000065
1870.0	0.0001513	169.078999996
1870.0	0.000153	169.125
1870.0	0.0001538	169.157000065
1870.0	0.000153	169.203999996
1870.0	0.000153	169.235000134
1870.0	0.000152	169.282000065
1870.0	0.0001515	169.328999996
1870.0	0.0001513	169.360000134
1870.0	0.0001518	169.407000065
1870.0	0.0001528	169.453999996
1870.0	0.000153	169.485000134
1870.0	0.0001538	169.532000065
1870.0	0.0001528	169.563000202
1870.0	0.000153	169.610000134
1870.0	0.0001528	169.657000065
1870.0	0.0001528	169.688000202
1870.0	0.0001538	169.735000134
1870.0	0.0001545	169.782000065
1880.0	0.0001538	170.078999996
1880.0	0.0001518	170.110000134
1880.0	0.0001515	170.157000065
1880.0	0.0001493	170.188000202
1880.0	0.0001493	170.235000134
1880.0	0.0001493	170.282000065
1880.0	0.000149	170.313000202
1880.0	0.0001488	170.360000134
1880.0	0.0001478	170.407000065
1880.0	0.0001483	170.438000202
1880.0	0.0001488	170.485000134
1880.0	0.0001483	170.516000032
1880.0	0.0001483	170.563000202
1880.0	0.0001475	170.610000134
1880.0	0.0001468	170.641000032
1880.0	0.0001483	170.688000202
1880.0	0.0001495	170.735000134
1880.0	0.000149	170.766000032
1880.0	0.000148	170.813000202
1880.0	0.0001463	170.860000134
1880.0	0.0001443	170.891000032
1880.0	0.0001453	170.938000202
1880.0	0.0001475	170.969000101
1880.0	0.000148	171.016000032
1880.0	0.000149	171.063000202
1880.0	0.00015	171.094000101
1880.0	0.0001493	171.141000032
1880.0	0.0001493	171.188000202
1880.0	0.0001493	171.219000101
1880.0	0.0001493	171.266000032
1880.0	0.0001488	171.313000202
1880.0	0.0001488	171.344000101
1880.0	0.000148	171.391000032
1880.0	0.000148	171.42200017
1880.0	0.000148	171.469000101
1880.0	0.0001488	171.516000032
1880.0	0.0001488	171.54700017
1890.0	0.000145	171.844000101
1890.0	0.0001443	171.891000032
1890.0	0.0001433	171.938000202
1890.0	0.000144	171.969000101
1890.0	0.000145	172.016000032
1890.0	0.0001465	172.04700017
1890.0	0.0001475	172.094000101
1890.0	0.0001475	172.141000032
1890.0	0.000147	172.188000202
1890.0	0.0001468	172.219000101
1890.0	0.000145	172.266000032
1890.0	0.0001438	172.29700017
1890.0	0.000144	172.344000101
1890.0	0.000143	172.391000032
1890.0	0.000142	172.42200017
1890.0	0.0001418	172.469000101
1890.0	0.0001418	172.516000032
1890.0	0.000142	172.54700017
1890.0	0.000142	172.594000101
1890.0	0.0001413	172.641000032
1890.0	0.0001403	172.67200017
1890.0	0.0001405	172.719000101
1890.0	0.0001415	172.75
1890.0	0.0001418	172.79700017
1890.0	0.0001408	172.844000101
1890.0	0.0001405	172.891000032
1890.0	0.0001393	172.92200017
1890.0	0.0001383	172.969000101
1890.0	0.0001388	173.0
1890.0	0.0001388	173.04700017
1890.0	0.000139	173.094000101
1890.0	0.0001393	173.125
1890.0	0.0001393	173.17200017
1890.0	0.0001388	173.219000101
1890.0	0.0001395	173.25
1890.0	0.0001403	173.29700017
1890.0	0.0001393	173.328999996
1900.0	0.0001353	173.625
1900.0	0.0001338	173.67200017
1900.0	0.0001325	173.719000101
1900.0	0.000132	173.75
1900.0	0.000132	173.79700017
1900.0	0.0001328	173.844000101
1900.0	0.0001343	173.875
1900.0	0.0001363	173.92200017
1900.0	0.0001358	173.953999996
1900.0	0.0001363	174.0
1900.0	0.0001363	174.04700017
1900.0	0.0001365	174.078999996
1900.0	0.0001363	174.125
1900.0	0.000137	174.17200017
1900.0	0.0001375	174.203999996
1900.0	0.0001375	174.25
1900.0	0.0001375	174.282000065
1900.0	0.0001375	174.328999996
1900.0	0.0001375	174.375
1900.0	0.0001383	174.407000065
1900.0	0.000139	174.453999996
1900.0	0.0001388	174.5
1900.0	0.0001393	174.532000065
1900.0	0.0001405	174.578999996
1900.0	0.00014	174.610000134
1900.0	0.0001383	174.657000065
1900.0	0.0001378	174.703999996
1900.0	0.0001363	174.735000134
1900.0	0.0001338	174.782000065
1900.0	0.0001328	174.828999996
1900.0	0.000132	174.860000134
1900.0	0.0001305	174.907000065
1900.0	0.0001305	174.953999996
1900.0	0.0001308	174.985000134
1900.0	0.0001308	175.032000065
1900.0	0.000132	175.063000202
1900.0	0.000133	175.110000134
1910.0	0.0001378	175.407000065
1910.0	0.0001378	175.438000202
1910.0	0.000138	175.485000134
1910.0	0.0001378	175.532000065
1910.0	0.0001363	175.563000202
1910.0	0.0001345	175.610000134
1910.0	0.0001345	175.657000065
1910.0	0.000134	175.688000202
1910.0	0.0001343	175.735000134
1910.0	0.000134	175.766000032
1910.0	0.0001343	175.813000202
1910.0	0.0001338	175.860000134
1910.0	0.0001325	175.891000032
1910.0	0.0001308	175.938000202
1910.0	0.0001313	175.985000134
1910.0	0.0001325	176.016000032
1910.0	0.000134	176.063000202
1910.0	0.0001343	176.094000101
1910.0	0.000134	176.141000032
1910.0	0.000135	176.188000202
1910.0	0.0001343	176.219000101
1910.0	0.0001338	176.266000032
1910.0	0.000134	176.313000202
1910.0	0.0001355	176.344000101
1910.0	0.0001363	176.391000032
1910.0	0.0001358	176.42200017
1910.0	0.0001358	176.469000101
1910.0	0.0001358	176.516000032
1910.0	0.0001363	176.54700017
1910.0	0.0001363	176.594000101
1910.0	0.000135	176.641000032
1910.0	0.000133	176.67200017
1910.0	0.0001315	176.719000101
1910.0	0.0001303	176.75
1910.0	0.0001303	176.79700017
1910.0	0.0001313	176.844000101
1910.0	0.000132	176.875
1920.0	0.0001303	177.17200017
1920.0	0.0001305	177.219000101
1920.0	0.0001305	177.25
1920.0	0.0001305	177.29700017
1920.0	0.0001305	177.328999996
1920.0	0.0001305	177.375
1920.0	0.0001313	177.42200017
1920.0	0.0001315	177.453999996
1920.0	0.0001318	177.5
1920.0	0.0001315	177.54700017
1920.0	0.0001315	177.578999996
1920.0	0.0001308	177.625
1920.0	0.0001295	177.67200017
1920.0	0.000128	177.703999996
1920.0	0.000127	177.75
1920.0	0.0001268	177.782000065
1920.0	0.0001263	177.828999996
1920.0	0.0001265	177.875
1920.0	0.000128	177.907000065
1920.0	0.0001288	177.953999996
1920.0	0.000129	178.0
1920.0	0.0001288	178.032000065
1920.0	0.000128	178.078999996
1920.0	0.0001275	178.110000134
1920.0	0.0001268	178.157000065
1920.0	0.0001268	178.203999996
1920.0	0.000128	178.235000134
1920.0	0.0001283	178.282000065
1920.0	0.000129	178.328999996
1920.0	0.00013	178.360000134
1920.0	0.0001315	178.407000065
1920.0	0.0001308	178.453999996
1920.0	0.00013	178.5
1920.0	0.00013	178.532000065
1920.0	0.0001293	178.578999996
1920.0	0.000129	178.625
1930.0	0.000125	178.907000065
1930.0	0.0001253	178.953999996
1930.0	0.0001245	179.0
1930.0	0.000125	179.032000065
1930.0	0.0001263	179.078999996
1930.0	0.000127	179.125
1930.0	0.0001268	179.157000065
1930.0	0.0001263	179.203999996
1930.0	0.0001258	179.235000134
1930.0	0.0001275	179.282000065
1930.0	0.0001275	179.328999996
1930.0	0.0001278	179.360000134
1930.0	0.0001293	179.407000065
1930.0	0.0001295	179.453999996
1930.0	0.0001293	179.5
1930.0	0.000129	179.532000065
1930.0	0.000129	179.578999996
1930.0	0.000129	179.610000134
1930.0	0.0001283	179.657000065
1930.0	0.0001278	179.703999996
1930.0	0.0001275	179.735000134
1930.0	0.0001268	179.782000065
1930.0	0.0001258	179.828999996
1930.0	0.000124	179.860000134
1930.0	0.0001238	179.907000065
1930.0	0.0001238	179.938000202
1930.0	0.0001255	179.985000134
1930.0	0.0001258	180.032000065
1930.0	0.0001263	180.063000202
1930.0	0.0001245	180.110000134
1930.0	0.000124	180.157000065
1930.0	0.0001253	180.188000202
1930.0	0.0001268	180.235000134
1930.0	0.000129	180.266000032
1930.0	0.0001305	180.313000202
1930.0	0.00013	180.360000134
1930.0	0.0001275	180.391000032
1940.0	0.000124	180.688000202
1940.0	0.0001253	180.735000134
1940.0	0.0001255	180.782000065
1940.0	0.0001253	180.813000202
1940.0	0.0001253	180.860000134
1940.0	0.0001245	180.891000032
1940.0	0.0001238	180.938000202
1940.0	0.0001225	180.985000134
1940.0	0.0001215	181.016000032
1940.0	0.0001205	181.063000202
1940.0	0.0001205	181.110000134
1940.0	0.0001218	181.141000032
1940.0	0.0001218	181.188000202
1940.0	0.0001225	181.219000101
1940.0	0.000122	181.266000032
1940.0	0.0001218	181.313000202
1940.0	0.0001215	181.344000101
1940.0	0.0001218	181.391000032
1940.0	0.0001225	181.438000202
1940.0	0.000122	181.469000101
1940.0	0.000122	181.516000032
1940.0	0.0001218	181.54700017
1940.0	0.000123	181.594000101
1940.0	0.0001245	181.641000032
1940.0	0.0001258	181.67200017
1940.0	0.0001255	181.719000101
1940.0	0.0001265	181.766000032
1940.0	0.0001275	181.79700017
1940.0	0.000128	181.844000101
1940.0	0.0001293	181.875
1940.0	0.00013	181.92200017
1940.0	0.0001293	181.969000101
1940.0	0.0001293	182.0
1940.0	0.0001288	182.04700017
1940.0	0.000127	182.094000101
1940.0	0.000125	182.125
1940.0	0.000125	182.17200017
1950.0	0.0001238	182.469000101
1950.0	0.000124	182.5
1950.0	0.0001243	182.54700017
1950.0	0.0001238	182.594000101
1950.0	0.0001225	182.625
1950.0	0.0001213	182.67200017
1950.0	0.0001213	182.719000101
1950.0	0.00012	182.75
1950.0	0.000118	182.79700017
1950.0	0.0001165	182.828999996
1950.0	0.0001163	182.875
1950.0	0.0001165	182.92200017
1950.0	0.0001168	182.953999996
1950.0	0.000117	183.0
1950.0	0.000117	183.04700017
1950.0	0.0001188	183.078999996
1950.0	0.0001205	183.125
1950.0	0.0001218	183.17200017
1950.0	0.0001228	183.203999996
1950.0	0.0001225	183.25
1950.0	0.0001218	183.282000065
1950.0	0.0001213	183.328999996
1950.0	0.0001205	183.375
1950.0	0.0001215	183.407000065
1950.0	0.0001215	183.453999996
1950.0	0.0001213	183.5
1950.0	0.00012	183.532000065
1950.0	0.000119	183.578999996
1950.0	0.0001195	183.610000134
1950.0	0.0001193	183.657000065
1950.0	0.000118	183.703999996
1950.0	0.0001178	183.735000134
1950.0	0.000118	183.782000065
1950.0	0.000119	183.828999996
1950.0	0.0001195	183.860000134
1950.0	0.00012	183.907000065
1950.0	0.0001193	183.938000202
1960.0	0.0001208	184.25
1960.0	0.0001215	184.282000065
1960.0	0.0001225	184.328999996
1960.0	0.0001228	184.375
1960.0	0.0001233	184.407000065
1960.0	0.0001233	184.453999996
1960.0	0.000123	184.485000134
1960.0	0.0001238	184.532000065
1960.0	0.000123	184.578999996
1960.0	0.000122	184.610000134
1960.0	0.0001215	184.657000065
1960.0	0.0001208	184.703999996
1960.0	0.0001218	184.735000134
1960.0	0.000123	184.782000065
1960.0	0.0001228	184.813000202
1960.0	0.0001228	184.860000134
1960.0	0.0001215	184.907000065
1960.0	0.0001205	184.938000202
1960.0	0.0001205	184.985000134
1960.0	0.0001203	185.032000065
1960.0	0.0001193	185.063000202
1960.0	0.0001168	185.110000134
1960.0	0.0001155	185.141000032
1960.0	0.0001168	185.188000202
1960.0	0.0001183	185.235000134
1960.0	0.0001195	185.266000032
1960.0	0.0001213	185.313000202
1960.0	0.000122	185.360000134
1960.0	0.0001218	185.391000032
1960.0	0.0001218	185.438000202
1960.0	0.0001225	185.485000134
1960.0	0.0001215	185.516000032
1960.0	0.0001213	185.563000202
1960.0	0.0001213	185.594000101
1960.0	0.00012	185.641000032
1960.0	0.0001195	185.688000202
1960.0	0.00012	185.719000101
1970.0	0.0001183	186.032000065
1970.0	0.0001175	186.063000202
1970.0	0.0001165	186.110000134
1970.0	0.0001175	186.141000032
1970.0	0.0001183	186.188000202
1970.0	0.0001188	186.235000134
1970.0	0.0001188	186.266000032
1970.0	0.000119	186.313000202
1970.0	0.000119	186.360000134
1970.0	0.0001195	186.391000032
1970.0	0.00012	186.438000202
1970.0	0.00012	186.469000101
1970.0	0.0001195	186.516000032
1970.0	0.0001178	186.563000202
1970.0	0.0001163	186.610000134
1970.0	0.0001163	186.641000032
1970.0	0.0001155	186.688000202
1970.0	0.0001143	186.719000101
1970.0	0.0001143	186.766000032
1970.0	0.0001153	186.813000202
1970.0	0.0001168	186.844000101
1970.0	0.0001175	186.891000032
1970.0	0.0001188	186.938000202
1970.0	0.00012	186.969000101
1970.0	0.00012	187.016000032
1970.0	0.000119	187.04700017
1970.0	0.0001178	187.094000101
1970.0	0.0001175	187.141000032
1970.0	0.0001178	187.17200017
1970.0	0.000119	187.219000101
1970.0	0.0001205	187.266000032
1970.0	0.0001208	187.29700017
1970.0	0.0001215	187.344000101
1970.0	0.0001215	187.375
1970.0	0.0001213	187.42200017
1970.0	0.00012	187.469000101
1970.0	0.0001193	187.5
1980.0	0.000117	187.813000202
1980.0	0.000118	187.844000101
1980.0	0.0001178	187.891000032
1980.0	0.0001165	187.938000202
1980.0	0.0001153	187.969000101
1980.0	0.000115	188.016000032
1980.0	0.0001153	188.063000202
1980.0	0.0001153	188.094000101
1980.0	0.0001153	188.141000032
1980.0	0.0001155	188.17200017
1980.0	0.0001158	188.219000101
1980.0	0.0001163	188.266000032
1980.0	0.0001155	188.29700017
1980.0	0.0001163	188.344000101
1980.0	0.0001165	188.391000032
1980.0	0.0001145	188.42200017
1980.0	0.0001143	188.469000101
1980.0	0.0001138	188.5
1980.0	0.0001138	188.54700017
1980.0	0.0001133	188.594000101
1980.0	0.000114	188.625
1980.0	0.0001145	188.67200017
1980.0	0.0001158	188.719000101
1980.0	0.0001163	188.75
1980.0	0.0001155	188.79700017
1980.0	0.0001153	188.828999996
1980.0	0.000115	188.875
1980.0	0.0001143	188.92200017
1980.0	0.0001138	188.953999996
1980.0	0.0001133	189.0
1980.0	0.0001128	189.04700017
1980.0	0.0001125	189.078999996
1980.0	0.0001125	189.125
1980.0	0.000113	189.17200017
1980.0	0.0001138	189.203999996
1980.0	0.0001138	189.25
1980.0	0.0001138	189.29700017
1990.0	0.000114	189.594000101
1990.0	0.0001143	189.641000032
1990.0	0.000114	189.688000202
1990.0	0.0001133	189.719000101
1990.0	0.000112	189.766000032
1990.0	0.0001105	189.813000202
1990.0	0.0001103	189.844000101
1990.0	0.00011	189.891000032
1990.0	0.00011	189.92200017
1990.0	0.0001103	189.969000101
1990.0	0.0001103	190.016000032
1990.0	0.00011	190.04700017
1990.0	0.0001105	190.094000101
1990.0	0.0001108	190.141000032
1990.0	0.0001115	190.17200017
1990.0	0.0001108	190.219000101
1990.0	0.0001115	190.266000032
1990.0	0.0001118	190.29700017
1990.0	0.0001125	190.344000101
1990.0	0.0001125	190.391000032
1990.0	0.0001118	190.42200017
1990.0	0.0001108	190.469000101
1990.0	0.0001105	190.516000032
1990.0	0.0001103	190.54700017
1990.0	0.0001093	190.594000101
1990.0	0.000109	190.641000032
1990.0	0.0001088	190.67200017
1990.0	0.0001078	190.719000101
1990.0	0.0001065	190.766000032
1990.0	0.0001065	190.79700017
1990.0	0.0001068	190.844000101
1990.0	0.0001075	190.875
1990.0	0.0001088	190.92200017
1990.0	0.000109	190.969000101
1990.0	0.0001095	191.0
1990.0	0.0001108	191.04700017
2000.0	0.0001093	191.344000101
2000.0	0.0001093	191.391000032
2000.0	0.000109	191.438000202
2000.0	0.0001078	191.485000134
2000.0	0.0001078	191.516000032
2000.0	0.0001075	191.563000202
2000.0	0.000107	191.594000101
2000.0	0.0001075	191.641000032
2000.0	0.0001068	191.688000202
2000.0	0.0001065	191.735000134
2000.0	0.0001063	191.766000032
2000.0	0.0001058	191.813000202
2000.0	0.0001055	191.860000134
2000.0	0.0001063	191.891000032
2000.0	0.0001068	191.938000202
2000.0	0.0001068	191.969000101
2000.0	0.0001063	192.016000032
2000.0	0.0001065	192.063000202
2000.0	0.0001075	192.094000101
2000.0	0.0001078	192.141000032
2000.0	0.000109	192.17200017
2000.0	0.0001088	192.219000101
2000.0	0.0001075	192.266000032
2000.0	0.000105	192.29700017
2000.0	0.000103	192.344000101
2000.0	0.0001028	192.391000032
2000.0	0.0001018	192.438000202
2000.0	0.0001003	192.469000101
2000.0	9.93e-05	192.516000032
2000.0	9.95e-05	192.54700017
2000.0	0.0001	192.594000101
2000.0	0.0001013	192.641000032
2000.0	0.0001015	192.67200017
2000.0	0.0001013	192.719000101
2000.0	0.0001008	192.766000032
2000.0	0.0001015	192.79700017
2000.0	0.0001033	192.844000101
