Your edit line - do NOT delete this line
Wavelength [nm], Voltage [V], Elapsed time [s]
1000.0	0.0004093	15.7810001373
1000.0	0.000403	15.8280000687
1000.0	0.0004	15.8589999676
1000.0	0.0003978	15.9060001373
1000.0	0.0003953	15.9530000687
1000.0	0.000394	15.9839999676
1000.0	0.0003928	16.0310001373
1000.0	0.00039	16.0620000362
1000.0	0.000389	16.1089999676
1000.0	0.000389	16.1560001373
1000.0	0.00039	16.1870000362
1000.0	0.0003913	16.2339999676
1000.0	0.0003925	16.2810001373
1000.0	0.0003918	16.3280000687
1000.0	0.000392	16.3589999676
1000.0	0.0003913	16.4060001373
1000.0	0.0003895	16.4530000687
1000.0	0.0003888	16.4839999676
1000.0	0.0003883	16.5310001373
1000.0	0.0003893	16.5780000687
1000.0	0.0003905	16.6089999676
1000.0	0.0003918	16.6560001373
1000.0	0.0003918	16.7030000687
1000.0	0.0003918	16.7339999676
1000.0	0.0003893	16.7810001373
1000.0	0.0003875	16.8280000687
1000.0	0.000387	16.8589999676
1000.0	0.000387	16.9060001373
1000.0	0.0003865	16.9370000362
1000.0	0.0003853	16.9839999676
1000.0	0.0003845	17.0310001373
1000.0	0.0003843	17.0620000362
1000.0	0.0003843	17.1089999676
1000.0	0.000385	17.1560001373
1000.0	0.0003858	17.1870000362
1000.0	0.0003868	17.2339999676
1010.0	0.000394	17.5150001049
1010.0	0.0003975	17.5469999313
1010.0	0.0004005	17.5929999352
1010.0	0.0004015	17.6400001049
1010.0	0.0004013	17.6719999313
1010.0	0.0004013	17.7179999352
1010.0	0.0004025	17.7650001049
1010.0	0.0004033	17.7969999313
1010.0	0.0004038	17.8429999352
1010.0	0.0004043	17.8900001049
1010.0	0.0004053	17.9219999313
1010.0	0.0004063	17.9679999352
1010.0	0.0004075	18.0150001049
1010.0	0.0004078	18.0469999313
1010.0	0.0004093	18.0929999352
1010.0	0.0004093	18.125
1010.0	0.000408	18.1719999313
1010.0	0.0004083	18.2179999352
1010.0	0.0004095	18.25
1010.0	0.0004103	18.2969999313
1010.0	0.0004103	18.3429999352
1010.0	0.0004105	18.375
1010.0	0.0004103	18.4219999313
1010.0	0.0004103	18.4530000687
1010.0	0.0004103	18.5
1010.0	0.0004095	18.5469999313
1010.0	0.000409	18.5780000687
1010.0	0.0004105	18.625
1010.0	0.0004103	18.6719999313
1010.0	0.0004105	18.7030000687
1010.0	0.0004105	18.75
1010.0	0.0004103	18.7969999313
1010.0	0.0004105	18.8280000687
1010.0	0.0004113	18.875
1010.0	0.0004105	18.9060001373
1010.0	0.0004095	18.9530000687
1010.0	0.0004088	19.0
1020.0	0.0004188	19.2810001373
1020.0	0.0004208	19.3120000362
1020.0	0.000422	19.3589999676
1020.0	0.0004225	19.3900001049
1020.0	0.0004238	19.4370000362
1020.0	0.0004245	19.4839999676
1020.0	0.000425	19.5150001049
1020.0	0.0004245	19.5620000362
1020.0	0.0004245	19.6089999676
1020.0	0.0004253	19.6400001049
1020.0	0.000427	19.6870000362
1020.0	0.0004283	19.7179999352
1020.0	0.0004288	19.7650001049
1020.0	0.00043	19.8120000362
1020.0	0.0004305	19.8429999352
1020.0	0.00043	19.8900001049
1020.0	0.0004293	19.9370000362
1020.0	0.0004278	19.9679999352
1020.0	0.0004265	20.0150001049
1020.0	0.000427	20.0620000362
1020.0	0.0004275	20.0929999352
1020.0	0.0004288	20.1400001049
1020.0	0.000429	20.1870000362
1020.0	0.0004288	20.2179999352
1020.0	0.0004283	20.2650001049
1020.0	0.0004283	20.3120000362
1020.0	0.000429	20.3429999352
1020.0	0.0004283	20.3900001049
1020.0	0.0004278	20.4219999313
1020.0	0.0004268	20.4679999352
1020.0	0.0004253	20.5150001049
1020.0	0.0004238	20.5620000362
1020.0	0.0004225	20.5929999352
1020.0	0.0004233	20.6400001049
1020.0	0.000425	20.6719999313
1020.0	0.0004275	20.7179999352
1020.0	0.0004293	20.7650001049
1030.0	0.0004358	21.0469999313
1030.0	0.0004378	21.0780000687
1030.0	0.000438	21.125
1030.0	0.0004383	21.1560001373
1030.0	0.0004395	21.2030000687
1030.0	0.0004403	21.25
1030.0	0.0004415	21.2810001373
1030.0	0.0004425	21.3280000687
1030.0	0.0004415	21.375
1030.0	0.0004425	21.4060001373
1030.0	0.0004443	21.4530000687
1030.0	0.0004458	21.5
1030.0	0.0004465	21.5310001373
1030.0	0.0004463	21.5780000687
1030.0	0.0004463	21.625
1030.0	0.0004465	21.6560001373
1030.0	0.0004475	21.7030000687
1030.0	0.0004483	21.7339999676
1030.0	0.000449	21.7810001373
1030.0	0.0004493	21.8280000687
1030.0	0.0004495	21.8589999676
1030.0	0.0004495	21.9060001373
1030.0	0.00045	21.9530000687
1030.0	0.0004513	21.9839999676
1030.0	0.0004518	22.0310001373
1030.0	0.0004525	22.0780000687
1030.0	0.000452	22.1089999676
1030.0	0.0004528	22.1560001373
1030.0	0.000453	22.1870000362
1030.0	0.000453	22.2339999676
1030.0	0.000453	22.2810001373
1030.0	0.0004515	22.3120000362
1030.0	0.0004508	22.3589999676
1030.0	0.000449	22.4060001373
1030.0	0.0004478	22.4370000362
1030.0	0.0004483	22.4839999676
1030.0	0.0004478	22.5150001049
1040.0	0.000454	22.8120000362
1040.0	0.0004558	22.8429999352
1040.0	0.0004575	22.8900001049
1040.0	0.00046	22.9219999313
1040.0	0.0004628	22.9679999352
1040.0	0.0004653	23.0150001049
1040.0	0.0004675	23.0469999313
1040.0	0.000469	23.0929999352
1040.0	0.0004705	23.1400001049
1040.0	0.0004715	23.1719999313
1040.0	0.0004728	23.2179999352
1040.0	0.0004738	23.2650001049
1040.0	0.0004745	23.2969999313
1040.0	0.0004745	23.3429999352
1040.0	0.0004738	23.375
1040.0	0.0004738	23.4219999313
1040.0	0.0004738	23.4679999352
1040.0	0.0004728	23.5
1040.0	0.000472	23.5469999313
1040.0	0.0004708	23.5780000687
1040.0	0.0004693	23.625
1040.0	0.0004688	23.6719999313
1040.0	0.0004693	23.7030000687
1040.0	0.0004713	23.75
1040.0	0.0004733	23.7969999313
1040.0	0.000475	23.8280000687
1040.0	0.0004743	23.875
1040.0	0.000474	23.9219999313
1040.0	0.0004738	23.9530000687
1040.0	0.000475	24.0
1040.0	0.0004755	24.0310001373
1040.0	0.000475	24.0780000687
1040.0	0.000474	24.125
1040.0	0.0004728	24.1560001373
1040.0	0.0004718	24.2030000687
1040.0	0.0004708	24.25
1040.0	0.0004688	24.2810001373
1050.0	0.0004808	24.5620000362
1050.0	0.0004838	24.6089999676
1050.0	0.0004853	24.6400001049
1050.0	0.0004878	24.6870000362
1050.0	0.0004903	24.7339999676
1050.0	0.0004925	24.7650001049
1050.0	0.0004938	24.8120000362
1050.0	0.0004943	24.8589999676
1050.0	0.0004945	24.8900001049
1050.0	0.0004938	24.9370000362
1050.0	0.0004925	24.9679999352
1050.0	0.0004915	25.0150001049
1050.0	0.0004928	25.0620000362
1050.0	0.000494	25.0929999352
1050.0	0.0004965	25.1400001049
1050.0	0.0004988	25.1870000362
1050.0	0.0004988	25.2179999352
1050.0	0.000498	25.2650001049
1050.0	0.0004975	25.2969999313
1050.0	0.000497	25.3429999352
1050.0	0.000498	25.3900001049
1050.0	0.0004975	25.4370000362
1050.0	0.000497	25.4679999352
1050.0	0.0004968	25.5150001049
1050.0	0.0004958	25.5469999313
1050.0	0.000495	25.5929999352
1050.0	0.0004928	25.6400001049
1050.0	0.0004913	25.6719999313
1050.0	0.0004913	25.7179999352
1050.0	0.0004908	25.7650001049
1050.0	0.0004918	25.7969999313
1050.0	0.0004933	25.8429999352
1050.0	0.0004943	25.875
1050.0	0.0004953	25.9219999313
1050.0	0.0004965	25.9679999352
1050.0	0.0004963	26.0
1050.0	0.0004943	26.0469999313
1060.0	0.0004995	26.3280000687
1060.0	0.000503	26.375
1060.0	0.0005058	26.4060001373
1060.0	0.0005088	26.4530000687
1060.0	0.0005118	26.5
1060.0	0.0005133	26.5310001373
1060.0	0.000515	26.5780000687
1060.0	0.0005155	26.625
1060.0	0.0005145	26.6560001373
1060.0	0.0005143	26.7030000687
1060.0	0.0005145	26.7339999676
1060.0	0.0005158	26.7810001373
1060.0	0.0005155	26.8280000687
1060.0	0.0005138	26.8589999676
1060.0	0.000513	26.9060001373
1060.0	0.0005118	26.9530000687
1060.0	0.0005113	26.9839999676
1060.0	0.0005103	27.0310001373
1060.0	0.0005103	27.0620000362
1060.0	0.0005105	27.1089999676
1060.0	0.0005113	27.1560001373
1060.0	0.0005113	27.1870000362
1060.0	0.0005113	27.2339999676
1060.0	0.0005118	27.2810001373
1060.0	0.000512	27.3120000362
1060.0	0.0005125	27.3589999676
1060.0	0.0005128	27.3900001049
1060.0	0.0005133	27.4370000362
1060.0	0.0005138	27.4839999676
1060.0	0.0005145	27.5150001049
1060.0	0.0005153	27.5620000362
1060.0	0.0005158	27.6089999676
1060.0	0.0005153	27.6400001049
1060.0	0.0005155	27.6870000362
1060.0	0.0005158	27.7339999676
1060.0	0.000515	27.7650001049
1060.0	0.0005145	27.8120000362
1070.0	0.0005178	28.0929999352
1070.0	0.0005193	28.125
1070.0	0.0005215	28.1719999313
1070.0	0.0005243	28.2030000687
1070.0	0.0005255	28.25
1070.0	0.000527	28.2969999313
1070.0	0.000527	28.3280000687
1070.0	0.000528	28.375
1070.0	0.0005293	28.4219999313
1070.0	0.0005295	28.4530000687
1070.0	0.0005303	28.5
1070.0	0.000532	28.5469999313
1070.0	0.0005318	28.5780000687
1070.0	0.0005313	28.625
1070.0	0.0005295	28.6560001373
1070.0	0.0005288	28.7030000687
1070.0	0.0005288	28.75
1070.0	0.000529	28.7810001373
1070.0	0.0005295	28.8280000687
1070.0	0.0005303	28.875
1070.0	0.0005305	28.9060001373
1070.0	0.0005295	28.9530000687
1070.0	0.000529	28.9839999676
1070.0	0.0005293	29.0310001373
1070.0	0.0005308	29.0780000687
1070.0	0.0005315	29.1089999676
1070.0	0.0005325	29.1560001373
1070.0	0.0005328	29.2030000687
1070.0	0.0005318	29.2339999676
1070.0	0.0005313	29.2810001373
1070.0	0.000532	29.3120000362
1070.0	0.000533	29.3589999676
1070.0	0.0005333	29.4060001373
1070.0	0.000533	29.4370000362
1070.0	0.0005325	29.4839999676
1070.0	0.0005308	29.5310001373
1070.0	0.0005295	29.5620000362
1080.0	0.000538	29.8429999352
1080.0	0.0005405	29.8900001049
1080.0	0.0005433	29.9219999313
1080.0	0.0005458	29.9679999352
1080.0	0.0005475	30.0150001049
1080.0	0.0005478	30.0469999313
1080.0	0.000548	30.0929999352
1080.0	0.0005468	30.1400001049
1080.0	0.0005465	30.1719999313
1080.0	0.000545	30.2179999352
1080.0	0.0005438	30.25
1080.0	0.0005433	30.2969999313
1080.0	0.000544	30.3429999352
1080.0	0.000545	30.375
1080.0	0.0005453	30.4219999313
1080.0	0.0005445	30.4679999352
1080.0	0.0005433	30.5
1080.0	0.0005433	30.5469999313
1080.0	0.000544	30.5780000687
1080.0	0.0005433	30.625
1080.0	0.0005438	30.6719999313
1080.0	0.0005455	30.7030000687
1080.0	0.0005468	30.75
1080.0	0.000547	30.7969999313
1080.0	0.0005478	30.8280000687
1080.0	0.0005475	30.875
1080.0	0.0005465	30.9219999313
1080.0	0.0005458	30.9530000687
1080.0	0.0005468	31.0
1080.0	0.000548	31.0469999313
1080.0	0.000548	31.0780000687
1080.0	0.000548	31.125
1080.0	0.000548	31.1560001373
1080.0	0.000548	31.2030000687
1080.0	0.000547	31.25
1080.0	0.000547	31.2810001373
1080.0	0.0005468	31.3280000687
1090.0	0.0005508	31.6089999676
1090.0	0.0005528	31.6400001049
1090.0	0.0005543	31.6870000362
1090.0	0.0005545	31.7339999676
1090.0	0.000554	31.7650001049
1090.0	0.0005538	31.8120000362
1090.0	0.000554	31.8429999352
1090.0	0.0005533	31.8900001049
1090.0	0.000552	31.9370000362
1090.0	0.0005515	31.9679999352
1090.0	0.0005528	32.0150001049
1090.0	0.0005533	32.0620000362
1090.0	0.0005538	32.0929999352
1090.0	0.0005543	32.1400001049
1090.0	0.0005553	32.1719999313
1090.0	0.0005558	32.2179999352
1090.0	0.0005563	32.2650001049
1090.0	0.000557	32.2969999313
1090.0	0.0005565	32.3429999352
1090.0	0.0005555	32.3900001049
1090.0	0.0005558	32.4219999313
1090.0	0.0005555	32.4679999352
1090.0	0.0005543	32.5150001049
1090.0	0.0005545	32.5469999313
1090.0	0.0005553	32.5929999352
1090.0	0.0005563	32.625
1090.0	0.0005568	32.6719999313
1090.0	0.0005563	32.7179999352
1090.0	0.0005555	32.7650001049
1090.0	0.0005543	32.7969999313
1090.0	0.0005543	32.8429999352
1090.0	0.0005533	32.875
1090.0	0.000553	32.9219999313
1090.0	0.0005538	32.9679999352
1090.0	0.0005533	33.0
1090.0	0.0005543	33.0469999313
1090.0	0.0005553	33.0929999352
1100.0	0.000559	33.3589999676
1100.0	0.0005595	33.4060001373
1100.0	0.0005603	33.4370000362
1100.0	0.0005608	33.4839999676
1100.0	0.000562	33.5150001049
1100.0	0.000562	33.5620000362
1100.0	0.0005625	33.6089999676
1100.0	0.0005633	33.6400001049
1100.0	0.0005643	33.6870000362
1100.0	0.0005643	33.7339999676
1100.0	0.0005638	33.7650001049
1100.0	0.000563	33.8120000362
1100.0	0.0005608	33.8429999352
1100.0	0.0005603	33.8900001049
1100.0	0.0005608	33.9370000362
1100.0	0.0005613	33.9679999352
1100.0	0.0005613	34.0150001049
1100.0	0.0005613	34.0620000362
1100.0	0.0005625	34.0929999352
1100.0	0.000563	34.1400001049
1100.0	0.0005643	34.1719999313
1100.0	0.0005645	34.2179999352
1100.0	0.0005643	34.2650001049
1100.0	0.000565	34.2969999313
1100.0	0.0005655	34.3429999352
1100.0	0.0005655	34.3900001049
1100.0	0.0005655	34.4219999313
1100.0	0.0005665	34.4679999352
1100.0	0.000568	34.5150001049
1100.0	0.000569	34.5469999313
1100.0	0.0005683	34.5929999352
1100.0	0.0005678	34.625
1100.0	0.0005658	34.6719999313
1100.0	0.0005653	34.7179999352
1100.0	0.0005655	34.75
1100.0	0.0005663	34.7969999313
1100.0	0.0005658	34.8429999352
1110.0	0.0005643	35.1089999676
1110.0	0.000564	35.1560001373
1110.0	0.0005645	35.1870000362
1110.0	0.0005645	35.2339999676
1110.0	0.000565	35.2650001049
1110.0	0.0005658	35.3120000362
1110.0	0.0005675	35.3589999676
1110.0	0.0005675	35.3900001049
1110.0	0.000567	35.4370000362
1110.0	0.0005678	35.4839999676
1110.0	0.0005678	35.5150001049
1110.0	0.000567	35.5620000362
1110.0	0.0005658	35.5929999352
1110.0	0.000565	35.6400001049
1110.0	0.000565	35.6870000362
1110.0	0.0005653	35.7179999352
1110.0	0.0005643	35.7650001049
1110.0	0.000563	35.8120000362
1110.0	0.0005638	35.8429999352
1110.0	0.000563	35.8900001049
1110.0	0.0005638	35.9370000362
1110.0	0.000564	35.9679999352
1110.0	0.0005653	36.0150001049
1110.0	0.0005655	36.0620000362
1110.0	0.0005665	36.0929999352
1110.0	0.000567	36.1400001049
1110.0	0.0005663	36.1719999313
1110.0	0.0005663	36.2179999352
1110.0	0.0005668	36.2650001049
1110.0	0.0005683	36.3120000362
1110.0	0.0005693	36.3429999352
1110.0	0.00057	36.3900001049
1110.0	0.0005693	36.4370000362
1110.0	0.0005695	36.4679999352
1110.0	0.0005705	36.5150001049
1110.0	0.0005693	36.5469999313
1110.0	0.0005693	36.5929999352
1120.0	0.0005655	36.8589999676
1120.0	0.000564	36.9060001373
1120.0	0.0005638	36.9370000362
1120.0	0.000563	36.9839999676
1120.0	0.000563	37.0310001373
1120.0	0.0005633	37.0620000362
1120.0	0.0005633	37.1089999676
1120.0	0.0005638	37.1400001049
1120.0	0.000563	37.1870000362
1120.0	0.000563	37.2339999676
1120.0	0.0005628	37.2650001049
1120.0	0.000563	37.3120000362
1120.0	0.0005633	37.3589999676
1120.0	0.0005638	37.3900001049
1120.0	0.0005643	37.4370000362
1120.0	0.000564	37.4839999676
1120.0	0.0005638	37.5150001049
1120.0	0.0005638	37.5620000362
1120.0	0.000564	37.5929999352
1120.0	0.0005645	37.6400001049
1120.0	0.0005653	37.6870000362
1120.0	0.0005643	37.7179999352
1120.0	0.0005628	37.7650001049
1120.0	0.0005615	37.8120000362
1120.0	0.0005615	37.8429999352
1120.0	0.0005618	37.8900001049
1120.0	0.0005618	37.9370000362
1120.0	0.000562	37.9679999352
1120.0	0.000562	38.0150001049
1120.0	0.0005608	38.0620000362
1120.0	0.0005603	38.0929999352
1120.0	0.0005618	38.1400001049
1120.0	0.000563	38.1870000362
1120.0	0.0005633	38.2179999352
1120.0	0.0005638	38.2650001049
1120.0	0.0005638	38.2969999313
1120.0	0.0005638	38.3429999352
1130.0	0.000559	38.6089999676
1130.0	0.0005583	38.6560001373
1130.0	0.000559	38.6870000362
1130.0	0.0005595	38.7339999676
1130.0	0.0005595	38.7810001373
1130.0	0.0005593	38.8120000362
1130.0	0.0005593	38.8589999676
1130.0	0.0005593	38.9060001373
1130.0	0.0005583	38.9370000362
1130.0	0.0005583	38.9839999676
1130.0	0.000558	39.0310001373
1130.0	0.0005575	39.0780000687
1130.0	0.000558	39.1089999676
1130.0	0.0005583	39.1560001373
1130.0	0.00056	39.1870000362
1130.0	0.000562	39.2339999676
1130.0	0.0005618	39.2810001373
1130.0	0.0005615	39.3120000362
1130.0	0.0005615	39.3589999676
1130.0	0.0005618	39.4060001373
1130.0	0.0005625	39.4370000362
1130.0	0.0005613	39.4839999676
1130.0	0.0005588	39.5150001049
1130.0	0.0005575	39.5620000362
1130.0	0.0005578	39.6089999676
1130.0	0.0005588	39.6400001049
1130.0	0.0005583	39.6870000362
1130.0	0.0005588	39.7339999676
1130.0	0.000559	39.7650001049
1130.0	0.0005593	39.8120000362
1130.0	0.00056	39.8589999676
1130.0	0.0005593	39.8900001049
1130.0	0.0005588	39.9370000362
1130.0	0.0005578	39.9839999676
1130.0	0.000558	40.0150001049
1130.0	0.000558	40.0620000362
1140.0	0.0005553	40.3280000687
1140.0	0.0005538	40.375
1140.0	0.0005515	40.4060001373
1140.0	0.00055	40.4530000687
1140.0	0.0005493	40.4839999676
1140.0	0.0005495	40.5310001373
1140.0	0.000549	40.5780000687
1140.0	0.000548	40.6089999676
1140.0	0.000547	40.6560001373
1140.0	0.0005465	40.7030000687
1140.0	0.0005468	40.7339999676
1140.0	0.0005488	40.7810001373
1140.0	0.000549	40.8120000362
1140.0	0.0005493	40.8589999676
1140.0	0.00055	40.9060001373
1140.0	0.00055	40.9370000362
1140.0	0.000549	40.9839999676
1140.0	0.0005488	41.0310001373
1140.0	0.0005488	41.0620000362
1140.0	0.0005493	41.1089999676
1140.0	0.00055	41.1560001373
1140.0	0.0005505	41.1870000362
1140.0	0.0005518	41.2339999676
1140.0	0.0005538	41.2650001049
1140.0	0.000555	41.3120000362
1140.0	0.000554	41.3589999676
1140.0	0.0005525	41.3900001049
1140.0	0.0005505	41.4370000362
1140.0	0.0005493	41.4839999676
1140.0	0.0005488	41.5150001049
1140.0	0.000548	41.5620000362
1140.0	0.0005478	41.5929999352
1140.0	0.000547	41.6400001049
1140.0	0.0005463	41.6870000362
1140.0	0.0005458	41.7179999352
1140.0	0.000547	41.7650001049
1140.0	0.0005468	41.8120000362
1150.0	0.0005445	42.0780000687
1150.0	0.000543	42.1089999676
1150.0	0.0005418	42.1560001373
1150.0	0.0005405	42.2030000687
1150.0	0.00054	42.2339999676
1150.0	0.0005405	42.2810001373
1150.0	0.0005415	42.3120000362
1150.0	0.0005413	42.3589999676
1150.0	0.0005413	42.4060001373
1150.0	0.0005413	42.4530000687
1150.0	0.0005405	42.4839999676
1150.0	0.00054	42.5310001373
1150.0	0.0005393	42.5620000362
1150.0	0.0005388	42.6089999676
1150.0	0.000539	42.6560001373
1150.0	0.0005393	42.6870000362
1150.0	0.000539	42.7339999676
1150.0	0.000539	42.7810001373
1150.0	0.0005393	42.8120000362
1150.0	0.000539	42.8589999676
1150.0	0.0005393	42.9060001373
1150.0	0.0005403	42.9370000362
1150.0	0.0005415	42.9839999676
1150.0	0.0005428	43.0150001049
1150.0	0.000545	43.0620000362
1150.0	0.0005455	43.1089999676
1150.0	0.0005458	43.1400001049
1150.0	0.0005443	43.1870000362
1150.0	0.0005418	43.2339999676
1150.0	0.0005403	43.2650001049
1150.0	0.0005393	43.3120000362
1150.0	0.0005395	43.3429999352
1150.0	0.0005393	43.3900001049
1150.0	0.00054	43.4370000362
1150.0	0.0005413	43.4679999352
1150.0	0.0005418	43.5150001049
1150.0	0.0005418	43.5620000362
1160.0	0.0005355	43.8120000362
1160.0	0.0005353	43.8589999676
1160.0	0.0005358	43.9060001373
1160.0	0.0005365	43.9370000362
1160.0	0.0005358	43.9839999676
1160.0	0.0005345	44.0310001373
1160.0	0.000535	44.0620000362
1160.0	0.000535	44.1089999676
1160.0	0.0005338	44.1400001049
1160.0	0.0005325	44.1870000362
1160.0	0.0005313	44.2339999676
1160.0	0.0005305	44.2650001049
1160.0	0.0005295	44.3120000362
1160.0	0.0005293	44.3589999676
1160.0	0.000529	44.3900001049
1160.0	0.0005288	44.4370000362
1160.0	0.000529	44.4679999352
1160.0	0.0005295	44.5150001049
1160.0	0.0005303	44.5620000362
1160.0	0.0005318	44.5929999352
1160.0	0.0005325	44.6400001049
1160.0	0.0005325	44.6870000362
1160.0	0.0005338	44.7179999352
1160.0	0.0005343	44.7650001049
1160.0	0.0005333	44.8120000362
1160.0	0.000534	44.8429999352
1160.0	0.0005343	44.8900001049
1160.0	0.000534	44.9370000362
1160.0	0.0005338	44.9679999352
1160.0	0.0005338	45.0150001049
1160.0	0.000533	45.0620000362
1160.0	0.0005333	45.0929999352
1160.0	0.000535	45.1400001049
1160.0	0.0005355	45.1719999313
1160.0	0.0005345	45.2179999352
1160.0	0.000535	45.2650001049
1160.0	0.000535	45.2969999313
1170.0	0.0005313	45.5780000687
1170.0	0.0005288	45.625
1170.0	0.0005268	45.6560001373
1170.0	0.000525	45.7030000687
1170.0	0.0005225	45.7339999676
1170.0	0.0005228	45.7810001373
1170.0	0.0005238	45.8280000687
1170.0	0.0005233	45.8589999676
1170.0	0.000523	45.9060001373
1170.0	0.0005253	45.9530000687
1170.0	0.000527	45.9839999676
1170.0	0.0005275	46.0310001373
1170.0	0.000527	46.0620000362
1170.0	0.0005268	46.1089999676
1170.0	0.0005268	46.1560001373
1170.0	0.0005263	46.1870000362
1170.0	0.0005258	46.2339999676
1170.0	0.0005253	46.2810001373
1170.0	0.0005245	46.3120000362
1170.0	0.000525	46.3589999676
1170.0	0.000525	46.3900001049
1170.0	0.0005245	46.4370000362
1170.0	0.000524	46.4839999676
1170.0	0.0005243	46.5310001373
1170.0	0.000523	46.5620000362
1170.0	0.000524	46.6089999676
1170.0	0.000523	46.6560001373
1170.0	0.000522	46.6870000362
1170.0	0.0005215	46.7339999676
1170.0	0.000522	46.7810001373
1170.0	0.0005225	46.8120000362
1170.0	0.0005245	46.8589999676
1170.0	0.0005255	46.9060001373
1170.0	0.0005255	46.9370000362
1170.0	0.000525	46.9839999676
1170.0	0.000523	47.0150001049
1180.0	0.000518	47.2969999313
1180.0	0.0005178	47.3280000687
1180.0	0.0005183	47.375
1180.0	0.000519	47.4219999313
1180.0	0.0005195	47.4530000687
1180.0	0.00052	47.5
1180.0	0.00052	47.5469999313
1180.0	0.0005193	47.5780000687
1180.0	0.0005195	47.625
1180.0	0.00052	47.6560001373
1180.0	0.0005213	47.7030000687
1180.0	0.000522	47.75
1180.0	0.0005218	47.7810001373
1180.0	0.000522	47.8280000687
1180.0	0.0005225	47.875
1180.0	0.0005228	47.9060001373
1180.0	0.000522	47.9530000687
1180.0	0.0005215	48.0
1180.0	0.0005205	48.0310001373
1180.0	0.00052	48.0780000687
1180.0	0.0005188	48.125
1180.0	0.0005175	48.1560001373
1180.0	0.0005175	48.2030000687
1180.0	0.0005175	48.25
1180.0	0.0005175	48.2810001373
1180.0	0.000517	48.3280000687
1180.0	0.0005183	48.3589999676
1180.0	0.0005178	48.4060001373
1180.0	0.0005168	48.4530000687
1180.0	0.0005163	48.4839999676
1180.0	0.0005158	48.5310001373
1180.0	0.0005143	48.5780000687
1180.0	0.0005143	48.6089999676
1180.0	0.000515	48.6560001373
1180.0	0.0005163	48.6870000362
1180.0	0.000518	48.7339999676
1180.0	0.0005193	48.7810001373
1190.0	0.000517	49.0469999313
1190.0	0.0005168	49.0929999352
1190.0	0.0005155	49.125
1190.0	0.0005143	49.1719999313
1190.0	0.0005133	49.2179999352
1190.0	0.000513	49.25
1190.0	0.0005133	49.2969999313
1190.0	0.0005138	49.3280000687
1190.0	0.000513	49.375
1190.0	0.0005125	49.4219999313
1190.0	0.000512	49.4530000687
1190.0	0.0005118	49.5
1190.0	0.000512	49.5469999313
1190.0	0.0005115	49.5780000687
1190.0	0.0005125	49.625
1190.0	0.0005143	49.6560001373
1190.0	0.0005158	49.7030000687
1190.0	0.0005168	49.75
1190.0	0.0005175	49.7810001373
1190.0	0.0005178	49.8280000687
1190.0	0.000517	49.875
1190.0	0.0005163	49.9060001373
1190.0	0.0005153	49.9530000687
1190.0	0.000515	49.9839999676
1190.0	0.0005143	50.0310001373
1190.0	0.0005138	50.0780000687
1190.0	0.0005133	50.1089999676
1190.0	0.000513	50.1560001373
1190.0	0.0005113	50.2030000687
1190.0	0.000509	50.2339999676
1190.0	0.0005083	50.2810001373
1190.0	0.0005095	50.3280000687
1190.0	0.0005108	50.3589999676
1190.0	0.0005115	50.4060001373
1190.0	0.0005113	50.4370000362
1190.0	0.0005113	50.4839999676
1190.0	0.0005118	50.5310001373
1200.0	0.0005133	50.7969999313
1200.0	0.000513	50.8429999352
1200.0	0.0005138	50.875
1200.0	0.0005143	50.9219999313
1200.0	0.0005143	50.9530000687
1200.0	0.0005138	51.0
1200.0	0.0005128	51.0469999313
1200.0	0.0005125	51.0780000687
1200.0	0.0005115	51.125
1200.0	0.00051	51.1719999313
1200.0	0.0005095	51.2030000687
1200.0	0.00051	51.25
1200.0	0.0005113	51.2969999313
1200.0	0.0005115	51.3280000687
1200.0	0.0005113	51.375
1200.0	0.0005103	51.4060001373
1200.0	0.0005103	51.4530000687
1200.0	0.0005118	51.5
1200.0	0.0005125	51.5310001373
1200.0	0.000513	51.5780000687
1200.0	0.0005133	51.625
1200.0	0.0005128	51.6560001373
1200.0	0.0005128	51.7030000687
1200.0	0.0005128	51.7339999676
1200.0	0.0005128	51.7810001373
1200.0	0.0005128	51.8280000687
1200.0	0.0005125	51.8589999676
1200.0	0.0005115	51.9060001373
1200.0	0.0005108	51.9530000687
1200.0	0.0005105	51.9839999676
1200.0	0.0005105	52.0310001373
1200.0	0.0005113	52.0620000362
1200.0	0.0005115	52.1089999676
1200.0	0.0005115	52.1560001373
1200.0	0.0005128	52.1870000362
1200.0	0.0005125	52.2339999676
1200.0	0.0005118	52.2810001373
1210.0	0.0005145	52.5469999313
1210.0	0.0005158	52.5929999352
1210.0	0.0005168	52.625
1210.0	0.0005153	52.6719999313
1210.0	0.0005145	52.7030000687
1210.0	0.000513	52.75
1210.0	0.0005118	52.7969999313
1210.0	0.0005105	52.8280000687
1210.0	0.0005103	52.875
1210.0	0.00051	52.9219999313
1210.0	0.0005093	52.9530000687
1210.0	0.00051	53.0
1210.0	0.0005108	53.0469999313
1210.0	0.0005108	53.0780000687
1210.0	0.0005093	53.125
1210.0	0.0005083	53.1560001373
1210.0	0.0005093	53.2030000687
1210.0	0.00051	53.25
1210.0	0.000509	53.2810001373
1210.0	0.0005083	53.3280000687
1210.0	0.0005068	53.375
1210.0	0.0005078	53.4060001373
1210.0	0.0005093	53.4530000687
1210.0	0.0005115	53.4839999676
1210.0	0.0005133	53.5310001373
1210.0	0.0005143	53.5780000687
1210.0	0.000514	53.6089999676
1210.0	0.000513	53.6560001373
1210.0	0.000513	53.7030000687
1210.0	0.000512	53.7339999676
1210.0	0.0005115	53.7810001373
1210.0	0.0005105	53.8120000362
1210.0	0.0005108	53.8589999676
1210.0	0.0005115	53.9060001373
1210.0	0.000512	53.9370000362
1210.0	0.0005133	53.9839999676
1210.0	0.0005143	54.0310001373
1220.0	0.0005113	54.2969999313
1220.0	0.0005103	54.3280000687
1220.0	0.0005095	54.375
1220.0	0.0005093	54.4219999313
1220.0	0.0005105	54.4530000687
1220.0	0.0005128	54.5
1220.0	0.0005143	54.5469999313
1220.0	0.0005138	54.5780000687
1220.0	0.0005128	54.625
1220.0	0.0005138	54.6719999313
1220.0	0.000513	54.7030000687
1220.0	0.0005115	54.75
1220.0	0.0005115	54.7810001373
1220.0	0.0005115	54.8280000687
1220.0	0.0005105	54.875
1220.0	0.0005113	54.9060001373
1220.0	0.0005115	54.9530000687
1220.0	0.000512	55.0
1220.0	0.000512	55.0310001373
1220.0	0.000514	55.0780000687
1220.0	0.0005153	55.125
1220.0	0.000515	55.1560001373
1220.0	0.0005143	55.2030000687
1220.0	0.0005138	55.2339999676
1220.0	0.0005138	55.2810001373
1220.0	0.0005133	55.3280000687
1220.0	0.000513	55.3589999676
1220.0	0.0005133	55.4060001373
1220.0	0.0005128	55.4530000687
1220.0	0.0005118	55.4839999676
1220.0	0.0005118	55.5310001373
1220.0	0.000512	55.5620000362
1220.0	0.0005128	55.6089999676
1220.0	0.000513	55.6560001373
1220.0	0.0005133	55.6870000362
1220.0	0.0005143	55.7339999676
1220.0	0.000515	55.7810001373
1230.0	0.0005128	56.0469999313
1230.0	0.0005128	56.0780000687
1230.0	0.000513	56.125
1230.0	0.0005145	56.1719999313
1230.0	0.0005165	56.2030000687
1230.0	0.0005178	56.25
1230.0	0.000518	56.2810001373
1230.0	0.000518	56.3280000687
1230.0	0.0005175	56.375
1230.0	0.000517	56.4219999313
1230.0	0.0005163	56.4530000687
1230.0	0.0005155	56.5
1230.0	0.0005155	56.5310001373
1230.0	0.0005153	56.5780000687
1230.0	0.0005165	56.625
1230.0	0.0005175	56.6560001373
1230.0	0.0005175	56.7030000687
1230.0	0.000518	56.75
1230.0	0.0005168	56.7810001373
1230.0	0.000515	56.8280000687
1230.0	0.000515	56.8589999676
1230.0	0.0005155	56.9060001373
1230.0	0.0005165	56.9530000687
1230.0	0.0005178	56.9839999676
1230.0	0.0005188	57.0310001373
1230.0	0.000518	57.0780000687
1230.0	0.000517	57.1089999676
1230.0	0.0005163	57.1560001373
1230.0	0.0005163	57.2030000687
1230.0	0.0005155	57.2339999676
1230.0	0.000515	57.2810001373
1230.0	0.0005145	57.3120000362
1230.0	0.0005138	57.3589999676
1230.0	0.000515	57.4060001373
1230.0	0.0005163	57.4530000687
1230.0	0.000517	57.4839999676
1230.0	0.000517	57.5310001373
1240.0	0.0005188	57.7969999313
1240.0	0.000518	57.8280000687
1240.0	0.000518	57.875
1240.0	0.000519	57.9219999313
1240.0	0.00052	57.9530000687
1240.0	0.0005193	58.0
1240.0	0.000519	58.0469999313
1240.0	0.000519	58.0929999352
1240.0	0.000519	58.125
1240.0	0.00052	58.1719999313
1240.0	0.0005213	58.2179999352
1240.0	0.0005213	58.25
1240.0	0.0005215	58.2969999313
1240.0	0.00052	58.3429999352
1240.0	0.000519	58.375
1240.0	0.0005175	58.4219999313
1240.0	0.000517	58.4530000687
1240.0	0.0005183	58.5
1240.0	0.0005178	58.5469999313
1240.0	0.0005178	58.5780000687
1240.0	0.000519	58.625
1240.0	0.0005193	58.6719999313
1240.0	0.0005188	58.7030000687
1240.0	0.0005183	58.75
1240.0	0.000518	58.7969999313
1240.0	0.0005178	58.8280000687
1240.0	0.000519	58.875
1240.0	0.000518	58.9060001373
1240.0	0.0005175	58.9530000687
1240.0	0.0005168	59.0
1240.0	0.0005168	59.0310001373
1240.0	0.0005168	59.0780000687
1240.0	0.0005175	59.125
1240.0	0.000519	59.1560001373
1240.0	0.0005193	59.2030000687
1240.0	0.0005203	59.25
1250.0	0.0005213	59.5150001049
1250.0	0.0005203	59.5469999313
1250.0	0.0005203	59.5929999352
1250.0	0.0005205	59.6400001049
1250.0	0.00052	59.6719999313
1250.0	0.000519	59.7179999352
1250.0	0.0005183	59.7650001049
1250.0	0.0005178	59.7969999313
1250.0	0.0005178	59.8429999352
1250.0	0.0005183	59.8900001049
1250.0	0.0005195	59.9219999313
1250.0	0.0005215	59.9679999352
1250.0	0.0005225	60.0150001049
1250.0	0.000522	60.0469999313
1250.0	0.0005225	60.0929999352
1250.0	0.0005225	60.125
1250.0	0.000522	60.1719999313
1250.0	0.000522	60.2179999352
1250.0	0.0005213	60.25
1250.0	0.0005195	60.2969999313
1250.0	0.000519	60.3429999352
1250.0	0.0005188	60.375
1250.0	0.000519	60.4219999313
1250.0	0.0005195	60.4679999352
1250.0	0.0005205	60.5150001049
1250.0	0.0005193	60.5469999313
1250.0	0.00052	60.5929999352
1250.0	0.0005213	60.6400001049
1250.0	0.0005218	60.6719999313
1250.0	0.0005218	60.7179999352
1250.0	0.0005228	60.75
1250.0	0.0005228	60.7969999313
1250.0	0.0005238	60.8429999352
1250.0	0.0005243	60.8900001049
1250.0	0.0005233	60.9219999313
1250.0	0.0005225	60.9679999352
1260.0	0.0005228	61.2339999676
1260.0	0.0005225	61.2810001373
1260.0	0.0005238	61.3120000362
1260.0	0.0005228	61.3589999676
1260.0	0.0005215	61.3900001049
1260.0	0.0005215	61.4370000362
1260.0	0.0005213	61.4839999676
1260.0	0.0005205	61.5150001049
1260.0	0.0005218	61.5620000362
1260.0	0.0005215	61.6089999676
1260.0	0.0005213	61.6400001049
1260.0	0.0005203	61.6870000362
1260.0	0.00052	61.7179999352
1260.0	0.0005205	61.7650001049
1260.0	0.000522	61.8120000362
1260.0	0.000523	61.8429999352
1260.0	0.0005225	61.8900001049
1260.0	0.0005228	61.9370000362
1260.0	0.000523	61.9679999352
1260.0	0.0005238	62.0150001049
1260.0	0.0005233	62.0620000362
1260.0	0.0005243	62.0929999352
1260.0	0.0005245	62.1400001049
1260.0	0.0005245	62.1719999313
1260.0	0.0005243	62.2179999352
1260.0	0.0005243	62.2650001049
1260.0	0.0005245	62.3120000362
1260.0	0.0005253	62.3429999352
1260.0	0.000525	62.3900001049
1260.0	0.0005258	62.4219999313
1260.0	0.0005255	62.4679999352
1260.0	0.000525	62.5150001049
1260.0	0.0005233	62.5469999313
1260.0	0.000522	62.5929999352
1260.0	0.0005213	62.6400001049
1260.0	0.0005205	62.6719999313
1260.0	0.00052	62.7179999352
1270.0	0.0005228	62.9839999676
1270.0	0.000523	63.0310001373
1270.0	0.000524	63.0620000362
1270.0	0.0005228	63.1089999676
1270.0	0.0005215	63.1400001049
1270.0	0.0005203	63.1870000362
1270.0	0.0005188	63.2339999676
1270.0	0.000519	63.2650001049
1270.0	0.0005188	63.3120000362
1270.0	0.000518	63.3589999676
1270.0	0.0005183	63.3900001049
1270.0	0.0005193	63.4370000362
1270.0	0.0005205	63.4679999352
1270.0	0.0005208	63.5150001049
1270.0	0.0005205	63.5620000362
1270.0	0.0005195	63.5929999352
1270.0	0.0005193	63.6400001049
1270.0	0.0005188	63.6870000362
1270.0	0.000518	63.7179999352
1270.0	0.0005188	63.7650001049
1270.0	0.0005193	63.8120000362
1270.0	0.00052	63.8429999352
1270.0	0.0005203	63.8900001049
1270.0	0.0005208	63.9219999313
1270.0	0.0005225	63.9679999352
1270.0	0.0005238	64.0150001049
1270.0	0.0005263	64.0469999313
1270.0	0.0005268	64.0929999352
1270.0	0.0005265	64.1400001049
1270.0	0.0005255	64.1719999313
1270.0	0.0005243	64.2179999352
1270.0	0.0005238	64.25
1270.0	0.000522	64.2969999313
1270.0	0.0005213	64.3429999352
1270.0	0.0005203	64.375
1270.0	0.00052	64.4219999313
1270.0	0.00052	64.4679999352
1280.0	0.0005195	64.7339999676
1280.0	0.0005178	64.7650001049
1280.0	0.0005178	64.8120000362
1280.0	0.0005175	64.8589999676
1280.0	0.0005183	64.8900001049
1280.0	0.0005195	64.9370000362
1280.0	0.0005205	64.9679999352
1280.0	0.0005203	65.0150001049
1280.0	0.00052	65.0620000362
1280.0	0.0005193	65.0929999352
1280.0	0.0005183	65.1400001049
1280.0	0.0005183	65.1870000362
1280.0	0.0005183	65.2179999352
1280.0	0.000518	65.2650001049
1280.0	0.0005178	65.2969999313
1280.0	0.000519	65.3429999352
1280.0	0.0005188	65.3900001049
1280.0	0.0005183	65.4219999313
1280.0	0.0005175	65.4679999352
1280.0	0.0005163	65.5150001049
1280.0	0.0005165	65.5469999313
1280.0	0.0005165	65.5929999352
1280.0	0.0005158	65.625
1280.0	0.0005158	65.6719999313
1280.0	0.0005178	65.7179999352
1280.0	0.0005193	65.75
1280.0	0.0005203	65.7969999313
1280.0	0.0005205	65.8429999352
1280.0	0.0005205	65.875
1280.0	0.0005193	65.9219999313
1280.0	0.00052	65.9679999352
1280.0	0.0005193	66.0
1280.0	0.0005188	66.0469999313
1280.0	0.0005188	66.0929999352
1280.0	0.000519	66.125
1280.0	0.0005193	66.1719999313
1280.0	0.0005193	66.2179999352
1290.0	0.0005153	66.4839999676
1290.0	0.0005158	66.5150001049
1290.0	0.0005165	66.5620000362
1290.0	0.0005175	66.6089999676
1290.0	0.000517	66.6400001049
1290.0	0.0005168	66.6870000362
1290.0	0.0005155	66.7339999676
1290.0	0.000514	66.7650001049
1290.0	0.0005133	66.8120000362
1290.0	0.0005138	66.8589999676
1290.0	0.000513	66.8900001049
1290.0	0.0005138	66.9370000362
1290.0	0.000514	66.9679999352
1290.0	0.0005143	67.0150001049
1290.0	0.0005143	67.0620000362
1290.0	0.0005143	67.0929999352
1290.0	0.0005133	67.1400001049
1290.0	0.0005133	67.1870000362
1290.0	0.0005133	67.2179999352
1290.0	0.0005125	67.2650001049
1290.0	0.0005125	67.2969999313
1290.0	0.0005133	67.3429999352
1290.0	0.000514	67.3900001049
1290.0	0.0005138	67.4219999313
1290.0	0.000514	67.4679999352
1290.0	0.0005143	67.5150001049
1290.0	0.0005143	67.5469999313
1290.0	0.0005143	67.5929999352
1290.0	0.0005143	67.625
1290.0	0.0005133	67.6719999313
1290.0	0.0005125	67.7179999352
1290.0	0.000512	67.75
1290.0	0.000512	67.7969999313
1290.0	0.0005125	67.8429999352
1290.0	0.0005128	67.875
1290.0	0.0005133	67.9219999313
1290.0	0.0005133	67.9530000687
1300.0	0.0005113	68.2339999676
1300.0	0.0005093	68.2650001049
1300.0	0.000508	68.3120000362
1300.0	0.0005075	68.3589999676
1300.0	0.0005055	68.3900001049
1300.0	0.000504	68.4370000362
1300.0	0.0005025	68.4679999352
1300.0	0.0005015	68.5150001049
1300.0	0.0005005	68.5620000362
1300.0	0.0005005	68.5929999352
1300.0	0.0005013	68.6400001049
1300.0	0.0005018	68.6870000362
1300.0	0.000502	68.7179999352
1300.0	0.0005013	68.7650001049
1300.0	0.0005003	68.7969999313
1300.0	0.0005005	68.8429999352
1300.0	0.0005025	68.8900001049
1300.0	0.0005033	68.9219999313
1300.0	0.000504	68.9679999352
1300.0	0.0005043	69.0150001049
1300.0	0.0005038	69.0469999313
1300.0	0.0005025	69.0929999352
1300.0	0.000502	69.125
1300.0	0.0005015	69.1719999313
1300.0	0.0005025	69.2179999352
1300.0	0.0005038	69.25
1300.0	0.0005065	69.2969999313
1300.0	0.000507	69.3429999352
1300.0	0.0005058	69.375
1300.0	0.0005038	69.4219999313
1300.0	0.000503	69.4530000687
1300.0	0.0005043	69.5
1300.0	0.0005045	69.5469999313
1300.0	0.000504	69.5780000687
1300.0	0.0005045	69.625
1300.0	0.0005053	69.6719999313
1300.0	0.0005053	69.7030000687
1310.0	0.0004993	69.9839999676
1310.0	0.000498	70.0150001049
1310.0	0.0004965	70.0620000362
1310.0	0.000494	70.0929999352
1310.0	0.0004918	70.1400001049
1310.0	0.0004908	70.1870000362
1310.0	0.0004895	70.2179999352
1310.0	0.0004903	70.2650001049
1310.0	0.0004905	70.3120000362
1310.0	0.0004915	70.3429999352
1310.0	0.0004913	70.3900001049
1310.0	0.0004905	70.4370000362
1310.0	0.0004905	70.4679999352
1310.0	0.0004903	70.5150001049
1310.0	0.0004903	70.5620000362
1310.0	0.0004905	70.5929999352
1310.0	0.0004905	70.6400001049
1310.0	0.00049	70.6870000362
1310.0	0.0004893	70.7179999352
1310.0	0.000489	70.7650001049
1310.0	0.0004888	70.7969999313
1310.0	0.0004893	70.8429999352
1310.0	0.0004895	70.8900001049
1310.0	0.0004895	70.9370000362
1310.0	0.0004903	70.9679999352
1310.0	0.00049	71.0150001049
1310.0	0.00049	71.0620000362
1310.0	0.0004903	71.0929999352
1310.0	0.0004913	71.1400001049
1310.0	0.0004915	71.1870000362
1310.0	0.000492	71.2179999352
1310.0	0.000493	71.2650001049
1310.0	0.0004943	71.2969999313
1310.0	0.0004953	71.3429999352
1310.0	0.0004953	71.3900001049
1310.0	0.000493	71.4219999313
1310.0	0.0004913	71.4679999352
1320.0	0.0004825	71.7339999676
1320.0	0.0004793	71.7810001373
1320.0	0.0004763	71.8120000362
1320.0	0.0004733	71.8589999676
1320.0	0.0004708	71.9060001373
1320.0	0.0004693	71.9370000362
1320.0	0.0004693	71.9839999676
1320.0	0.00047	72.0150001049
1320.0	0.0004703	72.0620000362
1320.0	0.0004693	72.1089999676
1320.0	0.00047	72.1400001049
1320.0	0.00047	72.1870000362
1320.0	0.0004693	72.2339999676
1320.0	0.000469	72.2650001049
1320.0	0.0004683	72.3120000362
1320.0	0.0004675	72.3429999352
1320.0	0.0004678	72.3900001049
1320.0	0.0004678	72.4370000362
1320.0	0.000468	72.4679999352
1320.0	0.0004693	72.5150001049
1320.0	0.0004705	72.5620000362
1320.0	0.0004708	72.6089999676
1320.0	0.0004713	72.6400001049
1320.0	0.0004705	72.6870000362
1320.0	0.0004693	72.7179999352
1320.0	0.00047	72.7650001049
1320.0	0.0004695	72.8120000362
1320.0	0.00047	72.8429999352
1320.0	0.0004713	72.8900001049
1320.0	0.0004708	72.9370000362
1320.0	0.0004715	72.9679999352
1320.0	0.000473	73.0150001049
1320.0	0.000474	73.0620000362
1320.0	0.0004733	73.0929999352
1320.0	0.0004725	73.1400001049
1320.0	0.0004715	73.1870000362
1330.0	0.0004578	73.4530000687
1330.0	0.0004553	73.5
1330.0	0.000452	73.5310001373
1330.0	0.0004493	73.5780000687
1330.0	0.000447	73.6089999676
1330.0	0.0004463	73.6560001373
1330.0	0.0004458	73.7030000687
1330.0	0.0004453	73.7339999676
1330.0	0.000444	73.7810001373
1330.0	0.000443	73.8280000687
1330.0	0.0004428	73.8589999676
1330.0	0.0004438	73.9060001373
1330.0	0.0004443	73.9370000362
1330.0	0.0004445	73.9839999676
1330.0	0.0004453	74.0310001373
1330.0	0.0004455	74.0620000362
1330.0	0.0004465	74.1089999676
1330.0	0.000448	74.1560001373
1330.0	0.0004478	74.1870000362
1330.0	0.0004478	74.2339999676
1330.0	0.0004483	74.2810001373
1330.0	0.000448	74.3120000362
1330.0	0.000447	74.3589999676
1330.0	0.0004465	74.3900001049
1330.0	0.0004458	74.4370000362
1330.0	0.0004458	74.4839999676
1330.0	0.0004455	74.5150001049
1330.0	0.0004458	74.5620000362
1330.0	0.0004463	74.6089999676
1330.0	0.0004465	74.6400001049
1330.0	0.0004465	74.6870000362
1330.0	0.0004458	74.7179999352
1330.0	0.0004458	74.7650001049
1330.0	0.0004458	74.8120000362
1330.0	0.0004455	74.8429999352
1330.0	0.0004453	74.8900001049
1330.0	0.000444	74.9370000362
1340.0	0.0004308	75.2030000687
1340.0	0.0004263	75.25
1340.0	0.0004225	75.2810001373
1340.0	0.0004205	75.3280000687
1340.0	0.0004183	75.3589999676
1340.0	0.0004168	75.4060001373
1340.0	0.0004165	75.4530000687
1340.0	0.0004165	75.4839999676
1340.0	0.0004163	75.5310001373
1340.0	0.0004168	75.5780000687
1340.0	0.0004163	75.6089999676
1340.0	0.0004145	75.6560001373
1340.0	0.000414	75.6870000362
1340.0	0.0004138	75.7339999676
1340.0	0.000414	75.7810001373
1340.0	0.0004143	75.8120000362
1340.0	0.000415	75.8589999676
1340.0	0.000415	75.9060001373
1340.0	0.0004155	75.9370000362
1340.0	0.0004168	75.9839999676
1340.0	0.0004175	76.0150001049
1340.0	0.0004183	76.0620000362
1340.0	0.0004188	76.1089999676
1340.0	0.0004178	76.1400001049
1340.0	0.0004165	76.1870000362
1340.0	0.0004145	76.2339999676
1340.0	0.0004128	76.2650001049
1340.0	0.0004118	76.3120000362
1340.0	0.0004115	76.3589999676
1340.0	0.0004115	76.3900001049
1340.0	0.0004115	76.4370000362
1340.0	0.0004108	76.4679999352
1340.0	0.0004115	76.5150001049
1340.0	0.0004115	76.5620000362
1340.0	0.0004125	76.5929999352
1340.0	0.000413	76.6400001049
1340.0	0.000413	76.6870000362
1350.0	0.0004018	76.9530000687
1350.0	0.0003978	77.0
1350.0	0.0003943	77.0310001373
1350.0	0.0003913	77.0780000687
1350.0	0.0003888	77.1089999676
1350.0	0.0003868	77.1560001373
1350.0	0.0003865	77.2030000687
1350.0	0.0003853	77.2339999676
1350.0	0.0003825	77.2810001373
1350.0	0.0003813	77.3280000687
1350.0	0.0003808	77.3589999676
1350.0	0.0003813	77.4060001373
1350.0	0.0003813	77.4370000362
1350.0	0.0003808	77.4839999676
1350.0	0.0003795	77.5310001373
1350.0	0.0003795	77.5620000362
1350.0	0.0003803	77.6089999676
1350.0	0.0003795	77.6560001373
1350.0	0.00038	77.6870000362
1350.0	0.00038	77.7339999676
1350.0	0.00038	77.7650001049
1350.0	0.0003793	77.8120000362
1350.0	0.0003795	77.8589999676
1350.0	0.0003803	77.8900001049
1350.0	0.0003803	77.9370000362
1350.0	0.0003805	77.9839999676
1350.0	0.0003795	78.0150001049
1350.0	0.0003788	78.0620000362
1350.0	0.0003783	78.1089999676
1350.0	0.000378	78.1400001049
1350.0	0.0003775	78.1870000362
1350.0	0.0003775	78.2179999352
1350.0	0.000378	78.2650001049
1350.0	0.000379	78.3120000362
1350.0	0.000379	78.3429999352
1350.0	0.0003788	78.3900001049
1350.0	0.0003788	78.4370000362
1360.0	0.0003663	78.7030000687
1360.0	0.0003625	78.7339999676
1360.0	0.0003605	78.7810001373
1360.0	0.000359	78.8120000362
1360.0	0.0003578	78.8589999676
1360.0	0.0003558	78.9060001373
1360.0	0.000354	78.9370000362
1360.0	0.0003528	78.9839999676
1360.0	0.000352	79.0310001373
1360.0	0.0003518	79.0620000362
1360.0	0.0003505	79.1089999676
1360.0	0.0003493	79.1560001373
1360.0	0.0003475	79.1870000362
1360.0	0.0003458	79.2339999676
1360.0	0.0003453	79.2650001049
1360.0	0.0003445	79.3120000362
1360.0	0.000345	79.3589999676
1360.0	0.0003453	79.3900001049
1360.0	0.0003455	79.4370000362
1360.0	0.0003458	79.4839999676
1360.0	0.0003463	79.5150001049
1360.0	0.0003478	79.5620000362
1360.0	0.00035	79.5929999352
1360.0	0.0003528	79.6400001049
1360.0	0.0003543	79.6870000362
1360.0	0.0003543	79.7339999676
1360.0	0.0003543	79.7650001049
1360.0	0.000353	79.8120000362
1360.0	0.0003515	79.8589999676
1360.0	0.0003495	79.8900001049
1360.0	0.0003475	79.9370000362
1360.0	0.0003465	79.9679999352
1360.0	0.0003458	80.0150001049
1360.0	0.000345	80.0620000362
1360.0	0.000343	80.0929999352
1360.0	0.0003425	80.1400001049
1360.0	0.000343	80.1870000362
1370.0	0.0003408	80.4530000687
1370.0	0.000338	80.4839999676
1370.0	0.0003345	80.5310001373
1370.0	0.0003333	80.5620000362
1370.0	0.000332	80.6089999676
1370.0	0.0003315	80.6560001373
1370.0	0.00033	80.6870000362
1370.0	0.0003293	80.7339999676
1370.0	0.0003278	80.7810001373
1370.0	0.0003263	80.8120000362
1370.0	0.0003253	80.8589999676
1370.0	0.0003245	80.9060001373
1370.0	0.000324	80.9370000362
1370.0	0.0003225	80.9839999676
1370.0	0.0003213	81.0150001049
1370.0	0.0003205	81.0620000362
1370.0	0.0003203	81.1089999676
1370.0	0.0003213	81.1400001049
1370.0	0.000322	81.1870000362
1370.0	0.000323	81.2339999676
1370.0	0.000323	81.2650001049
1370.0	0.0003238	81.3120000362
1370.0	0.0003238	81.3429999352
1370.0	0.000325	81.3900001049
1370.0	0.0003265	81.4370000362
1370.0	0.0003275	81.4679999352
1370.0	0.0003278	81.5150001049
1370.0	0.000327	81.5620000362
1370.0	0.0003265	81.5929999352
1370.0	0.0003258	81.6400001049
1370.0	0.0003245	81.6870000362
1370.0	0.0003238	81.7179999352
1370.0	0.0003228	81.7650001049
1370.0	0.000322	81.8120000362
1370.0	0.000323	81.8429999352
1370.0	0.000324	81.8900001049
1370.0	0.000325	81.9370000362
1380.0	0.0003145	82.2030000687
1380.0	0.0003108	82.25
1380.0	0.0003083	82.2810001373
1380.0	0.000305	82.3280000687
1380.0	0.000303	82.375
1380.0	0.0003018	82.4060001373
1380.0	0.0003	82.4530000687
1380.0	0.0002993	82.4839999676
1380.0	0.000299	82.5310001373
1380.0	0.0002993	82.5780000687
1380.0	0.0002993	82.625
1380.0	0.0003	82.6560001373
1380.0	0.0002993	82.7030000687
1380.0	0.0003	82.75
1380.0	0.0003008	82.7810001373
1380.0	0.0003018	82.8280000687
1380.0	0.0003028	82.8589999676
1380.0	0.0003033	82.9060001373
1380.0	0.000303	82.9530000687
1380.0	0.0003033	83.0
1380.0	0.000304	83.0310001373
1380.0	0.0003053	83.0780000687
1380.0	0.0003055	83.1089999676
1380.0	0.0003055	83.1560001373
1380.0	0.0003045	83.2030000687
1380.0	0.000303	83.2339999676
1380.0	0.000302	83.2810001373
1380.0	0.0003015	83.3280000687
1380.0	0.0003008	83.3589999676
1380.0	0.0003005	83.4060001373
1380.0	0.0003	83.4370000362
1380.0	0.0002988	83.4839999676
1380.0	0.0002978	83.5310001373
1380.0	0.0002978	83.5620000362
1380.0	0.0002983	83.6089999676
1380.0	0.000299	83.6560001373
1390.0	0.000294	83.9219999313
1390.0	0.0002908	83.9530000687
1390.0	0.000289	84.0
1390.0	0.0002883	84.0469999313
1390.0	0.000289	84.0780000687
1390.0	0.0002893	84.125
1390.0	0.0002888	84.1560001373
1390.0	0.0002875	84.2030000687
1390.0	0.000287	84.25
1390.0	0.000288	84.2810001373
1390.0	0.0002883	84.3280000687
1390.0	0.0002895	84.375
1390.0	0.00029	84.4060001373
1390.0	0.0002905	84.4530000687
1390.0	0.0002888	84.5
1390.0	0.0002865	84.5310001373
1390.0	0.0002855	84.5780000687
1390.0	0.0002853	84.6089999676
1390.0	0.0002845	84.6560001373
1390.0	0.0002853	84.7030000687
1390.0	0.0002845	84.7339999676
1390.0	0.000285	84.7810001373
1390.0	0.0002855	84.8280000687
1390.0	0.0002868	84.8589999676
1390.0	0.0002878	84.9060001373
1390.0	0.0002893	84.9530000687
1390.0	0.00029	84.9839999676
1390.0	0.0002895	85.0310001373
1390.0	0.0002893	85.0780000687
1390.0	0.0002883	85.1089999676
1390.0	0.000287	85.1560001373
1390.0	0.0002878	85.1870000362
1390.0	0.0002875	85.2339999676
1390.0	0.0002878	85.2810001373
1390.0	0.0002883	85.3120000362
1390.0	0.000288	85.3589999676
1390.0	0.0002865	85.4060001373
1400.0	0.0002863	85.6719999313
1400.0	0.000284	85.7030000687
1400.0	0.0002813	85.75
1400.0	0.0002788	85.7969999313
1400.0	0.0002778	85.8280000687
1400.0	0.000277	85.875
1400.0	0.000277	85.9060001373
1400.0	0.0002765	85.9530000687
1400.0	0.0002758	86.0
1400.0	0.0002758	86.0310001373
1400.0	0.0002755	86.0780000687
1400.0	0.000275	86.125
1400.0	0.0002745	86.1560001373
1400.0	0.000274	86.2030000687
1400.0	0.0002738	86.2339999676
1400.0	0.000273	86.2810001373
1400.0	0.0002738	86.3280000687
1400.0	0.0002738	86.3589999676
1400.0	0.000275	86.4060001373
1400.0	0.0002743	86.4530000687
1400.0	0.000275	86.4839999676
1400.0	0.0002753	86.5310001373
1400.0	0.0002753	86.5780000687
1400.0	0.0002753	86.6089999676
1400.0	0.0002765	86.6560001373
1400.0	0.0002775	86.7030000687
1400.0	0.000278	86.7339999676
1400.0	0.000278	86.7810001373
1400.0	0.0002778	86.8280000687
1400.0	0.0002778	86.8589999676
1400.0	0.0002765	86.9060001373
1400.0	0.0002758	86.9530000687
1400.0	0.0002753	86.9839999676
1400.0	0.0002745	87.0310001373
1400.0	0.000275	87.0780000687
1400.0	0.000275	87.1089999676
1400.0	0.0002745	87.1560001373
1410.0	0.0002763	87.4219999313
1410.0	0.0002743	87.4679999352
1410.0	0.0002728	87.5
1410.0	0.0002715	87.5469999313
1410.0	0.0002703	87.5780000687
1410.0	0.0002688	87.625
1410.0	0.0002678	87.6719999313
1410.0	0.0002683	87.7030000687
1410.0	0.0002683	87.75
1410.0	0.000268	87.7969999313
1410.0	0.000268	87.8280000687
1410.0	0.0002675	87.875
1410.0	0.0002678	87.9219999313
1410.0	0.000269	87.9530000687
1410.0	0.0002693	88.0
1410.0	0.0002695	88.0469999313
1410.0	0.00027	88.0780000687
1410.0	0.0002703	88.125
1410.0	0.0002705	88.1719999313
1410.0	0.00027	88.2030000687
1410.0	0.0002695	88.25
1410.0	0.0002688	88.2810001373
1410.0	0.000268	88.3280000687
1410.0	0.000267	88.375
1410.0	0.0002668	88.4060001373
1410.0	0.0002668	88.4530000687
1410.0	0.0002665	88.5
1410.0	0.0002663	88.5310001373
1410.0	0.0002655	88.5780000687
1410.0	0.0002658	88.625
1410.0	0.000265	88.6719999313
1410.0	0.000265	88.7030000687
1410.0	0.0002663	88.75
1410.0	0.0002668	88.7810001373
1410.0	0.000267	88.8280000687
1410.0	0.000267	88.875
1420.0	0.0002683	89.1400001049
1420.0	0.0002683	89.1719999313
1420.0	0.0002683	89.2179999352
1420.0	0.0002675	89.2650001049
1420.0	0.0002668	89.2969999313
1420.0	0.0002658	89.3429999352
1420.0	0.0002645	89.3900001049
1420.0	0.0002638	89.4219999313
1420.0	0.000264	89.4679999352
1420.0	0.000265	89.5150001049
1420.0	0.0002653	89.5469999313
1420.0	0.0002653	89.5929999352
1420.0	0.0002653	89.6400001049
1420.0	0.0002665	89.6719999313
1420.0	0.0002675	89.7179999352
1420.0	0.0002678	89.7650001049
1420.0	0.0002675	89.7969999313
1420.0	0.0002675	89.8429999352
1420.0	0.0002675	89.8900001049
1420.0	0.000268	89.9370000362
1420.0	0.0002678	89.9679999352
1420.0	0.0002683	90.0150001049
1420.0	0.000268	90.0469999313
1420.0	0.000267	90.0929999352
1420.0	0.0002668	90.1400001049
1420.0	0.000267	90.1719999313
1420.0	0.000269	90.2179999352
1420.0	0.0002703	90.2650001049
1420.0	0.0002695	90.2969999313
1420.0	0.0002705	90.3429999352
1420.0	0.0002718	90.375
1420.0	0.0002713	90.4219999313
1420.0	0.000269	90.4679999352
1420.0	0.0002658	90.5150001049
1420.0	0.000263	90.5469999313
1420.0	0.0002628	90.5929999352
1430.0	0.000268	90.8589999676
1430.0	0.0002695	90.9060001373
1430.0	0.0002703	90.9370000362
1430.0	0.0002695	90.9839999676
1430.0	0.0002688	91.0150001049
1430.0	0.0002703	91.0620000362
1430.0	0.0002705	91.1089999676
1430.0	0.0002708	91.1400001049
1430.0	0.0002718	91.1870000362
1430.0	0.0002725	91.2339999676
1430.0	0.0002725	91.2650001049
1430.0	0.0002725	91.3120000362
1430.0	0.0002713	91.3589999676
1430.0	0.0002713	91.3900001049
1430.0	0.0002695	91.4370000362
1430.0	0.0002693	91.4679999352
1430.0	0.0002703	91.5150001049
1430.0	0.0002703	91.5620000362
1430.0	0.0002708	91.5929999352
1430.0	0.0002705	91.6400001049
1430.0	0.0002703	91.6870000362
1430.0	0.0002705	91.7179999352
1430.0	0.0002708	91.7650001049
1430.0	0.00027	91.7969999313
1430.0	0.0002703	91.8429999352
1430.0	0.0002693	91.8900001049
1430.0	0.0002688	91.9219999313
1430.0	0.000269	91.9679999352
1430.0	0.0002693	92.0150001049
1430.0	0.00027	92.0469999313
1430.0	0.0002705	92.0929999352
1430.0	0.0002708	92.125
1430.0	0.0002708	92.1719999313
1430.0	0.0002715	92.2179999352
1430.0	0.0002728	92.25
1430.0	0.0002733	92.2969999313
1430.0	0.000273	92.3429999352
1440.0	0.0002743	92.6089999676
1440.0	0.0002743	92.6400001049
1440.0	0.0002738	92.6870000362
1440.0	0.000274	92.7339999676
1440.0	0.0002733	92.7650001049
1440.0	0.0002725	92.8120000362
1440.0	0.000273	92.8429999352
1440.0	0.0002733	92.8900001049
1440.0	0.0002728	92.9370000362
1440.0	0.000272	92.9679999352
1440.0	0.0002708	93.0150001049
1440.0	0.0002695	93.0620000362
1440.0	0.0002693	93.0929999352
1440.0	0.0002705	93.1400001049
1440.0	0.0002708	93.1870000362
1440.0	0.0002713	93.2179999352
1440.0	0.0002713	93.2650001049
1440.0	0.0002728	93.2969999313
1440.0	0.000274	93.3429999352
1440.0	0.0002753	93.3900001049
1440.0	0.0002755	93.4219999313
1440.0	0.0002745	93.4679999352
1440.0	0.0002745	93.5
1440.0	0.0002753	93.5469999313
1440.0	0.0002753	93.5929999352
1440.0	0.0002753	93.625
1440.0	0.0002765	93.6719999313
1440.0	0.000277	93.7179999352
1440.0	0.0002768	93.75
1440.0	0.0002768	93.7969999313
1440.0	0.0002765	93.8429999352
1440.0	0.0002768	93.875
1440.0	0.000277	93.9219999313
1440.0	0.0002765	93.9679999352
1440.0	0.0002763	94.0
1440.0	0.0002753	94.0469999313
1440.0	0.0002743	94.0929999352
1450.0	0.0002755	94.3589999676
1450.0	0.0002755	94.3900001049
1450.0	0.0002768	94.4370000362
1450.0	0.0002783	94.4839999676
1450.0	0.0002808	94.5150001049
1450.0	0.0002825	94.5620000362
1450.0	0.000285	94.5929999352
1450.0	0.0002865	94.6400001049
1450.0	0.0002845	94.6870000362
1450.0	0.0002833	94.7179999352
1450.0	0.0002828	94.7650001049
1450.0	0.000284	94.8120000362
1450.0	0.0002843	94.8429999352
1450.0	0.0002853	94.8900001049
1450.0	0.0002855	94.9219999313
1450.0	0.0002843	94.9679999352
1450.0	0.0002843	95.0150001049
1450.0	0.000285	95.0469999313
1450.0	0.0002845	95.0929999352
1450.0	0.0002845	95.1400001049
1450.0	0.0002858	95.1719999313
1450.0	0.0002853	95.2339999676
1450.0	0.0002843	95.2650001049
1450.0	0.000283	95.3120000362
1450.0	0.0002813	95.3589999676
1450.0	0.0002805	95.3900001049
1450.0	0.0002813	95.4370000362
1450.0	0.0002805	95.4679999352
1450.0	0.0002805	95.5150001049
1450.0	0.0002813	95.5620000362
1450.0	0.0002813	95.5929999352
1450.0	0.0002813	95.6400001049
1450.0	0.0002813	95.6870000362
1450.0	0.0002815	95.7179999352
1450.0	0.000282	95.7650001049
1450.0	0.0002825	95.8120000362
1460.0	0.000284	96.0780000687
1460.0	0.0002853	96.1089999676
1460.0	0.0002853	96.1560001373
1460.0	0.0002855	96.2030000687
1460.0	0.0002843	96.2339999676
1460.0	0.0002838	96.2810001373
1460.0	0.0002845	96.3280000687
1460.0	0.0002853	96.3589999676
1460.0	0.000285	96.4060001373
1460.0	0.000284	96.4370000362
1460.0	0.0002838	96.4839999676
1460.0	0.0002853	96.5310001373
1460.0	0.000285	96.5620000362
1460.0	0.0002845	96.6089999676
1460.0	0.0002855	96.6560001373
1460.0	0.0002853	96.6870000362
1460.0	0.0002855	96.7339999676
1460.0	0.0002868	96.7650001049
1460.0	0.0002875	96.8120000362
1460.0	0.0002878	96.8589999676
1460.0	0.000288	96.8900001049
1460.0	0.0002883	96.9370000362
1460.0	0.000289	96.9839999676
1460.0	0.0002895	97.0150001049
1460.0	0.00029	97.0620000362
1460.0	0.0002905	97.1089999676
1460.0	0.0002905	97.1400001049
1460.0	0.00029	97.1870000362
1460.0	0.0002883	97.2339999676
1460.0	0.000287	97.2650001049
1460.0	0.0002868	97.3120000362
1460.0	0.0002875	97.3589999676
1460.0	0.0002875	97.3900001049
1460.0	0.0002875	97.4370000362
1460.0	0.0002865	97.4679999352
1460.0	0.0002853	97.5150001049
1460.0	0.000285	97.5620000362
1470.0	0.0002895	97.8280000687
1470.0	0.0002913	97.875
1470.0	0.0002905	97.9060001373
1470.0	0.00029	97.9530000687
1470.0	0.0002893	98.0
1470.0	0.0002893	98.0310001373
1470.0	0.0002888	98.0780000687
1470.0	0.0002895	98.125
1470.0	0.00029	98.1560001373
1470.0	0.0002888	98.2030000687
1470.0	0.000288	98.25
1470.0	0.0002868	98.2810001373
1470.0	0.0002845	98.3280000687
1470.0	0.0002838	98.3589999676
1470.0	0.000284	98.4060001373
1470.0	0.0002845	98.4530000687
1470.0	0.0002853	98.4839999676
1470.0	0.0002855	98.5310001373
1470.0	0.0002855	98.5780000687
1470.0	0.0002855	98.6089999676
1470.0	0.0002865	98.6560001373
1470.0	0.0002875	98.6870000362
1470.0	0.0002868	98.7339999676
1470.0	0.0002858	98.7810001373
1470.0	0.0002845	98.8120000362
1470.0	0.0002855	98.8589999676
1470.0	0.0002868	98.9060001373
1470.0	0.000289	98.9370000362
1470.0	0.0002903	98.9839999676
1470.0	0.0002905	99.0310001373
1470.0	0.00029	99.0620000362
1470.0	0.0002878	99.1089999676
1470.0	0.000285	99.1400001049
1470.0	0.0002838	99.1870000362
1470.0	0.0002843	99.2339999676
1470.0	0.0002863	99.2650001049
1470.0	0.0002868	99.3120000362
1480.0	0.0002908	99.5780000687
1480.0	0.0002915	99.625
1480.0	0.0002918	99.6719999313
1480.0	0.0002918	99.7030000687
1480.0	0.0002908	99.75
1480.0	0.00029	99.7810001373
1480.0	0.0002893	99.8280000687
1480.0	0.0002895	99.875
1480.0	0.0002903	99.9060001373
1480.0	0.00029	99.9530000687
1480.0	0.0002893	100.0
1480.0	0.00029	100.031000137
1480.0	0.0002893	100.078000069
1480.0	0.0002888	100.108999968
1480.0	0.0002893	100.156000137
1480.0	0.0002895	100.203000069
1480.0	0.0002888	100.25
1480.0	0.0002893	100.281000137
1480.0	0.0002895	100.328000069
1480.0	0.0002888	100.358999968
1480.0	0.000288	100.406000137
1480.0	0.000287	100.453000069
1480.0	0.0002863	100.483999968
1480.0	0.0002863	100.531000137
1480.0	0.0002868	100.578000069
1480.0	0.000287	100.608999968
1480.0	0.000288	100.656000137
1480.0	0.0002878	100.703000069
1480.0	0.0002875	100.733999968
1480.0	0.000287	100.781000137
1480.0	0.0002875	100.812000036
1480.0	0.000288	100.858999968
1480.0	0.000287	100.906000137
1480.0	0.0002855	100.937000036
1480.0	0.0002858	100.983999968
1480.0	0.0002865	101.031000137
1480.0	0.0002878	101.062000036
1490.0	0.0002915	101.342999935
1490.0	0.0002925	101.375
1490.0	0.0002938	101.421999931
1490.0	0.000294	101.453000069
1490.0	0.0002933	101.5
1490.0	0.000293	101.546999931
1490.0	0.000292	101.592999935
1490.0	0.0002913	101.625
1490.0	0.0002913	101.671999931
1490.0	0.0002915	101.703000069
1490.0	0.0002918	101.75
1490.0	0.000292	101.796999931
1490.0	0.0002915	101.828000069
1490.0	0.00029	101.875
1490.0	0.0002893	101.921999931
1490.0	0.0002888	101.953000069
1490.0	0.0002893	102.0
1490.0	0.0002913	102.031000137
1490.0	0.0002925	102.078000069
1490.0	0.0002933	102.125
1490.0	0.000294	102.156000137
1490.0	0.0002938	102.203000069
1490.0	0.0002913	102.25
1490.0	0.0002893	102.281000137
1490.0	0.0002895	102.328000069
1490.0	0.000289	102.358999968
1490.0	0.0002893	102.406000137
1490.0	0.0002915	102.453000069
1490.0	0.0002933	102.5
1490.0	0.0002938	102.531000137
1490.0	0.000293	102.578000069
1490.0	0.000292	102.625
1490.0	0.0002915	102.656000137
1490.0	0.0002905	102.703000069
1490.0	0.00029	102.733999968
1490.0	0.0002888	102.781000137
1490.0	0.0002883	102.828000069
1500.0	0.0002863	103.092999935
1500.0	0.0002863	103.140000105
1500.0	0.000287	103.171999931
1500.0	0.0002875	103.217999935
1500.0	0.000288	103.265000105
1500.0	0.0002903	103.296999931
1500.0	0.0002915	103.342999935
1500.0	0.0002913	103.390000105
1500.0	0.0002913	103.421999931
1500.0	0.0002903	103.467999935
1500.0	0.0002888	103.515000105
1500.0	0.0002883	103.546999931
1500.0	0.000288	103.592999935
1500.0	0.0002888	103.625
1500.0	0.00029	103.671999931
1500.0	0.0002903	103.717999935
1500.0	0.0002905	103.75
1500.0	0.0002913	103.796999931
1500.0	0.0002908	103.842999935
1500.0	0.0002905	103.875
1500.0	0.0002908	103.921999931
1500.0	0.000293	103.953000069
1500.0	0.000293	104.0
1500.0	0.0002918	104.046999931
1500.0	0.0002913	104.092999935
1500.0	0.0002908	104.125
1500.0	0.0002905	104.171999931
1500.0	0.0002903	104.203000069
1500.0	0.000289	104.25
1500.0	0.000288	104.296999931
1500.0	0.0002878	104.328000069
1500.0	0.0002878	104.375
1500.0	0.0002878	104.421999931
1500.0	0.000289	104.453000069
1500.0	0.0002893	104.5
1500.0	0.0002893	104.546999931
1510.0	0.000292	104.812000036
1510.0	0.0002918	104.858999968
1510.0	0.000292	104.890000105
1510.0	0.0002913	104.937000036
1510.0	0.0002903	104.983999968
1510.0	0.0002893	105.015000105
1510.0	0.0002893	105.062000036
1510.0	0.0002895	105.108999968
1510.0	0.0002893	105.140000105
1510.0	0.00029	105.187000036
1510.0	0.0002905	105.233999968
1510.0	0.0002908	105.265000105
1510.0	0.0002908	105.312000036
1510.0	0.0002895	105.358999968
1510.0	0.00029	105.390000105
1510.0	0.0002893	105.437000036
1510.0	0.0002883	105.467999935
1510.0	0.0002878	105.515000105
1510.0	0.0002883	105.562000036
1510.0	0.0002883	105.592999935
1510.0	0.0002888	105.640000105
1510.0	0.0002895	105.687000036
1510.0	0.0002888	105.717999935
1510.0	0.000288	105.765000105
1510.0	0.0002875	105.812000036
1510.0	0.0002868	105.842999935
1510.0	0.000288	105.890000105
1510.0	0.0002908	105.921999931
1510.0	0.0002918	105.967999935
1510.0	0.0002915	106.015000105
1510.0	0.0002915	106.062000036
1510.0	0.0002913	106.092999935
1510.0	0.0002913	106.140000105
1510.0	0.0002913	106.171999931
1510.0	0.0002908	106.217999935
1510.0	0.0002905	106.265000105
1520.0	0.0002888	106.531000137
1520.0	0.0002883	106.578000069
1520.0	0.0002878	106.625
1520.0	0.000287	106.656000137
1520.0	0.0002878	106.703000069
1520.0	0.0002883	106.733999968
1520.0	0.000288	106.781000137
1520.0	0.000287	106.828000069
1520.0	0.0002875	106.858999968
1520.0	0.0002888	106.906000137
1520.0	0.0002893	106.953000069
1520.0	0.000288	106.983999968
1520.0	0.0002875	107.031000137
1520.0	0.0002863	107.062000036
1520.0	0.0002863	107.108999968
1520.0	0.0002878	107.156000137
1520.0	0.0002883	107.187000036
1520.0	0.000288	107.233999968
1520.0	0.0002878	107.281000137
1520.0	0.0002875	107.312000036
1520.0	0.0002868	107.358999968
1520.0	0.0002853	107.406000137
1520.0	0.0002843	107.437000036
1520.0	0.0002843	107.483999968
1520.0	0.0002838	107.515000105
1520.0	0.0002833	107.562000036
1520.0	0.0002843	107.608999968
1520.0	0.0002853	107.640000105
1520.0	0.000285	107.687000036
1520.0	0.0002863	107.733999968
1520.0	0.0002868	107.765000105
1520.0	0.0002868	107.812000036
1520.0	0.000287	107.858999968
1520.0	0.0002865	107.890000105
1520.0	0.0002858	107.937000036
1520.0	0.000285	107.983999968
1520.0	0.0002838	108.015000105
1530.0	0.000285	108.296999931
1530.0	0.0002845	108.328000069
1530.0	0.0002853	108.375
1530.0	0.0002858	108.421999931
1530.0	0.0002845	108.453000069
1530.0	0.000283	108.5
1530.0	0.000282	108.546999931
1530.0	0.0002813	108.578000069
1530.0	0.0002803	108.625
1530.0	0.00028	108.656000137
1530.0	0.0002793	108.703000069
1530.0	0.0002788	108.75
1530.0	0.0002793	108.781000137
1530.0	0.0002803	108.828000069
1530.0	0.0002808	108.875
1530.0	0.0002818	108.906000137
1530.0	0.0002825	108.953000069
1530.0	0.000284	108.983999968
1530.0	0.000284	109.031000137
1530.0	0.0002843	109.078000069
1530.0	0.0002845	109.108999968
1530.0	0.000285	109.156000137
1530.0	0.0002858	109.203000069
1530.0	0.000288	109.233999968
1530.0	0.0002888	109.281000137
1530.0	0.0002875	109.328000069
1530.0	0.0002858	109.358999968
1530.0	0.0002843	109.406000137
1530.0	0.000284	109.437000036
1530.0	0.0002855	109.483999968
1530.0	0.0002863	109.531000137
1530.0	0.0002858	109.562000036
1530.0	0.0002855	109.608999968
1530.0	0.0002845	109.656000137
1530.0	0.000284	109.687000036
1530.0	0.0002825	109.733999968
1530.0	0.0002818	109.781000137
1540.0	0.0002855	110.046999931
1540.0	0.0002838	110.092999935
1540.0	0.0002825	110.140000105
1540.0	0.000282	110.171999931
1540.0	0.0002805	110.217999935
1540.0	0.0002808	110.25
1540.0	0.0002825	110.296999931
1540.0	0.000283	110.342999935
1540.0	0.0002838	110.375
1540.0	0.000283	110.421999931
1540.0	0.0002818	110.467999935
1540.0	0.0002818	110.5
1540.0	0.0002825	110.546999931
1540.0	0.0002825	110.578000069
1540.0	0.0002828	110.625
1540.0	0.000283	110.671999931
1540.0	0.000283	110.703000069
1540.0	0.0002828	110.75
1540.0	0.0002833	110.796999931
1540.0	0.0002833	110.828000069
1540.0	0.0002825	110.875
1540.0	0.000282	110.921999931
1540.0	0.0002815	110.953000069
1540.0	0.0002808	111.0
1540.0	0.0002803	111.046999931
1540.0	0.0002803	111.078000069
1540.0	0.0002803	111.125
1540.0	0.0002805	111.171999931
1540.0	0.0002815	111.203000069
1540.0	0.000282	111.25
1540.0	0.0002818	111.281000137
1540.0	0.0002825	111.328000069
1540.0	0.0002833	111.375
1540.0	0.0002845	111.406000137
1540.0	0.0002855	111.453000069
1540.0	0.0002838	111.5
1540.0	0.0002815	111.531000137
1550.0	0.000282	111.812000036
1550.0	0.0002818	111.842999935
1550.0	0.0002818	111.890000105
1550.0	0.0002815	111.937000036
1550.0	0.0002815	111.967999935
1550.0	0.0002818	112.015000105
1550.0	0.000282	112.062000036
1550.0	0.0002803	112.092999935
1550.0	0.0002793	112.140000105
1550.0	0.0002795	112.171999931
1550.0	0.0002788	112.217999935
1550.0	0.00028	112.265000105
1550.0	0.0002813	112.296999931
1550.0	0.0002813	112.342999935
1550.0	0.0002813	112.390000105
1550.0	0.0002813	112.421999931
1550.0	0.0002813	112.467999935
1550.0	0.0002805	112.515000105
1550.0	0.00028	112.546999931
1550.0	0.000279	112.592999935
1550.0	0.000278	112.640000105
1550.0	0.000278	112.671999931
1550.0	0.000278	112.717999935
1550.0	0.0002768	112.765000105
1550.0	0.0002765	112.796999931
1550.0	0.0002763	112.842999935
1550.0	0.0002753	112.875
1550.0	0.0002745	112.921999931
1550.0	0.000274	112.967999935
1550.0	0.0002743	113.0
1550.0	0.0002755	113.046999931
1550.0	0.0002765	113.092999935
1550.0	0.000277	113.125
1550.0	0.0002778	113.171999931
1550.0	0.000274	113.467999935
1560.0	0.0002733	113.733999968
1560.0	0.0002745	113.781000137
1560.0	0.0002755	113.828000069
1560.0	0.0002763	113.875
1560.0	0.000275	113.906000137
1560.0	0.0002738	113.953000069
1560.0	0.0002725	113.983999968
1560.0	0.0002718	114.031000137
1560.0	0.0002718	114.078000069
1560.0	0.0002703	114.108999968
1560.0	0.0002705	114.156000137
1560.0	0.0002718	114.203000069
1560.0	0.0002718	114.233999968
1560.0	0.000273	114.281000137
1560.0	0.0002745	114.328000069
1560.0	0.000275	114.358999968
1560.0	0.000275	114.406000137
1560.0	0.0002753	114.453000069
1560.0	0.0002755	114.483999968
1560.0	0.0002753	114.531000137
1560.0	0.000275	114.562000036
1560.0	0.0002745	114.608999968
1560.0	0.000275	114.656000137
1560.0	0.000275	114.687000036
1560.0	0.0002753	114.733999968
1560.0	0.0002738	114.781000137
1560.0	0.000274	114.812000036
1560.0	0.0002733	114.858999968
1560.0	0.000273	114.906000137
1560.0	0.0002738	114.937000036
1560.0	0.0002728	114.983999968
1560.0	0.0002715	115.015000105
1560.0	0.0002725	115.062000036
1560.0	0.0002738	115.108999968
1560.0	0.0002743	115.140000105
1560.0	0.0002745	115.187000036
1560.0	0.0002738	115.233999968
1570.0	0.0002728	115.515000105
1570.0	0.0002725	115.546999931
1570.0	0.0002725	115.592999935
1570.0	0.000272	115.640000105
1570.0	0.000272	115.671999931
1570.0	0.000273	115.717999935
1570.0	0.000273	115.75
1570.0	0.0002725	115.796999931
1570.0	0.0002713	115.842999935
1570.0	0.00027	115.875
1570.0	0.0002693	115.921999931
1570.0	0.0002693	115.967999935
1570.0	0.0002705	116.0
1570.0	0.000272	116.046999931
1570.0	0.0002733	116.092999935
1570.0	0.0002725	116.140000105
1570.0	0.0002718	116.171999931
1570.0	0.0002715	116.217999935
1570.0	0.0002708	116.25
1570.0	0.0002695	116.296999931
1570.0	0.0002688	116.342999935
1570.0	0.0002678	116.375
1570.0	0.0002678	116.421999931
1570.0	0.000267	116.467999935
1570.0	0.000267	116.5
1570.0	0.0002668	116.546999931
1570.0	0.0002658	116.592999935
1570.0	0.0002663	116.625
1570.0	0.0002658	116.671999931
1570.0	0.0002663	116.703000069
1570.0	0.0002668	116.75
1570.0	0.0002668	116.796999931
1570.0	0.0002668	116.842999935
1570.0	0.0002665	116.875
1570.0	0.0002665	116.921999931
1570.0	0.0002663	116.953000069
1580.0	0.000267	117.233999968
1580.0	0.0002663	117.281000137
1580.0	0.0002658	117.312000036
1580.0	0.0002653	117.358999968
1580.0	0.000265	117.406000137
1580.0	0.000264	117.437000036
1580.0	0.0002638	117.483999968
1580.0	0.000263	117.515000105
1580.0	0.0002625	117.562000036
1580.0	0.0002618	117.608999968
1580.0	0.0002618	117.640000105
1580.0	0.0002605	117.687000036
1580.0	0.0002603	117.733999968
1580.0	0.0002608	117.765000105
1580.0	0.000262	117.812000036
1580.0	0.000263	117.858999968
1580.0	0.0002643	117.890000105
1580.0	0.0002655	117.937000036
1580.0	0.000268	117.983999968
1580.0	0.0002695	118.015000105
1580.0	0.0002695	118.062000036
1580.0	0.00027	118.108999968
1580.0	0.00027	118.140000105
1580.0	0.00027	118.187000036
1580.0	0.00027	118.233999968
1580.0	0.0002695	118.265000105
1580.0	0.0002693	118.312000036
1580.0	0.0002688	118.358999968
1580.0	0.000267	118.390000105
1580.0	0.000265	118.437000036
1580.0	0.000264	118.467999935
1580.0	0.0002638	118.515000105
1580.0	0.0002653	118.562000036
1580.0	0.0002663	118.592999935
1580.0	0.0002668	118.640000105
1580.0	0.0002655	118.687000036
1590.0	0.0002658	118.953000069
1590.0	0.0002638	119.0
1590.0	0.000262	119.031000137
1590.0	0.0002615	119.078000069
1590.0	0.0002608	119.125
1590.0	0.0002603	119.156000137
1590.0	0.00026	119.203000069
1590.0	0.0002595	119.25
1590.0	0.0002583	119.281000137
1590.0	0.0002578	119.328000069
1590.0	0.0002588	119.375
1590.0	0.000258	119.406000137
1590.0	0.0002575	119.453000069
1590.0	0.000258	119.483999968
1590.0	0.0002593	119.531000137
1590.0	0.0002608	119.578000069
1590.0	0.0002615	119.608999968
1590.0	0.0002615	119.656000137
1590.0	0.0002615	119.703000069
1590.0	0.0002615	119.733999968
1590.0	0.0002608	119.781000137
1590.0	0.0002593	119.812000036
1590.0	0.0002583	119.858999968
1590.0	0.0002583	119.906000137
1590.0	0.0002575	119.937000036
1590.0	0.0002568	119.983999968
1590.0	0.0002565	120.031000137
1590.0	0.000255	120.062000036
1590.0	0.0002545	120.108999968
1590.0	0.000254	120.156000137
1590.0	0.000254	120.187000036
1590.0	0.000253	120.233999968
1590.0	0.0002513	120.281000137
1590.0	0.0002518	120.312000036
1590.0	0.0002533	120.358999968
1590.0	0.0002558	120.390000105
1590.0	0.000258	120.437000036
1600.0	0.0002538	120.717999935
1600.0	0.000254	120.75
1600.0	0.0002543	120.796999931
1600.0	0.000255	120.842999935
1600.0	0.0002555	120.875
1600.0	0.0002563	120.921999931
1600.0	0.0002565	120.953000069
1600.0	0.000255	121.0
1600.0	0.0002528	121.046999931
1600.0	0.0002515	121.078000069
1600.0	0.0002505	121.125
1600.0	0.0002505	121.171999931
1600.0	0.0002505	121.203000069
1600.0	0.00025	121.25
1600.0	0.00025	121.281000137
1600.0	0.0002503	121.328000069
1600.0	0.0002505	121.375
1600.0	0.0002515	121.406000137
1600.0	0.0002525	121.453000069
1600.0	0.0002518	121.5
1600.0	0.000252	121.531000137
1600.0	0.0002508	121.578000069
1600.0	0.0002513	121.625
1600.0	0.0002508	121.656000137
1600.0	0.0002503	121.703000069
1600.0	0.0002503	121.733999968
1600.0	0.0002515	121.781000137
1600.0	0.0002513	121.828000069
1600.0	0.0002508	121.875
1600.0	0.0002508	121.906000137
1600.0	0.0002513	121.953000069
1600.0	0.0002518	121.983999968
1600.0	0.000252	122.031000137
1600.0	0.0002513	122.078000069
1600.0	0.0002508	122.108999968
1600.0	0.0002518	122.156000137
1600.0	0.0002518	122.203000069
1610.0	0.0002475	122.483999968
1610.0	0.000245	122.515000105
1610.0	0.0002433	122.562000036
1610.0	0.0002428	122.592999935
1610.0	0.0002425	122.640000105
1610.0	0.000243	122.687000036
1610.0	0.0002433	122.717999935
1610.0	0.0002418	122.765000105
1610.0	0.0002405	122.812000036
1610.0	0.0002403	122.842999935
1610.0	0.0002393	122.890000105
1610.0	0.0002393	122.921999931
1610.0	0.0002405	122.967999935
1610.0	0.0002425	123.015000105
1610.0	0.000243	123.046999931
1610.0	0.0002433	123.092999935
1610.0	0.0002438	123.140000105
1610.0	0.0002438	123.171999931
1610.0	0.0002438	123.217999935
1610.0	0.0002428	123.265000105
1610.0	0.0002425	123.296999931
1610.0	0.000243	123.342999935
1610.0	0.0002443	123.390000105
1610.0	0.000245	123.421999931
1610.0	0.0002455	123.467999935
1610.0	0.0002445	123.5
1610.0	0.000243	123.546999931
1610.0	0.0002415	123.592999935
1610.0	0.0002418	123.640000105
1610.0	0.0002418	123.671999931
1610.0	0.000242	123.717999935
1610.0	0.0002415	123.75
1610.0	0.0002413	123.796999931
1610.0	0.0002415	123.842999935
1610.0	0.0002418	123.875
1610.0	0.0002415	123.921999931
1610.0	0.0002403	123.967999935
1620.0	0.0002413	124.25
1620.0	0.00024	124.281000137
1620.0	0.0002388	124.328000069
1620.0	0.0002378	124.358999968
1620.0	0.0002375	124.406000137
1620.0	0.0002368	124.453000069
1620.0	0.0002365	124.483999968
1620.0	0.000235	124.531000137
1620.0	0.000234	124.578000069
1620.0	0.0002328	124.608999968
1620.0	0.0002325	124.656000137
1620.0	0.0002325	124.687000036
1620.0	0.0002328	124.733999968
1620.0	0.0002338	124.781000137
1620.0	0.0002338	124.812000036
1620.0	0.0002338	124.858999968
1620.0	0.000233	124.906000137
1620.0	0.000232	124.937000036
1620.0	0.0002328	124.983999968
1620.0	0.000233	125.031000137
1620.0	0.0002328	125.062000036
1620.0	0.000233	125.108999968
1620.0	0.0002333	125.156000137
1620.0	0.0002333	125.187000036
1620.0	0.0002338	125.233999968
1620.0	0.0002353	125.281000137
1620.0	0.0002363	125.312000036
1620.0	0.000238	125.358999968
1620.0	0.0002383	125.390000105
1620.0	0.000238	125.437000036
1620.0	0.0002375	125.483999968
1620.0	0.0002358	125.515000105
1620.0	0.000235	125.562000036
1620.0	0.0002345	125.608999968
1620.0	0.0002353	125.640000105
1620.0	0.0002358	125.687000036
1620.0	0.0002368	125.733999968
1630.0	0.0002353	126.015000105
1630.0	0.000233	126.046999931
1630.0	0.0002315	126.092999935
1630.0	0.0002295	126.140000105
1630.0	0.000228	126.171999931
1630.0	0.0002278	126.217999935
1630.0	0.000227	126.265000105
1630.0	0.0002263	126.296999931
1630.0	0.0002243	126.342999935
1630.0	0.0002233	126.375
1630.0	0.0002245	126.421999931
1630.0	0.000225	126.467999935
1630.0	0.0002245	126.5
1630.0	0.0002253	126.546999931
1630.0	0.000225	126.592999935
1630.0	0.0002245	126.625
1630.0	0.0002238	126.671999931
1630.0	0.000223	126.703000069
1630.0	0.0002225	126.75
1630.0	0.0002228	126.796999931
1630.0	0.000223	126.828000069
1630.0	0.000222	126.875
1630.0	0.0002228	126.921999931
1630.0	0.000224	126.953000069
1630.0	0.0002243	127.0
1630.0	0.0002238	127.046999931
1630.0	0.0002243	127.078000069
1630.0	0.0002258	127.125
1630.0	0.0002265	127.171999931
1630.0	0.0002263	127.203000069
1630.0	0.0002253	127.25
1630.0	0.0002243	127.296999931
1630.0	0.000224	127.328000069
1630.0	0.0002253	127.375
1630.0	0.0002263	127.406000137
1630.0	0.0002263	127.453000069
1630.0	0.0002255	127.5
1640.0	0.00022	127.781000137
1640.0	0.000217	127.812000036
1640.0	0.0002163	127.858999968
1640.0	0.0002145	127.906000137
1640.0	0.0002133	127.937000036
1640.0	0.0002125	127.983999968
1640.0	0.000212	128.031000137
1640.0	0.000212	128.062000036
1640.0	0.000213	128.108999968
1640.0	0.0002138	128.156000137
1640.0	0.000213	128.187000036
1640.0	0.000214	128.233999968
1640.0	0.0002145	128.281000137
1640.0	0.000214	128.312000036
1640.0	0.000214	128.358999968
1640.0	0.0002138	128.406000137
1640.0	0.0002138	128.437000036
1640.0	0.000214	128.483999968
1640.0	0.0002153	128.515000105
1640.0	0.0002155	128.562000036
1640.0	0.0002158	128.608999968
1640.0	0.0002145	128.640000105
1640.0	0.0002143	128.687000036
1640.0	0.0002138	128.733999968
1640.0	0.0002125	128.765000105
1640.0	0.000212	128.812000036
1640.0	0.0002115	128.842999935
1640.0	0.0002115	128.890000105
1640.0	0.0002103	128.937000036
1640.0	0.0002083	128.967999935
1640.0	0.0002078	129.015000105
1640.0	0.000209	129.062000036
1640.0	0.0002105	129.092999935
1640.0	0.0002125	129.140000105
1640.0	0.0002133	129.187000036
1640.0	0.0002145	129.217999935
1640.0	0.0002153	129.265000105
1650.0	0.000213	129.546999931
1650.0	0.0002128	129.578000069
1650.0	0.0002125	129.625
1650.0	0.0002113	129.671999931
1650.0	0.00021	129.703000069
1650.0	0.0002078	129.75
1650.0	0.0002058	129.796999931
1650.0	0.0002045	129.828000069
1650.0	0.0002025	129.875
1650.0	0.0002013	129.906000137
1650.0	0.0002018	129.953000069
1650.0	0.0002028	130.0
1650.0	0.0002028	130.031000137
1650.0	0.0002028	130.078000069
1650.0	0.0002033	130.125
1650.0	0.0002038	130.156000137
1650.0	0.000203	130.203000069
1650.0	0.0002028	130.25
1650.0	0.000203	130.281000137
1650.0	0.0002043	130.328000069
1650.0	0.0002045	130.358999968
1650.0	0.0002045	130.406000137
1650.0	0.0002043	130.453000069
1650.0	0.0002045	130.483999968
1650.0	0.000204	130.531000137
1650.0	0.000204	130.578000069
1650.0	0.0002028	130.608999968
1650.0	0.0002015	130.656000137
1650.0	0.0002015	130.687000036
1650.0	0.0002013	130.733999968
1650.0	0.0002025	130.781000137
1650.0	0.0002028	130.812000036
1650.0	0.0002033	130.858999968
1650.0	0.0002028	130.906000137
1650.0	0.0002018	130.937000036
1650.0	0.0002025	130.983999968
1650.0	0.0002038	131.031000137
1660.0	0.0001993	131.312000036
1660.0	0.0001993	131.342999935
1660.0	0.0001988	131.390000105
1660.0	0.000198	131.421999931
1660.0	0.0001968	131.467999935
1660.0	0.000195	131.515000105
1660.0	0.0001918	131.562000036
1660.0	0.0001905	131.592999935
1660.0	0.000189	131.640000105
1660.0	0.0001888	131.687000036
1660.0	0.0001888	131.717999935
1660.0	0.0001883	131.765000105
1660.0	0.0001878	131.796999931
1660.0	0.0001888	131.842999935
1660.0	0.0001895	131.890000105
1660.0	0.0001905	131.921999931
1660.0	0.00019	131.967999935
1660.0	0.000189	132.015000105
1660.0	0.000188	132.046999931
1660.0	0.000188	132.092999935
1660.0	0.0001893	132.125
1660.0	0.0001908	132.171999931
1660.0	0.0001925	132.217999935
1660.0	0.0001938	132.25
1660.0	0.000193	132.296999931
1660.0	0.0001915	132.342999935
1660.0	0.0001913	132.375
1660.0	0.0001908	132.421999931
1660.0	0.0001893	132.467999935
1660.0	0.000189	132.5
1660.0	0.0001878	132.546999931
1660.0	0.0001868	132.592999935
1660.0	0.000187	132.625
1660.0	0.0001868	132.671999931
1660.0	0.000187	132.703000069
1660.0	0.0001888	132.75
1660.0	0.00019	132.796999931
1670.0	0.000185	133.078000069
1670.0	0.0001833	133.125
1670.0	0.000183	133.156000137
1670.0	0.0001838	133.203000069
1670.0	0.000185	133.233999968
1670.0	0.0001853	133.281000137
1670.0	0.0001838	133.328000069
1670.0	0.0001833	133.375
1670.0	0.0001833	133.406000137
1670.0	0.000183	133.453000069
1670.0	0.0001825	133.483999968
1670.0	0.0001818	133.531000137
1670.0	0.0001815	133.578000069
1670.0	0.0001808	133.608999968
1670.0	0.0001813	133.656000137
1670.0	0.0001828	133.703000069
1670.0	0.000184	133.733999968
1670.0	0.0001845	133.781000137
1670.0	0.0001855	133.828000069
1670.0	0.0001858	133.858999968
1670.0	0.0001863	133.906000137
1670.0	0.0001863	133.953000069
1670.0	0.0001868	133.983999968
1670.0	0.0001868	134.031000137
1670.0	0.0001855	134.078000069
1670.0	0.0001853	134.108999968
1670.0	0.0001843	134.156000137
1670.0	0.0001843	134.187000036
1670.0	0.0001845	134.233999968
1670.0	0.0001853	134.281000137
1670.0	0.0001855	134.328000069
1670.0	0.000185	134.358999968
1670.0	0.0001855	134.406000137
1670.0	0.0001863	134.453000069
1670.0	0.0001855	134.483999968
1670.0	0.000184	134.531000137
1680.0	0.000179	134.812000036
1680.0	0.0001775	134.858999968
1680.0	0.0001758	134.906000137
1680.0	0.0001743	134.937000036
1680.0	0.0001738	134.983999968
1680.0	0.000173	135.031000137
1680.0	0.000174	135.062000036
1680.0	0.0001753	135.108999968
1680.0	0.0001753	135.140000105
1680.0	0.000175	135.187000036
1680.0	0.0001743	135.233999968
1680.0	0.0001743	135.281000137
1680.0	0.000175	135.312000036
1680.0	0.0001745	135.358999968
1680.0	0.0001738	135.390000105
1680.0	0.0001725	135.437000036
1680.0	0.0001713	135.483999968
1680.0	0.0001713	135.515000105
1680.0	0.0001715	135.562000036
1680.0	0.0001715	135.608999968
1680.0	0.0001718	135.656000137
1680.0	0.0001713	135.687000036
1680.0	0.0001713	135.733999968
1680.0	0.0001725	135.765000105
1680.0	0.0001725	135.812000036
1680.0	0.0001718	135.858999968
1680.0	0.0001715	135.890000105
1680.0	0.000172	135.937000036
1680.0	0.0001715	135.983999968
1680.0	0.0001708	136.015000105
1680.0	0.0001703	136.062000036
1680.0	0.0001703	136.108999968
1680.0	0.0001705	136.140000105
1680.0	0.0001713	136.187000036
1680.0	0.0001725	136.233999968
1680.0	0.000174	136.265000105
1680.0	0.0001758	136.312000036
1690.0	0.0001708	136.592999935
1690.0	0.000167	136.640000105
1690.0	0.000165	136.671999931
1690.0	0.0001625	136.717999935
1690.0	0.0001613	136.765000105
1690.0	0.0001605	136.796999931
1690.0	0.0001613	136.842999935
1690.0	0.000162	136.890000105
1690.0	0.0001638	136.921999931
1690.0	0.0001645	136.967999935
1690.0	0.0001655	137.0
1690.0	0.0001645	137.046999931
1690.0	0.0001633	137.092999935
1690.0	0.0001618	137.125
1690.0	0.0001615	137.171999931
1690.0	0.0001615	137.217999935
1690.0	0.0001613	137.265000105
1690.0	0.0001603	137.296999931
1690.0	0.0001605	137.342999935
1690.0	0.0001613	137.375
1690.0	0.0001618	137.421999931
1690.0	0.0001633	137.467999935
1690.0	0.0001643	137.5
1690.0	0.0001643	137.546999931
1690.0	0.0001653	137.592999935
1690.0	0.0001658	137.625
1690.0	0.0001658	137.671999931
1690.0	0.0001653	137.717999935
1690.0	0.000165	137.75
1690.0	0.000164	137.796999931
1690.0	0.0001628	137.842999935
1690.0	0.0001615	137.875
1690.0	0.00016	137.921999931
1690.0	0.0001605	137.953000069
1690.0	0.0001613	138.0
1690.0	0.0001613	138.046999931
1700.0	0.000159	138.328000069
1700.0	0.0001583	138.375
1700.0	0.0001575	138.406000137
1700.0	0.0001565	138.453000069
1700.0	0.0001553	138.5
1700.0	0.0001553	138.531000137
1700.0	0.0001555	138.578000069
1700.0	0.0001565	138.625
1700.0	0.000157	138.656000137
1700.0	0.0001575	138.703000069
1700.0	0.0001565	138.733999968
1700.0	0.0001568	138.781000137
1700.0	0.000158	138.828000069
1700.0	0.0001593	138.858999968
1700.0	0.0001593	138.906000137
1700.0	0.0001595	138.953000069
1700.0	0.0001595	138.983999968
1700.0	0.0001593	139.031000137
1700.0	0.0001595	139.062000036
1700.0	0.0001593	139.108999968
1700.0	0.0001595	139.156000137
1700.0	0.0001605	139.187000036
1700.0	0.0001595	139.233999968
1700.0	0.000159	139.281000137
1700.0	0.0001595	139.312000036
1700.0	0.0001595	139.358999968
1700.0	0.0001595	139.390000105
1700.0	0.0001588	139.437000036
1700.0	0.0001583	139.483999968
1700.0	0.0001583	139.515000105
1700.0	0.0001588	139.562000036
1700.0	0.0001588	139.608999968
1700.0	0.000158	139.640000105
1700.0	0.0001578	139.687000036
1700.0	0.0001588	139.733999968
1700.0	0.0001583	139.765000105
1700.0	0.0001578	139.812000036
1710.0	0.0001495	140.092999935
1710.0	0.0001475	140.140000105
1710.0	0.0001465	140.171999931
1710.0	0.0001465	140.217999935
1710.0	0.0001475	140.265000105
1710.0	0.0001488	140.296999931
1710.0	0.0001495	140.342999935
1710.0	0.0001508	140.390000105
1710.0	0.0001525	140.421999931
1710.0	0.0001533	140.467999935
1710.0	0.0001545	140.5
1710.0	0.0001553	140.546999931
1710.0	0.0001543	140.592999935
1710.0	0.0001533	140.625
1710.0	0.000153	140.671999931
1710.0	0.0001538	140.717999935
1710.0	0.0001543	140.75
1710.0	0.0001538	140.796999931
1710.0	0.000153	140.828000069
1710.0	0.0001528	140.875
1710.0	0.000153	140.921999931
1710.0	0.000152	140.953000069
1710.0	0.000152	141.0
1710.0	0.000153	141.046999931
1710.0	0.0001528	141.078000069
1710.0	0.0001528	141.125
1710.0	0.000153	141.156000137
1710.0	0.0001533	141.203000069
1710.0	0.0001538	141.25
1710.0	0.0001538	141.281000137
1710.0	0.000154	141.328000069
1710.0	0.0001533	141.375
1710.0	0.0001533	141.406000137
1710.0	0.0001545	141.453000069
1710.0	0.0001545	141.5
1710.0	0.0001528	141.531000137
1710.0	0.0001508	141.578000069
1720.0	0.000149	141.858999968
1720.0	0.000149	141.906000137
1720.0	0.0001488	141.937000036
1720.0	0.000148	141.983999968
1720.0	0.0001468	142.031000137
1720.0	0.0001463	142.062000036
1720.0	0.0001458	142.108999968
1720.0	0.0001445	142.156000137
1720.0	0.0001433	142.187000036
1720.0	0.000143	142.233999968
1720.0	0.0001425	142.265000105
1720.0	0.0001425	142.312000036
1720.0	0.0001433	142.358999968
1720.0	0.0001438	142.390000105
1720.0	0.0001443	142.437000036
1720.0	0.0001445	142.483999968
1720.0	0.0001445	142.515000105
1720.0	0.000143	142.562000036
1720.0	0.000143	142.608999968
1720.0	0.0001443	142.640000105
1720.0	0.0001445	142.687000036
1720.0	0.0001453	142.733999968
1720.0	0.0001458	142.765000105
1720.0	0.0001455	142.812000036
1720.0	0.0001463	142.858999968
1720.0	0.0001468	142.890000105
1720.0	0.0001463	142.937000036
1720.0	0.0001458	142.983999968
1720.0	0.0001458	143.015000105
1720.0	0.0001453	143.062000036
1720.0	0.0001455	143.108999968
1720.0	0.0001463	143.140000105
1720.0	0.0001458	143.187000036
1720.0	0.0001458	143.217999935
1720.0	0.0001453	143.265000105
1720.0	0.0001453	143.312000036
1730.0	0.0001413	143.592999935
1730.0	0.0001415	143.640000105
1730.0	0.0001413	143.671999931
1730.0	0.0001405	143.717999935
1730.0	0.0001415	143.765000105
1730.0	0.0001425	143.796999931
1730.0	0.000143	143.842999935
1730.0	0.0001443	143.875
1730.0	0.0001445	143.921999931
1730.0	0.000145	143.967999935
1730.0	0.000145	144.0
1730.0	0.0001445	144.046999931
1730.0	0.0001438	144.092999935
1730.0	0.000143	144.140000105
1730.0	0.0001425	144.171999931
1730.0	0.0001428	144.217999935
1730.0	0.0001443	144.25
1730.0	0.000145	144.296999931
1730.0	0.000145	144.342999935
1730.0	0.0001443	144.375
1730.0	0.0001445	144.421999931
1730.0	0.0001445	144.467999935
1730.0	0.0001445	144.5
1730.0	0.0001443	144.546999931
1730.0	0.000144	144.578000069
1730.0	0.0001438	144.625
1730.0	0.0001428	144.671999931
1730.0	0.0001425	144.703000069
1730.0	0.0001418	144.75
1730.0	0.000142	144.796999931
1730.0	0.0001425	144.828000069
1730.0	0.0001425	144.875
1730.0	0.0001428	144.906000137
1730.0	0.0001428	144.953000069
1730.0	0.0001443	145.0
1730.0	0.0001445	145.031000137
1730.0	0.0001443	145.078000069
1740.0	0.0001445	145.358999968
1740.0	0.000144	145.406000137
1740.0	0.0001443	145.453000069
1740.0	0.000144	145.483999968
1740.0	0.000143	145.531000137
1740.0	0.000142	145.578000069
1740.0	0.0001415	145.608999968
1740.0	0.0001418	145.656000137
1740.0	0.0001418	145.687000036
1740.0	0.0001428	145.733999968
1740.0	0.000143	145.781000137
1740.0	0.0001418	145.812000036
1740.0	0.0001408	145.858999968
1740.0	0.0001403	145.906000137
1740.0	0.00014	145.937000036
1740.0	0.000139	145.983999968
1740.0	0.000138	146.015000105
1740.0	0.0001378	146.062000036
1740.0	0.0001378	146.108999968
1740.0	0.0001383	146.140000105
1740.0	0.0001393	146.187000036
1740.0	0.0001395	146.233999968
1740.0	0.00014	146.265000105
1740.0	0.00014	146.312000036
1740.0	0.00014	146.358999968
1740.0	0.0001388	146.390000105
1740.0	0.0001378	146.437000036
1740.0	0.0001388	146.467999935
1740.0	0.0001405	146.515000105
1740.0	0.0001395	146.562000036
1740.0	0.0001383	146.592999935
1740.0	0.0001375	146.640000105
1740.0	0.0001365	146.687000036
1740.0	0.0001363	146.717999935
1740.0	0.0001368	146.765000105
1740.0	0.0001368	146.796999931
1740.0	0.0001368	146.842999935
1750.0	0.0001355	147.125
1750.0	0.0001355	147.171999931
1750.0	0.0001353	147.217999935
1750.0	0.0001363	147.25
1750.0	0.0001363	147.296999931
1750.0	0.0001363	147.342999935
1750.0	0.000137	147.375
1750.0	0.0001365	147.421999931
1750.0	0.000137	147.453000069
1750.0	0.0001378	147.5
1750.0	0.0001378	147.546999931
1750.0	0.000138	147.578000069
1750.0	0.0001375	147.625
1750.0	0.0001378	147.671999931
1750.0	0.000138	147.703000069
1750.0	0.0001388	147.75
1750.0	0.0001393	147.781000137
1750.0	0.000139	147.828000069
1750.0	0.0001393	147.875
1750.0	0.0001403	147.906000137
1750.0	0.00014	147.953000069
1750.0	0.0001388	148.0
1750.0	0.0001375	148.031000137
1750.0	0.0001355	148.078000069
1750.0	0.0001355	148.125
1750.0	0.0001365	148.156000137
1750.0	0.0001368	148.203000069
1750.0	0.0001365	148.233999968
1750.0	0.0001365	148.281000137
1750.0	0.0001375	148.328000069
1750.0	0.0001383	148.358999968
1750.0	0.00014	148.406000137
1750.0	0.0001393	148.453000069
1750.0	0.0001383	148.483999968
1750.0	0.0001383	148.531000137
1750.0	0.000139	148.562000036
1750.0	0.000139	148.608999968
1760.0	0.0001365	148.890000105
1760.0	0.000137	148.937000036
1760.0	0.0001378	148.983999968
1760.0	0.0001388	149.015000105
1760.0	0.0001393	149.062000036
1760.0	0.0001395	149.108999968
1760.0	0.0001388	149.140000105
1760.0	0.000137	149.187000036
1760.0	0.0001368	149.233999968
1760.0	0.0001375	149.265000105
1760.0	0.0001375	149.312000036
1760.0	0.000137	149.342999935
1760.0	0.0001355	149.390000105
1760.0	0.000134	149.437000036
1760.0	0.0001333	149.467999935
1760.0	0.0001333	149.515000105
1760.0	0.0001338	149.546999931
1760.0	0.0001338	149.592999935
1760.0	0.0001338	149.640000105
1760.0	0.0001338	149.671999931
1760.0	0.0001338	149.717999935
1760.0	0.0001338	149.765000105
1760.0	0.0001338	149.796999931
1760.0	0.000135	149.842999935
1760.0	0.0001363	149.890000105
1760.0	0.0001368	149.921999931
1760.0	0.0001355	149.967999935
1760.0	0.0001338	150.0
1760.0	0.0001325	150.046999931
1760.0	0.0001308	150.092999935
1760.0	0.0001315	150.125
1760.0	0.0001333	150.171999931
1760.0	0.0001345	150.217999935
1760.0	0.0001355	150.25
1760.0	0.0001368	150.296999931
1760.0	0.000137	150.328000069
1760.0	0.0001375	150.375
1770.0	0.0001368	150.656000137
1770.0	0.0001358	150.703000069
1770.0	0.0001355	150.75
1770.0	0.000135	150.781000137
1770.0	0.0001345	150.828000069
1770.0	0.000134	150.875
1770.0	0.000133	150.906000137
1770.0	0.0001315	150.953000069
1770.0	0.0001305	151.0
1770.0	0.0001293	151.031000137
1770.0	0.00013	151.078000069
1770.0	0.0001318	151.108999968
1770.0	0.0001328	151.156000137
1770.0	0.0001325	151.203000069
1770.0	0.0001325	151.233999968
1770.0	0.000133	151.281000137
1770.0	0.0001343	151.328000069
1770.0	0.0001338	151.358999968
1770.0	0.0001333	151.406000137
1770.0	0.0001345	151.437000036
1770.0	0.0001363	151.483999968
1770.0	0.0001343	151.531000137
1770.0	0.0001333	151.578000069
1770.0	0.0001328	151.608999968
1770.0	0.0001325	151.656000137
1770.0	0.000132	151.687000036
1770.0	0.0001325	151.733999968
1770.0	0.0001308	151.781000137
1770.0	0.00013	151.812000036
1770.0	0.000129	151.858999968
1770.0	0.0001293	151.906000137
1770.0	0.00013	151.937000036
1770.0	0.00013	151.983999968
1770.0	0.0001303	152.015000105
1770.0	0.0001305	152.062000036
1770.0	0.0001325	152.108999968
1770.0	0.0001345	152.140000105
1780.0	0.0001318	152.437000036
1780.0	0.0001315	152.467999935
1780.0	0.0001313	152.515000105
1780.0	0.0001315	152.562000036
1780.0	0.0001315	152.592999935
1780.0	0.0001305	152.640000105
1780.0	0.0001313	152.687000036
1780.0	0.000132	152.717999935
1780.0	0.0001313	152.765000105
1780.0	0.0001303	152.812000036
1780.0	0.0001283	152.842999935
1780.0	0.000128	152.890000105
1780.0	0.0001288	152.937000036
1780.0	0.0001288	152.967999935
1780.0	0.00013	153.015000105
1780.0	0.0001308	153.046999931
1780.0	0.0001305	153.092999935
1780.0	0.0001305	153.140000105
1780.0	0.0001318	153.171999931
1780.0	0.0001318	153.217999935
1780.0	0.0001315	153.265000105
1780.0	0.0001315	153.296999931
1780.0	0.000132	153.342999935
1780.0	0.0001325	153.375
1780.0	0.000133	153.421999931
1780.0	0.0001343	153.467999935
1780.0	0.000134	153.5
1780.0	0.0001338	153.546999931
1780.0	0.0001328	153.592999935
1780.0	0.0001318	153.625
1780.0	0.0001295	153.671999931
1780.0	0.0001303	153.717999935
1780.0	0.0001305	153.75
1780.0	0.00013	153.796999931
1780.0	0.0001293	153.828000069
1780.0	0.0001293	153.875
1780.0	0.0001293	153.921999931
1790.0	0.0001293	154.203000069
1790.0	0.000129	154.25
1790.0	0.0001283	154.281000137
1790.0	0.000129	154.328000069
1790.0	0.0001303	154.375
1790.0	0.0001303	154.406000137
1790.0	0.0001305	154.453000069
1790.0	0.0001313	154.483999968
1790.0	0.0001308	154.531000137
1790.0	0.000129	154.578000069
1790.0	0.000127	154.608999968
1790.0	0.0001275	154.656000137
1790.0	0.0001275	154.703000069
1790.0	0.0001263	154.733999968
1790.0	0.000125	154.781000137
1790.0	0.000123	154.828000069
1790.0	0.0001233	154.858999968
1790.0	0.0001238	154.906000137
1790.0	0.0001233	154.953000069
1790.0	0.000124	154.983999968
1790.0	0.0001253	155.031000137
1790.0	0.0001258	155.078000069
1790.0	0.0001263	155.108999968
1790.0	0.0001268	155.156000137
1790.0	0.0001293	155.187000036
1790.0	0.000129	155.233999968
1790.0	0.0001293	155.281000137
1790.0	0.000129	155.312000036
1790.0	0.0001278	155.358999968
1790.0	0.0001263	155.406000137
1790.0	0.0001263	155.437000036
1790.0	0.0001263	155.483999968
1790.0	0.0001265	155.515000105
1790.0	0.0001258	155.562000036
1790.0	0.0001265	155.608999968
1790.0	0.000127	155.640000105
1790.0	0.000127	155.687000036
1800.0	0.0001255	155.983999968
1800.0	0.000123	156.031000137
1800.0	0.000123	156.062000036
1800.0	0.0001233	156.108999968
1800.0	0.0001233	156.140000105
1800.0	0.0001233	156.187000036
1800.0	0.000124	156.233999968
1800.0	0.000124	156.265000105
1800.0	0.000124	156.312000036
1800.0	0.0001243	156.358999968
1800.0	0.000124	156.390000105
1800.0	0.0001233	156.437000036
1800.0	0.000123	156.467999935
1800.0	0.0001225	156.515000105
1800.0	0.000122	156.562000036
1800.0	0.000122	156.592999935
1800.0	0.000122	156.640000105
1800.0	0.0001218	156.687000036
1800.0	0.0001218	156.717999935
1800.0	0.0001225	156.765000105
1800.0	0.0001233	156.796999931
1800.0	0.0001238	156.842999935
1800.0	0.0001245	156.890000105
1800.0	0.000125	156.937000036
1800.0	0.0001255	156.967999935
1800.0	0.0001263	157.015000105
1800.0	0.0001265	157.046999931
1800.0	0.0001263	157.092999935
1800.0	0.0001258	157.140000105
1800.0	0.0001245	157.171999931
1800.0	0.0001243	157.217999935
1800.0	0.0001243	157.265000105
1800.0	0.0001243	157.296999931
1800.0	0.000124	157.342999935
1800.0	0.0001258	157.390000105
1800.0	0.0001275	157.421999931
1800.0	0.000127	157.467999935
1810.0	0.000124	157.765000105
1810.0	0.0001245	157.796999931
1810.0	0.000124	157.842999935
1810.0	0.0001243	157.890000105
1810.0	0.0001233	157.921999931
1810.0	0.0001218	157.967999935
1810.0	0.0001205	158.0
1810.0	0.0001195	158.046999931
1810.0	0.0001183	158.092999935
1810.0	0.0001175	158.125
1810.0	0.000117	158.171999931
1810.0	0.0001178	158.217999935
1810.0	0.0001178	158.25
1810.0	0.0001175	158.296999931
1810.0	0.0001163	158.328000069
1810.0	0.0001168	158.375
1810.0	0.0001178	158.421999931
1810.0	0.000118	158.453000069
1810.0	0.0001178	158.5
1810.0	0.0001168	158.546999931
1810.0	0.000117	158.592999935
1810.0	0.0001165	158.625
1810.0	0.0001168	158.671999931
1810.0	0.000118	158.703000069
1810.0	0.000118	158.75
1810.0	0.000119	158.796999931
1810.0	0.0001195	158.828000069
1810.0	0.00012	158.875
1810.0	0.0001205	158.921999931
1810.0	0.0001218	158.953000069
1810.0	0.0001225	159.0
1810.0	0.000122	159.031000137
1810.0	0.0001215	159.078000069
1810.0	0.0001208	159.125
1810.0	0.0001215	159.156000137
1810.0	0.0001213	159.203000069
1810.0	0.00012	159.25
1820.0	0.0001168	159.531000137
1820.0	0.0001158	159.578000069
1820.0	0.0001163	159.625
1820.0	0.0001165	159.656000137
1820.0	0.0001165	159.703000069
1820.0	0.0001175	159.733999968
1820.0	0.0001175	159.781000137
1820.0	0.0001155	159.828000069
1820.0	0.000114	159.858999968
1820.0	0.000114	159.906000137
1820.0	0.0001143	159.953000069
1820.0	0.0001143	159.983999968
1820.0	0.000114	160.031000137
1820.0	0.0001145	160.062000036
1820.0	0.0001145	160.108999968
1820.0	0.0001138	160.156000137
1820.0	0.0001133	160.187000036
1820.0	0.000114	160.233999968
1820.0	0.0001145	160.281000137
1820.0	0.0001155	160.312000036
1820.0	0.0001168	160.358999968
1820.0	0.0001178	160.406000137
1820.0	0.0001178	160.437000036
1820.0	0.0001175	160.483999968
1820.0	0.0001175	160.515000105
1820.0	0.0001168	160.562000036
1820.0	0.0001163	160.608999968
1820.0	0.0001158	160.640000105
1820.0	0.0001153	160.687000036
1820.0	0.0001143	160.733999968
1820.0	0.0001153	160.765000105
1820.0	0.0001168	160.812000036
1820.0	0.000117	160.858999968
1820.0	0.0001175	160.890000105
1820.0	0.0001178	160.937000036
1820.0	0.0001178	160.983999968
1820.0	0.0001178	161.015000105
1830.0	0.000115	161.312000036
1830.0	0.0001143	161.358999968
1830.0	0.0001133	161.406000137
1830.0	0.0001125	161.437000036
1830.0	0.0001105	161.483999968
1830.0	0.0001105	161.531000137
1830.0	0.0001108	161.562000036
1830.0	0.0001103	161.608999968
1830.0	0.0001093	161.640000105
1830.0	0.0001093	161.687000036
1830.0	0.0001093	161.733999968
1830.0	0.0001103	161.765000105
1830.0	0.0001095	161.812000036
1830.0	0.0001083	161.858999968
1830.0	0.0001068	161.890000105
1830.0	0.0001065	161.937000036
1830.0	0.0001055	161.967999935
1830.0	0.000105	162.015000105
1830.0	0.0001055	162.062000036
1830.0	0.0001068	162.092999935
1830.0	0.000108	162.140000105
1830.0	0.0001083	162.187000036
1830.0	0.000109	162.217999935
1830.0	0.000109	162.265000105
1830.0	0.0001105	162.296999931
1830.0	0.0001103	162.342999935
1830.0	0.000109	162.390000105
1830.0	0.0001095	162.421999931
1830.0	0.0001093	162.467999935
1830.0	0.0001103	162.515000105
1830.0	0.0001105	162.546999931
1830.0	0.0001105	162.592999935
1830.0	0.0001103	162.625
1830.0	0.00011	162.671999931
1830.0	0.00011	162.717999935
1830.0	0.000109	162.75
1830.0	0.000108	162.796999931
1840.0	0.0001045	163.092999935
1840.0	0.0001028	163.140000105
1840.0	0.000102	163.171999931
1840.0	0.0001038	163.217999935
1840.0	0.000105	163.25
1840.0	0.0001053	163.296999931
1840.0	0.0001058	163.342999935
1840.0	0.0001058	163.390000105
1840.0	0.0001058	163.421999931
1840.0	0.0001068	163.467999935
1840.0	0.000107	163.5
1840.0	0.000108	163.546999931
1840.0	0.000107	163.592999935
1840.0	0.0001068	163.625
1840.0	0.000107	163.671999931
1840.0	0.000108	163.717999935
1840.0	0.0001083	163.75
1840.0	0.0001088	163.796999931
1840.0	0.0001088	163.842999935
1840.0	0.0001088	163.875
1840.0	0.0001068	163.921999931
1840.0	0.0001055	163.967999935
1840.0	0.0001045	164.0
1840.0	0.0001033	164.046999931
1840.0	0.0001028	164.092999935
1840.0	0.000102	164.125
1840.0	0.0001018	164.171999931
1840.0	0.0001018	164.217999935
1840.0	0.000102	164.25
1840.0	0.000102	164.296999931
1840.0	0.0001033	164.342999935
1840.0	0.000104	164.375
1840.0	0.000104	164.421999931
1840.0	0.0001038	164.453000069
1840.0	0.0001038	164.5
1840.0	0.0001045	164.546999931
1850.0	0.000102	164.842999935
1850.0	0.0001018	164.875
1850.0	0.0001015	164.921999931
1850.0	0.0001018	164.967999935
1850.0	0.000103	165.0
1850.0	0.000103	165.046999931
1850.0	0.000103	165.078000069
1850.0	0.0001025	165.125
1850.0	0.0001013	165.171999931
1850.0	9.83e-05	165.203000069
1850.0	9.68e-05	165.25
1850.0	9.58e-05	165.296999931
1850.0	9.5e-05	165.328000069
1850.0	9.58e-05	165.375
1850.0	9.68e-05	165.406000137
1850.0	9.8e-05	165.453000069
1850.0	0.0001	165.5
1850.0	0.0001015	165.546999931
1850.0	0.0001018	165.578000069
1850.0	0.0001013	165.625
1850.0	9.93e-05	165.656000137
1850.0	9.9e-05	165.703000069
1850.0	9.93e-05	165.75
1850.0	9.95e-05	165.781000137
1850.0	0.0001	165.828000069
1850.0	0.0001005	165.875
1850.0	0.0001008	165.906000137
1850.0	0.0001013	165.953000069
1850.0	0.0001008	165.983999968
1850.0	0.0001013	166.031000137
1850.0	0.0001005	166.078000069
1850.0	9.93e-05	166.108999968
1850.0	0.0001	166.156000137
1850.0	0.000102	166.203000069
1850.0	0.000103	166.233999968
1850.0	0.000104	166.281000137
1850.0	0.0001038	166.328000069
1860.0	9.78e-05	166.608999968
1860.0	9.75e-05	166.656000137
1860.0	9.7e-05	166.703000069
1860.0	9.75e-05	166.733999968
1860.0	9.78e-05	166.781000137
1860.0	9.8e-05	166.828000069
1860.0	9.8e-05	166.858999968
1860.0	9.78e-05	166.906000137
1860.0	9.68e-05	166.937000036
1860.0	9.78e-05	166.983999968
1860.0	9.9e-05	167.031000137
1860.0	9.95e-05	167.062000036
1860.0	9.93e-05	167.108999968
1860.0	9.9e-05	167.156000137
1860.0	0.0001003	167.187000036
1860.0	0.0001013	167.233999968
1860.0	0.0001018	167.281000137
1860.0	0.0001013	167.312000036
1860.0	0.0001	167.358999968
1860.0	0.0001	167.390000105
1860.0	9.93e-05	167.437000036
1860.0	9.83e-05	167.483999968
1860.0	9.75e-05	167.531000137
1860.0	9.7e-05	167.562000036
1860.0	9.58e-05	167.608999968
1860.0	9.53e-05	167.640000105
1860.0	9.55e-05	167.687000036
1860.0	9.65e-05	167.733999968
1860.0	9.68e-05	167.765000105
1860.0	9.7e-05	167.812000036
1860.0	9.68e-05	167.858999968
1860.0	9.65e-05	167.890000105
1860.0	9.58e-05	167.937000036
1860.0	9.55e-05	167.983999968
1860.0	9.53e-05	168.015000105
1860.0	9.4e-05	168.062000036
1860.0	9.28e-05	168.108999968
1870.0	9.65e-05	168.406000137
1870.0	9.58e-05	168.437000036
1870.0	9.55e-05	168.483999968
1870.0	9.55e-05	168.515000105
1870.0	9.63e-05	168.562000036
1870.0	9.45e-05	168.608999968
1870.0	9.43e-05	168.640000105
1870.0	9.43e-05	168.687000036
1870.0	9.38e-05	168.733999968
1870.0	9.3e-05	168.765000105
1870.0	9.28e-05	168.812000036
1870.0	9.18e-05	168.842999935
1870.0	9.18e-05	168.890000105
1870.0	9.25e-05	168.937000036
1870.0	9.25e-05	168.967999935
1870.0	9.25e-05	169.015000105
1870.0	9.15e-05	169.062000036
1870.0	9.05e-05	169.092999935
1870.0	9e-05	169.140000105
1870.0	8.93e-05	169.171999931
1870.0	9e-05	169.217999935
1870.0	9.05e-05	169.265000105
1870.0	9.13e-05	169.296999931
1870.0	9.15e-05	169.342999935
1870.0	9.25e-05	169.390000105
1870.0	9.43e-05	169.421999931
1870.0	9.45e-05	169.467999935
1870.0	9.3e-05	169.5
1870.0	9.15e-05	169.546999931
1870.0	9.13e-05	169.592999935
1870.0	9.08e-05	169.625
1870.0	9.08e-05	169.671999931
1870.0	9.2e-05	169.717999935
1870.0	9.3e-05	169.765000105
1870.0	9.33e-05	169.796999931
1870.0	9.28e-05	169.842999935
1870.0	9.28e-05	169.875
1880.0	8.8e-05	170.171999931
1880.0	8.88e-05	170.217999935
1880.0	8.88e-05	170.265000105
1880.0	8.9e-05	170.296999931
1880.0	8.9e-05	170.342999935
1880.0	8.93e-05	170.375
1880.0	8.78e-05	170.421999931
1880.0	8.63e-05	170.467999935
1880.0	8.55e-05	170.5
1880.0	8.53e-05	170.546999931
1880.0	8.65e-05	170.592999935
1880.0	8.7e-05	170.625
1880.0	8.7e-05	170.671999931
1880.0	8.75e-05	170.717999935
1880.0	8.58e-05	170.75
1880.0	8.43e-05	170.796999931
1880.0	8.55e-05	170.828000069
1880.0	8.68e-05	170.875
1880.0	8.7e-05	170.921999931
1880.0	8.7e-05	170.953000069
1880.0	8.68e-05	171.0
1880.0	8.68e-05	171.046999931
1880.0	8.75e-05	171.078000069
1880.0	8.78e-05	171.125
1880.0	8.75e-05	171.156000137
1880.0	8.75e-05	171.203000069
1880.0	8.7e-05	171.25
1880.0	8.68e-05	171.281000137
1880.0	8.58e-05	171.328000069
1880.0	8.65e-05	171.375
1880.0	8.7e-05	171.406000137
1880.0	8.68e-05	171.453000069
1880.0	8.8e-05	171.483999968
1880.0	8.83e-05	171.531000137
1880.0	8.83e-05	171.578000069
1880.0	8.9e-05	171.608999968
1880.0	9e-05	171.656000137
1890.0	8.68e-05	171.953000069
1890.0	8.63e-05	172.0
1890.0	8.45e-05	172.031000137
1890.0	8.3e-05	172.078000069
1890.0	8.25e-05	172.108999968
1890.0	8.28e-05	172.156000137
1890.0	8.18e-05	172.203000069
1890.0	8.2e-05	172.233999968
1890.0	8.38e-05	172.281000137
1890.0	8.45e-05	172.328000069
1890.0	8.55e-05	172.358999968
1890.0	8.63e-05	172.406000137
1890.0	8.7e-05	172.437000036
1890.0	8.68e-05	172.483999968
1890.0	8.63e-05	172.531000137
1890.0	8.58e-05	172.562000036
1890.0	8.53e-05	172.608999968
1890.0	8.55e-05	172.656000137
1890.0	8.63e-05	172.687000036
1890.0	8.65e-05	172.733999968
1890.0	8.53e-05	172.765000105
1890.0	8.45e-05	172.812000036
1890.0	8.55e-05	172.858999968
1890.0	8.63e-05	172.890000105
1890.0	8.55e-05	172.937000036
1890.0	8.53e-05	172.983999968
1890.0	8.45e-05	173.015000105
1890.0	8.58e-05	173.062000036
1890.0	8.63e-05	173.108999968
1890.0	8.53e-05	173.140000105
1890.0	8.5e-05	173.187000036
1890.0	8.43e-05	173.217999935
1890.0	8.38e-05	173.265000105
1890.0	8.4e-05	173.312000036
1890.0	8.33e-05	173.342999935
1890.0	8.3e-05	173.390000105
1890.0	8.33e-05	173.437000036
1900.0	8.15e-05	173.717999935
1900.0	8.13e-05	173.765000105
1900.0	8.2e-05	173.812000036
1900.0	8.25e-05	173.842999935
1900.0	8.13e-05	173.890000105
1900.0	8.05e-05	173.937000036
1900.0	8.03e-05	173.983999968
1900.0	8.13e-05	174.015000105
1900.0	8.08e-05	174.062000036
1900.0	7.9e-05	174.092999935
1900.0	7.88e-05	174.140000105
1900.0	7.83e-05	174.187000036
1900.0	7.8e-05	174.233999968
1900.0	7.83e-05	174.265000105
1900.0	7.9e-05	174.312000036
1900.0	7.93e-05	174.342999935
1900.0	8.05e-05	174.390000105
1900.0	8.18e-05	174.437000036
1900.0	8.3e-05	174.467999935
1900.0	8.4e-05	174.515000105
1900.0	8.45e-05	174.562000036
1900.0	8.38e-05	174.592999935
1900.0	8.43e-05	174.640000105
1900.0	8.38e-05	174.671999931
1900.0	8.2e-05	174.717999935
1900.0	8.18e-05	174.765000105
1900.0	8.2e-05	174.812000036
1900.0	8.2e-05	174.842999935
1900.0	8.2e-05	174.890000105
1900.0	8.15e-05	174.921999931
1900.0	8.03e-05	174.967999935
1900.0	7.93e-05	175.015000105
1900.0	7.8e-05	175.046999931
1900.0	7.83e-05	175.092999935
1900.0	7.9e-05	175.140000105
1900.0	8.03e-05	175.171999931
1900.0	8.05e-05	175.217999935
1910.0	8e-05	175.515000105
1910.0	8.03e-05	175.546999931
1910.0	8.08e-05	175.592999935
1910.0	8.03e-05	175.625
1910.0	8e-05	175.671999931
1910.0	8e-05	175.717999935
1910.0	8e-05	175.75
1910.0	8.03e-05	175.796999931
1910.0	8.03e-05	175.842999935
1910.0	7.93e-05	175.875
1910.0	7.93e-05	175.921999931
1910.0	7.93e-05	175.953000069
1910.0	7.8e-05	176.0
1910.0	7.68e-05	176.046999931
1910.0	7.78e-05	176.078000069
1910.0	7.8e-05	176.125
1910.0	7.88e-05	176.171999931
1910.0	7.78e-05	176.203000069
1910.0	7.75e-05	176.25
1910.0	7.75e-05	176.281000137
1910.0	7.8e-05	176.328000069
1910.0	7.93e-05	176.375
1910.0	8e-05	176.406000137
1910.0	8.13e-05	176.453000069
1910.0	8.18e-05	176.5
1910.0	8.13e-05	176.531000137
1910.0	8.05e-05	176.578000069
1910.0	8.05e-05	176.625
1910.0	7.88e-05	176.656000137
1910.0	7.78e-05	176.703000069
1910.0	7.75e-05	176.733999968
1910.0	7.7e-05	176.781000137
1910.0	7.83e-05	176.828000069
1910.0	7.83e-05	176.858999968
1910.0	7.78e-05	176.906000137
1910.0	7.75e-05	176.953000069
1910.0	7.68e-05	176.983999968
1920.0	7.5e-05	177.281000137
1920.0	7.58e-05	177.312000036
1920.0	7.75e-05	177.358999968
1920.0	7.7e-05	177.406000137
1920.0	7.68e-05	177.437000036
1920.0	7.63e-05	177.483999968
1920.0	7.55e-05	177.531000137
1920.0	7.55e-05	177.562000036
1920.0	7.65e-05	177.608999968
1920.0	7.7e-05	177.656000137
1920.0	7.8e-05	177.687000036
1920.0	7.88e-05	177.733999968
1920.0	7.88e-05	177.781000137
1920.0	7.88e-05	177.812000036
1920.0	7.78e-05	177.858999968
1920.0	7.78e-05	177.906000137
1920.0	7.7e-05	177.937000036
1920.0	7.65e-05	177.983999968
1920.0	7.55e-05	178.015000105
1920.0	7.53e-05	178.062000036
1920.0	7.5e-05	178.108999968
1920.0	7.55e-05	178.140000105
1920.0	7.65e-05	178.187000036
1920.0	7.7e-05	178.233999968
1920.0	7.7e-05	178.265000105
1920.0	7.75e-05	178.312000036
1920.0	7.75e-05	178.342999935
1920.0	7.65e-05	178.390000105
1920.0	7.58e-05	178.437000036
1920.0	7.5e-05	178.467999935
1920.0	7.38e-05	178.515000105
1920.0	7.43e-05	178.562000036
1920.0	7.43e-05	178.592999935
1920.0	7.33e-05	178.640000105
1920.0	7.33e-05	178.671999931
1920.0	7.33e-05	178.717999935
1920.0	7.45e-05	178.765000105
1930.0	7.55e-05	179.046999931
1930.0	7.58e-05	179.092999935
1930.0	7.53e-05	179.140000105
1930.0	7.45e-05	179.171999931
1930.0	7.43e-05	179.217999935
1930.0	7.3e-05	179.265000105
1930.0	7.13e-05	179.296999931
1930.0	7e-05	179.342999935
1930.0	7e-05	179.375
1930.0	6.95e-05	179.421999931
1930.0	7e-05	179.467999935
1930.0	7.05e-05	179.5
1930.0	7e-05	179.546999931
1930.0	7.08e-05	179.592999935
1930.0	7.13e-05	179.625
1930.0	7.15e-05	179.671999931
1930.0	7.2e-05	179.703000069
1930.0	7.33e-05	179.75
1930.0	7.5e-05	179.796999931
1930.0	7.45e-05	179.828000069
1930.0	7.38e-05	179.875
1930.0	7.28e-05	179.921999931
1930.0	7.38e-05	179.953000069
1930.0	7.45e-05	180.0
1930.0	7.55e-05	180.046999931
1930.0	7.63e-05	180.078000069
1930.0	7.68e-05	180.125
1930.0	7.75e-05	180.171999931
1930.0	7.7e-05	180.203000069
1930.0	7.7e-05	180.25
1930.0	7.75e-05	180.281000137
1930.0	7.8e-05	180.328000069
1930.0	7.83e-05	180.375
1930.0	7.7e-05	180.406000137
1930.0	7.63e-05	180.453000069
1930.0	7.55e-05	180.5
1930.0	7.53e-05	180.531000137
1940.0	7.43e-05	180.828000069
1940.0	7.43e-05	180.875
1940.0	7.4e-05	180.906000137
1940.0	7.25e-05	180.953000069
1940.0	7.15e-05	181.0
1940.0	7.18e-05	181.031000137
1940.0	7.18e-05	181.078000069
1940.0	7.2e-05	181.125
1940.0	7.3e-05	181.156000137
1940.0	7.43e-05	181.203000069
1940.0	7.53e-05	181.233999968
1940.0	7.58e-05	181.281000137
1940.0	7.68e-05	181.328000069
1940.0	7.58e-05	181.358999968
1940.0	7.43e-05	181.406000137
1940.0	7.3e-05	181.453000069
1940.0	7.3e-05	181.483999968
1940.0	7.43e-05	181.531000137
1940.0	7.45e-05	181.578000069
1940.0	7.38e-05	181.608999968
1940.0	7.28e-05	181.656000137
1940.0	7.4e-05	181.687000036
1940.0	7.5e-05	181.733999968
1940.0	7.53e-05	181.781000137
1940.0	7.58e-05	181.812000036
1940.0	7.7e-05	181.858999968
1940.0	7.75e-05	181.906000137
1940.0	7.8e-05	181.937000036
1940.0	7.8e-05	181.983999968
1940.0	7.75e-05	182.015000105
1940.0	7.78e-05	182.062000036
1940.0	7.8e-05	182.108999968
1940.0	7.68e-05	182.140000105
1940.0	7.58e-05	182.187000036
1940.0	7.53e-05	182.233999968
1940.0	7.45e-05	182.265000105
1940.0	7.45e-05	182.312000036
1950.0	7.43e-05	182.608999968
1950.0	7.38e-05	182.640000105
1950.0	7.3e-05	182.687000036
1950.0	7.25e-05	182.733999968
1950.0	7.33e-05	182.765000105
1950.0	7.43e-05	182.812000036
1950.0	7.45e-05	182.858999968
1950.0	7.43e-05	182.890000105
1950.0	7.28e-05	182.937000036
1950.0	7.2e-05	182.967999935
1950.0	7.15e-05	183.015000105
1950.0	7.28e-05	183.062000036
1950.0	7.38e-05	183.092999935
1950.0	7.45e-05	183.140000105
1950.0	7.53e-05	183.187000036
1950.0	7.5e-05	183.217999935
1950.0	7.5e-05	183.265000105
1950.0	7.5e-05	183.296999931
1950.0	7.5e-05	183.342999935
1950.0	7.5e-05	183.390000105
1950.0	7.65e-05	183.421999931
1950.0	7.65e-05	183.467999935
1950.0	7.43e-05	183.515000105
1950.0	7.25e-05	183.546999931
1950.0	7.18e-05	183.592999935
1950.0	7.18e-05	183.625
1950.0	7.2e-05	183.671999931
1950.0	7.2e-05	183.717999935
1950.0	7.2e-05	183.75
1950.0	7.2e-05	183.796999931
1950.0	7.28e-05	183.842999935
1950.0	7.3e-05	183.875
1950.0	7.28e-05	183.921999931
1950.0	7.2e-05	183.953000069
1950.0	7.15e-05	184.0
1950.0	7.08e-05	184.046999931
1950.0	7.05e-05	184.092999935
1960.0	7.28e-05	184.390000105
1960.0	7.38e-05	184.421999931
1960.0	7.45e-05	184.467999935
1960.0	7.4e-05	184.515000105
1960.0	7.25e-05	184.546999931
1960.0	7.15e-05	184.592999935
1960.0	7.2e-05	184.640000105
1960.0	7.2e-05	184.671999931
1960.0	7.15e-05	184.717999935
1960.0	7.05e-05	184.765000105
1960.0	7.13e-05	184.796999931
1960.0	7.08e-05	184.842999935
1960.0	6.95e-05	184.890000105
1960.0	7e-05	184.921999931
1960.0	7.05e-05	184.967999935
1960.0	7.03e-05	185.015000105
1960.0	7.05e-05	185.046999931
1960.0	7.15e-05	185.092999935
1960.0	7.18e-05	185.140000105
1960.0	7.15e-05	185.171999931
1960.0	7.18e-05	185.217999935
1960.0	7.15e-05	185.265000105
1960.0	7.08e-05	185.296999931
1960.0	7.05e-05	185.342999935
1960.0	7.03e-05	185.375
1960.0	6.93e-05	185.421999931
1960.0	6.88e-05	185.467999935
1960.0	6.8e-05	185.5
1960.0	6.8e-05	185.546999931
1960.0	6.88e-05	185.592999935
1960.0	6.95e-05	185.625
1960.0	6.95e-05	185.671999931
1960.0	7.05e-05	185.703000069
1960.0	7.15e-05	185.75
1960.0	7.13e-05	185.796999931
1960.0	7.15e-05	185.828000069
1960.0	7.18e-05	185.875
1970.0	7.08e-05	186.171999931
1970.0	7.13e-05	186.217999935
1970.0	7.18e-05	186.25
1970.0	7.3e-05	186.296999931
1970.0	7.43e-05	186.342999935
1970.0	7.45e-05	186.390000105
1970.0	7.4e-05	186.421999931
1970.0	7.4e-05	186.467999935
1970.0	7.25e-05	186.5
1970.0	7.18e-05	186.546999931
1970.0	7.15e-05	186.592999935
1970.0	7.08e-05	186.625
1970.0	7.15e-05	186.671999931
1970.0	7.03e-05	186.717999935
1970.0	6.93e-05	186.75
1970.0	6.78e-05	186.796999931
1970.0	6.7e-05	186.842999935
1970.0	6.75e-05	186.875
1970.0	6.78e-05	186.921999931
1970.0	6.8e-05	186.953000069
1970.0	6.93e-05	187.0
1970.0	7e-05	187.046999931
1970.0	7e-05	187.078000069
1970.0	6.9e-05	187.125
1970.0	6.75e-05	187.171999931
1970.0	6.58e-05	187.203000069
1970.0	6.63e-05	187.25
1970.0	6.68e-05	187.281000137
1970.0	6.78e-05	187.328000069
1970.0	6.88e-05	187.375
1970.0	6.9e-05	187.406000137
1970.0	6.83e-05	187.453000069
1970.0	6.7e-05	187.5
1970.0	6.75e-05	187.531000137
1970.0	6.83e-05	187.578000069
1970.0	7e-05	187.608999968
1970.0	7.05e-05	187.656000137
1980.0	7.03e-05	187.967999935
1980.0	7.05e-05	188.0
1980.0	7.08e-05	188.046999931
1980.0	7.05e-05	188.078000069
1980.0	6.93e-05	188.125
1980.0	6.83e-05	188.171999931
1980.0	6.93e-05	188.203000069
1980.0	7.13e-05	188.25
1980.0	7.18e-05	188.296999931
1980.0	7.05e-05	188.328000069
1980.0	7e-05	188.375
1980.0	7.05e-05	188.421999931
1980.0	6.9e-05	188.453000069
1980.0	6.83e-05	188.5
1980.0	6.83e-05	188.546999931
1980.0	6.78e-05	188.578000069
1980.0	6.78e-05	188.625
1980.0	6.8e-05	188.656000137
1980.0	6.75e-05	188.703000069
1980.0	6.78e-05	188.75
1980.0	6.83e-05	188.781000137
1980.0	6.78e-05	188.828000069
1980.0	6.68e-05	188.875
1980.0	6.65e-05	188.906000137
1980.0	6.53e-05	188.953000069
1980.0	6.5e-05	189.0
1980.0	6.53e-05	189.031000137
1980.0	6.58e-05	189.078000069
1980.0	6.63e-05	189.108999968
1980.0	6.63e-05	189.156000137
1980.0	6.78e-05	189.203000069
1980.0	6.78e-05	189.233999968
1980.0	6.78e-05	189.281000137
1980.0	6.8e-05	189.328000069
1980.0	6.7e-05	189.358999968
1980.0	6.75e-05	189.406000137
1980.0	6.8e-05	189.437000036
1990.0	6.93e-05	189.75
1990.0	6.68e-05	189.796999931
1990.0	6.63e-05	189.828000069
1990.0	6.63e-05	189.875
1990.0	6.65e-05	189.921999931
1990.0	6.75e-05	189.953000069
1990.0	6.8e-05	190.0
1990.0	6.95e-05	190.046999931
1990.0	7e-05	190.078000069
1990.0	6.93e-05	190.125
1990.0	6.95e-05	190.156000137
1990.0	7.03e-05	190.203000069
1990.0	7.08e-05	190.25
1990.0	7.05e-05	190.281000137
1990.0	7.03e-05	190.328000069
1990.0	6.93e-05	190.375
1990.0	6.88e-05	190.406000137
1990.0	6.83e-05	190.453000069
1990.0	6.78e-05	190.483999968
1990.0	6.78e-05	190.531000137
1990.0	6.75e-05	190.578000069
1990.0	6.78e-05	190.608999968
1990.0	6.75e-05	190.656000137
1990.0	6.75e-05	190.703000069
1990.0	6.83e-05	190.733999968
1990.0	6.88e-05	190.781000137
1990.0	6.88e-05	190.828000069
1990.0	6.88e-05	190.858999968
1990.0	6.83e-05	190.906000137
1990.0	6.9e-05	190.937000036
1990.0	6.95e-05	190.983999968
1990.0	6.93e-05	191.031000137
1990.0	6.88e-05	191.062000036
1990.0	6.75e-05	191.108999968
1990.0	6.63e-05	191.156000137
1990.0	6.58e-05	191.187000036
1990.0	6.53e-05	191.233999968
2000.0	6.05e-05	191.531000137
2000.0	6.05e-05	191.578000069
2000.0	6e-05	191.608999968
2000.0	6.15e-05	191.656000137
2000.0	6.2e-05	191.703000069
2000.0	6.25e-05	191.733999968
2000.0	6.38e-05	191.781000137
2000.0	6.4e-05	191.828000069
2000.0	6.33e-05	191.858999968
2000.0	6.25e-05	191.906000137
2000.0	6.15e-05	191.953000069
2000.0	6.13e-05	191.983999968
2000.0	6.13e-05	192.031000137
2000.0	6.13e-05	192.062000036
2000.0	6.08e-05	192.108999968
2000.0	6.18e-05	192.156000137
2000.0	6.2e-05	192.187000036
2000.0	6.38e-05	192.233999968
2000.0	6.53e-05	192.281000137
2000.0	6.53e-05	192.312000036
2000.0	6.45e-05	192.358999968
2000.0	6.4e-05	192.406000137
2000.0	6.28e-05	192.437000036
2000.0	6.2e-05	192.483999968
2000.0	6.33e-05	192.531000137
2000.0	6.43e-05	192.562000036
2000.0	6.43e-05	192.608999968
2000.0	6.3e-05	192.656000137
2000.0	6.15e-05	192.687000036
2000.0	6.08e-05	192.733999968
2000.0	6.08e-05	192.781000137
2000.0	6.13e-05	192.812000036
2000.0	6.08e-05	192.858999968
2000.0	6.2e-05	192.906000137
2000.0	6.33e-05	192.937000036
2000.0	6.3e-05	192.983999968
