Your edit line - do NOT delete this line
Wavelength [nm], Voltage [V], Elapsed time [s]
900.0	0.0002378	14.0939998627
900.0	0.000233	14.125
900.0	0.0002288	14.1719999313
900.0	0.0002258	14.2189998627
900.0	0.0002238	14.25
900.0	0.0002225	14.2969999313
900.0	0.0002213	14.3439998627
900.0	0.00022	14.375
900.0	0.0002193	14.4219999313
900.0	0.000219	14.4530000687
900.0	0.0002183	14.5
900.0	0.000218	14.5469999313
900.0	0.0002175	14.5780000687
900.0	0.0002175	14.625
900.0	0.0002175	14.6719999313
900.0	0.0002175	14.7030000687
900.0	0.000217	14.75
900.0	0.0002175	14.7809998989
900.0	0.0002178	14.8280000687
900.0	0.0002178	14.875
900.0	0.000218	14.9059998989
900.0	0.000218	14.9530000687
900.0	0.000218	15.0
900.0	0.0002183	15.0309998989
900.0	0.000218	15.0780000687
900.0	0.000218	15.125
900.0	0.0002178	15.1559998989
900.0	0.0002175	15.2030000687
900.0	0.0002178	15.2339999676
900.0	0.0002175	15.2809998989
900.0	0.000217	15.3280000687
900.0	0.0002175	15.3589999676
900.0	0.0002178	15.4059998989
900.0	0.0002178	15.4530000687
900.0	0.0002178	15.4839999676
900.0	0.0002175	15.5309998989
900.0	0.0002178	15.5620000362
910.0	0.000228	15.875
910.0	0.0002313	15.9219999313
910.0	0.0002333	15.9530000687
910.0	0.0002355	16.0
910.0	0.0002368	16.0469999313
910.0	0.0002378	16.0780000687
910.0	0.0002388	16.125
910.0	0.0002393	16.1719999313
910.0	0.0002395	16.2030000687
910.0	0.00024	16.25
910.0	0.0002403	16.2809998989
910.0	0.0002405	16.3280000687
910.0	0.0002405	16.375
910.0	0.0002405	16.4059998989
910.0	0.0002408	16.4530000687
910.0	0.0002413	16.5
910.0	0.0002415	16.5309998989
910.0	0.0002413	16.5780000687
910.0	0.0002405	16.625
910.0	0.0002405	16.6559998989
910.0	0.0002405	16.7030000687
910.0	0.0002408	16.7339999676
910.0	0.0002413	16.7809998989
910.0	0.0002413	16.8280000687
910.0	0.0002413	16.8589999676
910.0	0.0002408	16.9059998989
910.0	0.0002408	16.9370000362
910.0	0.0002405	16.9839999676
910.0	0.0002408	17.0309998989
910.0	0.0002413	17.0780000687
910.0	0.0002415	17.1089999676
910.0	0.0002415	17.1559998989
910.0	0.0002415	17.2030000687
910.0	0.0002413	17.2339999676
910.0	0.0002413	17.2809998989
910.0	0.0002413	17.3120000362
910.0	0.0002413	17.3589999676
920.0	0.000253	17.6719999313
920.0	0.0002568	17.7030000687
920.0	0.0002593	17.75
920.0	0.0002613	17.7809998989
920.0	0.0002628	17.8280000687
920.0	0.000264	17.875
920.0	0.0002653	17.9059998989
920.0	0.0002663	17.9530000687
920.0	0.0002668	18.0
920.0	0.000267	18.0309998989
920.0	0.0002675	18.0780000687
920.0	0.000268	18.1089999676
920.0	0.000268	18.1559998989
920.0	0.0002683	18.2030000687
920.0	0.000268	18.2339999676
920.0	0.0002678	18.2809998989
920.0	0.0002678	18.3280000687
920.0	0.000268	18.3589999676
920.0	0.0002683	18.4059998989
920.0	0.000268	18.4370000362
920.0	0.000268	18.4839999676
920.0	0.000268	18.5309998989
920.0	0.0002678	18.5620000362
920.0	0.0002675	18.6089999676
920.0	0.0002678	18.6559998989
920.0	0.000268	18.6870000362
920.0	0.000268	18.7339999676
920.0	0.0002683	18.7660000324
920.0	0.0002683	18.8120000362
920.0	0.0002683	18.8589999676
920.0	0.0002683	18.8910000324
920.0	0.000268	18.9370000362
920.0	0.000268	18.9839999676
920.0	0.000268	19.0160000324
920.0	0.0002683	19.0620000362
920.0	0.0002683	19.1089999676
920.0	0.0002688	19.1410000324
930.0	0.00028	19.4370000362
930.0	0.0002833	19.4839999676
930.0	0.0002865	19.5309998989
930.0	0.0002888	19.5620000362
930.0	0.0002905	19.6089999676
930.0	0.000292	19.6410000324
930.0	0.0002933	19.6870000362
930.0	0.0002943	19.7339999676
930.0	0.0002945	19.7809998989
930.0	0.0002953	19.8120000362
930.0	0.0002958	19.8589999676
930.0	0.0002963	19.8910000324
930.0	0.0002963	19.9370000362
930.0	0.0002965	19.9839999676
930.0	0.0002965	20.0160000324
930.0	0.0002965	20.0620000362
930.0	0.000297	20.1089999676
930.0	0.000297	20.1410000324
930.0	0.0002968	20.1870000362
930.0	0.0002963	20.2339999676
930.0	0.0002963	20.2660000324
930.0	0.0002963	20.3120000362
930.0	0.0002965	20.3439998627
930.0	0.0002965	20.3910000324
930.0	0.0002963	20.4370000362
930.0	0.0002963	20.4689998627
930.0	0.0002963	20.5160000324
930.0	0.0002958	20.5620000362
930.0	0.0002958	20.5939998627
930.0	0.0002955	20.6410000324
930.0	0.0002958	20.6719999313
930.0	0.0002958	20.7189998627
930.0	0.0002963	20.7660000324
930.0	0.0002963	20.7969999313
930.0	0.0002958	20.8439998627
930.0	0.0002963	20.8910000324
930.0	0.0002965	20.9219999313
940.0	0.0003088	21.2189998627
940.0	0.0003125	21.2660000324
940.0	0.0003155	21.3120000362
940.0	0.000318	21.3439998627
940.0	0.00032	21.3910000324
940.0	0.0003213	21.4370000362
940.0	0.0003225	21.4689998627
940.0	0.000323	21.5160000324
940.0	0.000324	21.5469999313
940.0	0.0003243	21.5939998627
940.0	0.0003243	21.6410000324
940.0	0.0003245	21.6719999313
940.0	0.0003245	21.7189998627
940.0	0.000325	21.7660000324
940.0	0.000325	21.7969999313
940.0	0.0003253	21.8439998627
940.0	0.0003255	21.875
940.0	0.0003258	21.9219999313
940.0	0.0003258	21.9689998627
940.0	0.0003258	22.0
940.0	0.0003258	22.0469999313
940.0	0.0003255	22.0939998627
940.0	0.0003253	22.125
940.0	0.0003253	22.1719999313
940.0	0.000325	22.2030000687
940.0	0.000325	22.25
940.0	0.0003253	22.2969999313
940.0	0.0003253	22.3280000687
940.0	0.0003253	22.375
940.0	0.0003253	22.4219999313
940.0	0.0003253	22.4530000687
940.0	0.0003253	22.5
940.0	0.0003253	22.5469999313
940.0	0.0003253	22.5780000687
940.0	0.000325	22.625
940.0	0.000325	22.6559998989
940.0	0.000325	22.7030000687
950.0	0.0003365	23.0
950.0	0.0003405	23.0309998989
950.0	0.0003438	23.0780000687
950.0	0.0003465	23.125
950.0	0.0003488	23.1559998989
950.0	0.0003503	23.2030000687
950.0	0.0003513	23.25
950.0	0.0003525	23.2809998989
950.0	0.000353	23.3280000687
950.0	0.0003538	23.3589999676
950.0	0.000354	23.4059998989
950.0	0.0003543	23.4530000687
950.0	0.0003545	23.4839999676
950.0	0.000355	23.5309998989
950.0	0.0003553	23.5620000362
950.0	0.0003553	23.6089999676
950.0	0.0003555	23.6559998989
950.0	0.0003555	23.6870000362
950.0	0.0003558	23.7339999676
950.0	0.0003558	23.7809998989
950.0	0.0003555	23.8120000362
950.0	0.0003555	23.8589999676
950.0	0.0003553	23.9059998989
950.0	0.0003553	23.9370000362
950.0	0.0003553	23.9839999676
950.0	0.0003555	24.0309998989
950.0	0.0003558	24.0620000362
950.0	0.0003558	24.1089999676
950.0	0.0003558	24.1559998989
950.0	0.0003558	24.1870000362
950.0	0.0003563	24.2339999676
950.0	0.0003563	24.2660000324
950.0	0.0003565	24.3120000362
950.0	0.0003565	24.3589999676
950.0	0.0003568	24.3910000324
950.0	0.0003568	24.4370000362
950.0	0.0003565	24.4839999676
960.0	0.000367	24.7660000324
960.0	0.0003708	24.8120000362
960.0	0.000374	24.8439998627
960.0	0.000377	24.8910000324
960.0	0.0003793	24.9370000362
960.0	0.0003805	24.9689998627
960.0	0.0003818	25.0160000324
960.0	0.0003828	25.0469999313
960.0	0.0003838	25.0939998627
960.0	0.0003843	25.1410000324
960.0	0.0003843	25.1719999313
960.0	0.0003845	25.2189998627
960.0	0.000385	25.2660000324
960.0	0.000385	25.2969999313
960.0	0.0003853	25.3439998627
960.0	0.000385	25.3910000324
960.0	0.0003853	25.4219999313
960.0	0.0003853	25.4689998627
960.0	0.0003853	25.5160000324
960.0	0.0003853	25.5469999313
960.0	0.0003853	25.5939998627
960.0	0.0003853	25.625
960.0	0.0003853	25.6719999313
960.0	0.0003853	25.7189998627
960.0	0.0003855	25.75
960.0	0.0003855	25.7969999313
960.0	0.0003855	25.8439998627
960.0	0.0003855	25.875
960.0	0.0003855	25.9219999313
960.0	0.0003855	25.9530000687
960.0	0.0003855	26.0
960.0	0.0003853	26.0469999313
960.0	0.0003853	26.0780000687
960.0	0.0003853	26.125
960.0	0.0003853	26.1719999313
960.0	0.0003855	26.2030000687
960.0	0.0003853	26.25
970.0	0.0003963	26.5309998989
970.0	0.0004003	26.5780000687
970.0	0.0004033	26.6089999676
970.0	0.0004058	26.6559998989
970.0	0.0004078	26.7030000687
970.0	0.0004093	26.7339999676
970.0	0.0004108	26.7809998989
970.0	0.0004118	26.8280000687
970.0	0.000412	26.8589999676
970.0	0.0004125	26.9059998989
970.0	0.000413	26.9530000687
970.0	0.0004133	26.9839999676
970.0	0.0004138	27.0309998989
970.0	0.0004138	27.0620000362
970.0	0.000414	27.1089999676
970.0	0.000414	27.1559998989
970.0	0.0004138	27.1870000362
970.0	0.0004138	27.2339999676
970.0	0.0004138	27.2809998989
970.0	0.0004138	27.3120000362
970.0	0.0004133	27.3589999676
970.0	0.0004133	27.4059998989
970.0	0.0004133	27.4370000362
970.0	0.0004133	27.4839999676
970.0	0.0004138	27.5309998989
970.0	0.000414	27.5620000362
970.0	0.0004143	27.6089999676
970.0	0.0004143	27.6410000324
970.0	0.0004145	27.6870000362
970.0	0.0004143	27.7339999676
970.0	0.000414	27.7660000324
970.0	0.0004143	27.8120000362
970.0	0.0004143	27.8589999676
970.0	0.0004143	27.8910000324
970.0	0.000414	27.9370000362
970.0	0.0004138	27.9839999676
980.0	0.0004258	28.25
980.0	0.00043	28.2969999313
980.0	0.000433	28.3439998627
980.0	0.0004355	28.375
980.0	0.0004378	28.4219999313
980.0	0.0004393	28.4689998627
980.0	0.0004408	28.5
980.0	0.0004418	28.5469999313
980.0	0.0004428	28.5780000687
980.0	0.000443	28.625
980.0	0.000443	28.6719999313
980.0	0.000443	28.7030000687
980.0	0.000443	28.75
980.0	0.0004433	28.7969999313
980.0	0.0004433	28.8280000687
980.0	0.000443	28.875
980.0	0.000443	28.9219999313
980.0	0.000443	28.9530000687
980.0	0.0004428	29.0
980.0	0.000443	29.0309998989
980.0	0.000443	29.0780000687
980.0	0.000443	29.125
980.0	0.000443	29.1559998989
980.0	0.000443	29.2030000687
980.0	0.000443	29.25
980.0	0.0004433	29.2809998989
980.0	0.0004433	29.3280000687
980.0	0.0004433	29.3589999676
980.0	0.0004433	29.4059998989
980.0	0.0004433	29.4530000687
980.0	0.0004433	29.4839999676
980.0	0.000443	29.5309998989
980.0	0.000443	29.5780000687
980.0	0.000443	29.6089999676
980.0	0.0004433	29.6559998989
980.0	0.0004433	29.6870000362
980.0	0.0004438	29.7339999676
990.0	0.0004545	30.0160000324
990.0	0.0004588	30.0620000362
990.0	0.0004618	30.0939998627
990.0	0.0004643	30.1410000324
990.0	0.0004663	30.1719999313
990.0	0.000468	30.2189998627
990.0	0.0004693	30.2660000324
990.0	0.0004705	30.2969999313
990.0	0.0004715	30.3439998627
990.0	0.0004718	30.3910000324
990.0	0.000472	30.4219999313
990.0	0.000472	30.4689998627
990.0	0.0004725	30.5
990.0	0.0004728	30.5469999313
990.0	0.000473	30.5939998627
990.0	0.000473	30.625
990.0	0.0004725	30.6719999313
990.0	0.0004725	30.7189998627
990.0	0.0004725	30.75
990.0	0.0004728	30.7969999313
990.0	0.0004728	30.8280000687
990.0	0.0004728	30.875
990.0	0.0004725	30.9219999313
990.0	0.000472	30.9530000687
990.0	0.0004725	31.0
990.0	0.0004725	31.0469999313
990.0	0.000472	31.0780000687
990.0	0.000472	31.125
990.0	0.0004725	31.1719999313
990.0	0.0004725	31.2030000687
990.0	0.0004728	31.25
990.0	0.0004728	31.2809998989
990.0	0.0004728	31.3280000687
990.0	0.0004728	31.375
990.0	0.000473	31.4059998989
990.0	0.0004728	31.4530000687
990.0	0.0004725	31.5
1000.0	0.0004845	31.7660000324
1000.0	0.000489	31.8120000362
1000.0	0.0004925	31.8589999676
1000.0	0.0004955	31.8910000324
1000.0	0.0004975	31.9370000362
1000.0	0.0004988	31.9839999676
1000.0	0.0005	32.0160000324
1000.0	0.0005005	32.0620000362
1000.0	0.0005013	32.0939998627
1000.0	0.0005015	32.1410000324
1000.0	0.000502	32.1870000362
1000.0	0.0005025	32.2189998627
1000.0	0.0005028	32.2660000324
1000.0	0.0005028	32.3120000362
1000.0	0.0005028	32.3439998627
1000.0	0.000503	32.3910000324
1000.0	0.000503	32.4219999313
1000.0	0.0005033	32.4689998627
1000.0	0.000503	32.5160000324
1000.0	0.0005028	32.5469999313
1000.0	0.000503	32.5939998627
1000.0	0.0005038	32.6410000324
1000.0	0.000504	32.6719999313
1000.0	0.0005043	32.7189998627
1000.0	0.0005043	32.7660000324
1000.0	0.0005043	32.7969999313
1000.0	0.000504	32.8439998627
1000.0	0.0005038	32.875
1000.0	0.0005033	32.9219999313
1000.0	0.000503	32.9689998627
1000.0	0.000503	33.0
1000.0	0.000503	33.0469999313
1000.0	0.000503	33.0939998627
1000.0	0.000503	33.125
1000.0	0.0005028	33.1719999313
1000.0	0.0005028	33.2030000687
1000.0	0.0005028	33.25
1010.0	0.0005133	33.5309998989
1010.0	0.000517	33.5780000687
1010.0	0.0005208	33.6089999676
1010.0	0.000524	33.6559998989
1010.0	0.0005265	33.7030000687
1010.0	0.0005283	33.7339999676
1010.0	0.0005295	33.7809998989
1010.0	0.0005305	33.8280000687
1010.0	0.0005313	33.8589999676
1010.0	0.0005318	33.9059998989
1010.0	0.0005325	33.9370000362
1010.0	0.0005325	33.9839999676
1010.0	0.0005328	34.0309998989
1010.0	0.000533	34.0620000362
1010.0	0.0005333	34.1089999676
1010.0	0.0005333	34.1559998989
1010.0	0.0005333	34.1870000362
1010.0	0.0005338	34.2339999676
1010.0	0.0005338	34.2809998989
1010.0	0.000533	34.3120000362
1010.0	0.000533	34.3589999676
1010.0	0.000533	34.3910000324
1010.0	0.000533	34.4370000362
1010.0	0.000533	34.4839999676
1010.0	0.000533	34.5160000324
1010.0	0.0005328	34.5620000362
1010.0	0.000533	34.6089999676
1010.0	0.000533	34.6410000324
1010.0	0.0005333	34.6870000362
1010.0	0.000534	34.7189998627
1010.0	0.000534	34.7660000324
1010.0	0.000534	34.8120000362
1010.0	0.000534	34.8439998627
1010.0	0.0005338	34.8910000324
1010.0	0.0005338	34.9370000362
1010.0	0.0005338	34.9839999676
1020.0	0.0005458	35.2660000324
1020.0	0.00055	35.2969999313
1020.0	0.000553	35.3439998627
1020.0	0.0005558	35.3910000324
1020.0	0.000558	35.4219999313
1020.0	0.0005593	35.4689998627
1020.0	0.0005605	35.5160000324
1020.0	0.0005615	35.5469999313
1020.0	0.0005625	35.5939998627
1020.0	0.000563	35.6410000324
1020.0	0.0005638	35.6719999313
1020.0	0.0005638	35.7189998627
1020.0	0.000564	35.75
1020.0	0.0005638	35.7969999313
1020.0	0.0005638	35.8439998627
1020.0	0.0005638	35.875
1020.0	0.0005638	35.9219999313
1020.0	0.000564	35.9689998627
1020.0	0.0005643	36.0
1020.0	0.0005643	36.0469999313
1020.0	0.000564	36.0780000687
1020.0	0.0005638	36.125
1020.0	0.0005638	36.1719999313
1020.0	0.0005638	36.2030000687
1020.0	0.0005638	36.25
1020.0	0.000564	36.2969999313
1020.0	0.0005643	36.3280000687
1020.0	0.0005645	36.375
1020.0	0.000565	36.4219999313
1020.0	0.000565	36.4530000687
1020.0	0.000565	36.5
1020.0	0.0005653	36.5469999313
1020.0	0.000565	36.5780000687
1020.0	0.000565	36.625
1020.0	0.0005645	36.6719999313
1020.0	0.0005643	36.7030000687
1020.0	0.0005645	36.75
1030.0	0.0005758	37.0309998989
1030.0	0.00058	37.0780000687
1030.0	0.000583	37.1089999676
1030.0	0.0005863	37.1559998989
1030.0	0.0005883	37.1870000362
1030.0	0.00059	37.2339999676
1030.0	0.0005913	37.2809998989
1030.0	0.0005925	37.3120000362
1030.0	0.0005933	37.3589999676
1030.0	0.0005943	37.4059998989
1030.0	0.000595	37.4370000362
1030.0	0.000595	37.4839999676
1030.0	0.000595	37.5160000324
1030.0	0.000595	37.5620000362
1030.0	0.000595	37.6089999676
1030.0	0.000595	37.6410000324
1030.0	0.000595	37.6870000362
1030.0	0.0005945	37.7339999676
1030.0	0.000595	37.7660000324
1030.0	0.0005953	37.8120000362
1030.0	0.0005953	37.8439998627
1030.0	0.000595	37.8910000324
1030.0	0.0005953	37.9370000362
1030.0	0.0005955	37.9689998627
1030.0	0.0005953	38.0160000324
1030.0	0.0005945	38.0620000362
1030.0	0.0005943	38.0939998627
1030.0	0.0005945	38.1410000324
1030.0	0.0005943	38.1719999313
1030.0	0.000594	38.2189998627
1030.0	0.000594	38.2660000324
1030.0	0.0005943	38.2969999313
1030.0	0.0005945	38.3439998627
1030.0	0.0005945	38.3910000324
1030.0	0.0005945	38.4219999313
1030.0	0.000595	38.4689998627
1030.0	0.000595	38.5160000324
1040.0	0.000607	38.7969999313
1040.0	0.0006105	38.8280000687
1040.0	0.0006138	38.875
1040.0	0.0006168	38.9219999313
1040.0	0.000619	38.9530000687
1040.0	0.0006208	39.0
1040.0	0.000622	39.0309998989
1040.0	0.000623	39.0780000687
1040.0	0.0006238	39.125
1040.0	0.0006243	39.1559998989
1040.0	0.0006245	39.2030000687
1040.0	0.000625	39.25
1040.0	0.0006253	39.2809998989
1040.0	0.0006253	39.3280000687
1040.0	0.000625	39.375
1040.0	0.000625	39.4059998989
1040.0	0.000625	39.4530000687
1040.0	0.0006253	39.5
1040.0	0.0006255	39.5309998989
1040.0	0.0006255	39.5780000687
1040.0	0.0006255	39.625
1040.0	0.0006255	39.6559998989
1040.0	0.0006253	39.7030000687
1040.0	0.0006253	39.7339999676
1040.0	0.0006253	39.7809998989
1040.0	0.0006255	39.8280000687
1040.0	0.0006255	39.8589999676
1040.0	0.0006258	39.9059998989
1040.0	0.0006255	39.9530000687
1040.0	0.0006253	39.9839999676
1040.0	0.000625	40.0309998989
1040.0	0.000625	40.0620000362
1040.0	0.000625	40.1089999676
1040.0	0.000625	40.1559998989
1040.0	0.0006253	40.1870000362
1040.0	0.000625	40.2339999676
1040.0	0.0006253	40.2809998989
1050.0	0.000637	40.5620000362
1050.0	0.0006405	40.5939998627
1050.0	0.000644	40.6410000324
1050.0	0.0006468	40.6870000362
1050.0	0.000649	40.7189998627
1050.0	0.000651	40.7660000324
1050.0	0.0006523	40.8120000362
1050.0	0.000653	40.8439998627
1050.0	0.0006538	40.8910000324
1050.0	0.000654	40.9370000362
1050.0	0.0006543	40.9689998627
1050.0	0.0006548	41.0160000324
1050.0	0.000655	41.0620000362
1050.0	0.0006553	41.0939998627
1050.0	0.0006555	41.1410000324
1050.0	0.000656	41.1719999313
1050.0	0.000656	41.2189998627
1050.0	0.000656	41.2660000324
1050.0	0.000656	41.2969999313
1050.0	0.0006563	41.3439998627
1050.0	0.0006563	41.3910000324
1050.0	0.0006563	41.4219999313
1050.0	0.0006563	41.4689998627
1050.0	0.0006565	41.5
1050.0	0.0006565	41.5469999313
1050.0	0.0006568	41.5939998627
1050.0	0.0006565	41.625
1050.0	0.0006563	41.6719999313
1050.0	0.000656	41.7189998627
1050.0	0.0006555	41.75
1050.0	0.0006553	41.7969999313
1050.0	0.000655	41.8280000687
1050.0	0.000655	41.875
1050.0	0.0006548	41.9219999313
1050.0	0.0006548	41.9530000687
1050.0	0.0006543	42.0
1050.0	0.0006548	42.0469999313
1060.0	0.0006673	42.3120000362
1060.0	0.0006713	42.3589999676
1060.0	0.0006748	42.4059998989
1060.0	0.0006775	42.4370000362
1060.0	0.0006798	42.4839999676
1060.0	0.0006813	42.5309998989
1060.0	0.0006823	42.5620000362
1060.0	0.0006828	42.6089999676
1060.0	0.0006835	42.6410000324
1060.0	0.0006838	42.6870000362
1060.0	0.000684	42.7339999676
1060.0	0.000684	42.7660000324
1060.0	0.0006843	42.8120000362
1060.0	0.0006848	42.8589999676
1060.0	0.0006843	42.8910000324
1060.0	0.0006843	42.9370000362
1060.0	0.000684	42.9839999676
1060.0	0.0006835	43.0160000324
1060.0	0.0006835	43.0620000362
1060.0	0.0006835	43.0939998627
1060.0	0.0006835	43.1410000324
1060.0	0.0006835	43.1870000362
1060.0	0.0006838	43.2189998627
1060.0	0.0006843	43.2660000324
1060.0	0.0006848	43.3120000362
1060.0	0.0006853	43.3439998627
1060.0	0.000685	43.3910000324
1060.0	0.0006853	43.4219999313
1060.0	0.0006853	43.4689998627
1060.0	0.0006855	43.5160000324
1060.0	0.000686	43.5469999313
1060.0	0.000686	43.5939998627
1060.0	0.0006855	43.6410000324
1060.0	0.0006855	43.6719999313
1060.0	0.0006855	43.7189998627
1060.0	0.0006855	43.75
1060.0	0.0006855	43.7969999313
1070.0	0.0006965	44.0780000687
1070.0	0.0007005	44.125
1070.0	0.0007038	44.1719999313
1070.0	0.0007063	44.2030000687
1070.0	0.000708	44.25
1070.0	0.0007093	44.2809998989
1070.0	0.0007105	44.3280000687
1070.0	0.0007115	44.375
1070.0	0.0007123	44.4059998989
1070.0	0.0007128	44.4530000687
1070.0	0.000713	44.5
1070.0	0.0007135	44.5309998989
1070.0	0.000714	44.5780000687
1070.0	0.0007143	44.6089999676
1070.0	0.0007143	44.6559998989
1070.0	0.0007143	44.7030000687
1070.0	0.000714	44.7339999676
1070.0	0.000714	44.7809998989
1070.0	0.000714	44.8280000687
1070.0	0.000714	44.8589999676
1070.0	0.0007143	44.9059998989
1070.0	0.0007143	44.9370000362
1070.0	0.000714	44.9839999676
1070.0	0.0007143	45.0309998989
1070.0	0.0007148	45.0620000362
1070.0	0.000715	45.1089999676
1070.0	0.0007153	45.1559998989
1070.0	0.0007148	45.1870000362
1070.0	0.0007143	45.2339999676
1070.0	0.000714	45.2660000324
1070.0	0.0007138	45.3120000362
1070.0	0.000714	45.3589999676
1070.0	0.000714	45.3910000324
1070.0	0.0007138	45.4370000362
1070.0	0.0007138	45.4839999676
1070.0	0.000714	45.5160000324
1070.0	0.0007143	45.5620000362
1080.0	0.0007248	45.8439998627
1080.0	0.000728	45.8910000324
1080.0	0.0007313	45.9219999313
1080.0	0.000734	45.9689998627
1080.0	0.000736	46.0160000324
1080.0	0.0007375	46.0469999313
1080.0	0.0007388	46.0939998627
1080.0	0.0007398	46.125
1080.0	0.0007398	46.1719999313
1080.0	0.00074	46.2189998627
1080.0	0.0007403	46.2660000324
1080.0	0.0007405	46.2969999313
1080.0	0.000741	46.3439998627
1080.0	0.000741	46.375
1080.0	0.0007413	46.4219999313
1080.0	0.0007415	46.4689998627
1080.0	0.0007418	46.5
1080.0	0.0007423	46.5469999313
1080.0	0.0007423	46.5939998627
1080.0	0.0007423	46.625
1080.0	0.0007423	46.6719999313
1080.0	0.0007423	46.7030000687
1080.0	0.0007423	46.75
1080.0	0.0007418	46.7969999313
1080.0	0.0007418	46.8280000687
1080.0	0.0007418	46.875
1080.0	0.0007415	46.9219999313
1080.0	0.0007415	46.9530000687
1080.0	0.0007415	47.0
1080.0	0.0007415	47.0469999313
1080.0	0.0007415	47.0780000687
1080.0	0.0007415	47.125
1080.0	0.0007415	47.1559998989
1080.0	0.0007418	47.2030000687
1080.0	0.0007418	47.25
1080.0	0.0007418	47.2809998989
1080.0	0.0007423	47.3280000687
1090.0	0.0007518	47.6089999676
1090.0	0.0007548	47.6559998989
1090.0	0.0007573	47.6870000362
1090.0	0.0007598	47.7339999676
1090.0	0.0007613	47.7809998989
1090.0	0.0007628	47.8120000362
1090.0	0.0007638	47.8589999676
1090.0	0.0007643	47.9059998989
1090.0	0.000765	47.9370000362
1090.0	0.0007653	47.9839999676
1090.0	0.0007655	48.0309998989
1090.0	0.000766	48.0620000362
1090.0	0.000766	48.1089999676
1090.0	0.000766	48.1410000324
1090.0	0.000766	48.1870000362
1090.0	0.0007663	48.2339999676
1090.0	0.000766	48.2660000324
1090.0	0.000766	48.3120000362
1090.0	0.0007665	48.3589999676
1090.0	0.0007665	48.3910000324
1090.0	0.0007673	48.4370000362
1090.0	0.0007675	48.4839999676
1090.0	0.0007678	48.5160000324
1090.0	0.000768	48.5620000362
1090.0	0.000768	48.5939998627
1090.0	0.0007678	48.6410000324
1090.0	0.0007678	48.6870000362
1090.0	0.0007673	48.7189998627
1090.0	0.0007673	48.7660000324
1090.0	0.0007673	48.8120000362
1090.0	0.0007668	48.8439998627
1090.0	0.0007668	48.8910000324
1090.0	0.0007673	48.9219999313
1090.0	0.0007673	48.9689998627
1090.0	0.0007673	49.0160000324
1090.0	0.0007668	49.0469999313
1090.0	0.0007665	49.0939998627
1100.0	0.0007755	49.375
1100.0	0.0007788	49.4219999313
1100.0	0.000781	49.4530000687
1100.0	0.0007825	49.5
1100.0	0.0007838	49.5469999313
1100.0	0.000785	49.5780000687
1100.0	0.000786	49.625
1100.0	0.0007865	49.6559998989
1100.0	0.0007873	49.7030000687
1100.0	0.0007875	49.75
1100.0	0.0007878	49.7809998989
1100.0	0.000788	49.8280000687
1100.0	0.000788	49.875
1100.0	0.000788	49.9059998989
1100.0	0.0007885	49.9530000687
1100.0	0.000789	49.9839999676
1100.0	0.000789	50.0309998989
1100.0	0.0007893	50.0780000687
1100.0	0.0007898	50.1089999676
1100.0	0.0007898	50.1559998989
1100.0	0.0007898	50.2030000687
1100.0	0.0007898	50.2339999676
1100.0	0.0007898	50.2809998989
1100.0	0.0007898	50.3120000362
1100.0	0.0007893	50.3589999676
1100.0	0.000789	50.4059998989
1100.0	0.000789	50.4530000687
1100.0	0.0007888	50.4839999676
1100.0	0.0007885	50.5309998989
1100.0	0.0007885	50.5780000687
1100.0	0.0007885	50.6089999676
1100.0	0.0007888	50.6559998989
1100.0	0.000789	50.6870000362
1100.0	0.0007893	50.7339999676
1100.0	0.0007898	50.7809998989
1100.0	0.0007893	50.8280000687
1110.0	0.0007963	51.0939998627
1110.0	0.0007988	51.1410000324
1110.0	0.000801	51.1870000362
1110.0	0.0008028	51.2189998627
1110.0	0.000804	51.2660000324
1110.0	0.0008053	51.3120000362
1110.0	0.000806	51.3439998627
1110.0	0.000806	51.3910000324
1110.0	0.000806	51.4370000362
1110.0	0.0008063	51.4689998627
1110.0	0.0008065	51.5160000324
1110.0	0.0008068	51.5469999313
1110.0	0.0008068	51.5939998627
1110.0	0.0008068	51.6410000324
1110.0	0.0008068	51.6719999313
1110.0	0.0008068	51.7189998627
1110.0	0.0008073	51.7660000324
1110.0	0.0008075	51.7969999313
1110.0	0.0008078	51.8439998627
1110.0	0.0008078	51.8910000324
1110.0	0.0008078	51.9219999313
1110.0	0.000808	51.9689998627
1110.0	0.0008078	52.0160000324
1110.0	0.0008078	52.0469999313
1110.0	0.000808	52.0939998627
1110.0	0.000808	52.125
1110.0	0.000808	52.1719999313
1110.0	0.000808	52.2189998627
1110.0	0.000808	52.25
1110.0	0.0008085	52.2969999313
1110.0	0.0008088	52.3439998627
1110.0	0.0008088	52.375
1110.0	0.0008085	52.4219999313
1110.0	0.0008085	52.4530000687
1110.0	0.000808	52.5
1110.0	0.0008078	52.5469999313
1110.0	0.0008078	52.5780000687
1120.0	0.0008135	52.8589999676
1120.0	0.0008153	52.9059998989
1120.0	0.0008173	52.9370000362
1120.0	0.0008188	52.9839999676
1120.0	0.0008203	53.0309998989
1120.0	0.0008215	53.0620000362
1120.0	0.0008223	53.1089999676
1120.0	0.0008225	53.1410000324
1120.0	0.0008228	53.1870000362
1120.0	0.0008225	53.2339999676
1120.0	0.0008225	53.2660000324
1120.0	0.0008225	53.3120000362
1120.0	0.0008225	53.3589999676
1120.0	0.0008225	53.3910000324
1120.0	0.0008225	53.4370000362
1120.0	0.0008228	53.4689998627
1120.0	0.0008228	53.5160000324
1120.0	0.0008228	53.5620000362
1120.0	0.000823	53.5939998627
1120.0	0.0008235	53.6410000324
1120.0	0.000824	53.6870000362
1120.0	0.000824	53.7189998627
1120.0	0.000824	53.7660000324
1120.0	0.000824	53.7969999313
1120.0	0.000824	53.8439998627
1120.0	0.000824	53.8910000324
1120.0	0.000824	53.9219999313
1120.0	0.000824	53.9689998627
1120.0	0.000824	54.0160000324
1120.0	0.000824	54.0469999313
1120.0	0.0008238	54.0939998627
1120.0	0.0008235	54.125
1120.0	0.000823	54.1719999313
1120.0	0.0008235	54.2189998627
1120.0	0.0008235	54.25
1120.0	0.000823	54.2969999313
1120.0	0.0008228	54.3439998627
1130.0	0.0008278	54.6089999676
1130.0	0.0008298	54.6559998989
1130.0	0.0008313	54.6870000362
1130.0	0.0008323	54.7339999676
1130.0	0.0008328	54.7809998989
1130.0	0.000833	54.8120000362
1130.0	0.0008338	54.8589999676
1130.0	0.0008343	54.9059998989
1130.0	0.0008343	54.9370000362
1130.0	0.0008348	54.9839999676
1130.0	0.000835	55.0160000324
1130.0	0.000835	55.0620000362
1130.0	0.0008353	55.1089999676
1130.0	0.0008353	55.1410000324
1130.0	0.0008353	55.1870000362
1130.0	0.0008353	55.2339999676
1130.0	0.0008353	55.2660000324
1130.0	0.0008353	55.3120000362
1130.0	0.0008353	55.3589999676
1130.0	0.000835	55.3910000324
1130.0	0.0008353	55.4370000362
1130.0	0.0008353	55.4689998627
1130.0	0.000835	55.5160000324
1130.0	0.000835	55.5620000362
1130.0	0.0008353	55.5939998627
1130.0	0.0008353	55.6410000324
1130.0	0.000835	55.6870000362
1130.0	0.0008353	55.7189998627
1130.0	0.000836	55.7660000324
1130.0	0.0008363	55.7969999313
1130.0	0.0008363	55.8439998627
1130.0	0.0008363	55.8910000324
1130.0	0.0008355	55.9219999313
1130.0	0.000835	55.9689998627
1130.0	0.0008348	56.0160000324
1130.0	0.0008348	56.0469999313
1130.0	0.0008348	56.0939998627
1140.0	0.0008375	56.3589999676
1140.0	0.0008388	56.4059998989
1140.0	0.00084	56.4370000362
1140.0	0.000841	56.4839999676
1140.0	0.0008415	56.5309998989
1140.0	0.0008425	56.5620000362
1140.0	0.0008428	56.6089999676
1140.0	0.000843	56.6559998989
1140.0	0.000843	56.6870000362
1140.0	0.000843	56.7339999676
1140.0	0.0008438	56.7660000324
1140.0	0.000844	56.8120000362
1140.0	0.000844	56.8589999676
1140.0	0.000844	56.8910000324
1140.0	0.0008443	56.9370000362
1140.0	0.0008448	56.9839999676
1140.0	0.000845	57.0160000324
1140.0	0.0008448	57.0620000362
1140.0	0.0008443	57.1089999676
1140.0	0.0008443	57.1410000324
1140.0	0.0008443	57.1870000362
1140.0	0.0008443	57.2189998627
1140.0	0.0008443	57.2660000324
1140.0	0.000844	57.3120000362
1140.0	0.0008443	57.3439998627
1140.0	0.0008443	57.3910000324
1140.0	0.0008443	57.4370000362
1140.0	0.0008443	57.4689998627
1140.0	0.0008448	57.5160000324
1140.0	0.0008448	57.5469999313
1140.0	0.0008448	57.5939998627
1140.0	0.0008448	57.6410000324
1140.0	0.0008443	57.6719999313
1140.0	0.000844	57.7189998627
1140.0	0.000844	57.7660000324
1140.0	0.000844	57.7969999313
1140.0	0.0008443	57.8439998627
1150.0	0.0008468	58.1089999676
1150.0	0.000848	58.1559998989
1150.0	0.000849	58.1870000362
1150.0	0.0008503	58.2339999676
1150.0	0.000851	58.2809998989
1150.0	0.000851	58.3120000362
1150.0	0.000851	58.3589999676
1150.0	0.0008513	58.4059998989
1150.0	0.0008515	58.4370000362
1150.0	0.0008518	58.4839999676
1150.0	0.0008523	58.5160000324
1150.0	0.0008525	58.5620000362
1150.0	0.0008528	58.6089999676
1150.0	0.0008525	58.6410000324
1150.0	0.0008525	58.6870000362
1150.0	0.0008525	58.7339999676
1150.0	0.0008528	58.7660000324
1150.0	0.0008525	58.8120000362
1150.0	0.0008525	58.8439998627
1150.0	0.0008528	58.8910000324
1150.0	0.0008528	58.9370000362
1150.0	0.000853	58.9689998627
1150.0	0.0008528	59.0160000324
1150.0	0.0008525	59.0620000362
1150.0	0.0008525	59.0939998627
1150.0	0.0008523	59.1410000324
1150.0	0.0008528	59.1870000362
1150.0	0.000853	59.2189998627
1150.0	0.0008535	59.2660000324
1150.0	0.0008535	59.2969999313
1150.0	0.0008535	59.3439998627
1150.0	0.000853	59.3910000324
1150.0	0.0008528	59.4219999313
1150.0	0.0008528	59.4689998627
1150.0	0.0008525	59.5160000324
1150.0	0.0008528	59.5469999313
1150.0	0.0008525	59.5939998627
1160.0	0.000854	59.8589999676
1160.0	0.0008548	59.8910000324
1160.0	0.0008553	59.9370000362
1160.0	0.0008565	59.9839999676
1160.0	0.0008573	60.0160000324
1160.0	0.0008575	60.0620000362
1160.0	0.000858	60.0939998627
1160.0	0.0008585	60.1410000324
1160.0	0.0008588	60.1870000362
1160.0	0.000859	60.2189998627
1160.0	0.000859	60.2660000324
1160.0	0.000859	60.3120000362
1160.0	0.0008593	60.3439998627
1160.0	0.0008593	60.3910000324
1160.0	0.0008588	60.4219999313
1160.0	0.0008585	60.4689998627
1160.0	0.000858	60.5160000324
1160.0	0.0008578	60.5469999313
1160.0	0.000858	60.5939998627
1160.0	0.0008578	60.6410000324
1160.0	0.0008578	60.6719999313
1160.0	0.000858	60.7189998627
1160.0	0.0008585	60.75
1160.0	0.0008585	60.7969999313
1160.0	0.0008588	60.8439998627
1160.0	0.000859	60.875
1160.0	0.000859	60.9219999313
1160.0	0.0008593	60.9689998627
1160.0	0.0008598	61.0160000324
1160.0	0.0008598	61.0469999313
1160.0	0.0008598	61.0939998627
1160.0	0.0008593	61.125
1160.0	0.0008593	61.1719999313
1160.0	0.0008598	61.2189998627
1160.0	0.0008593	61.25
1160.0	0.0008598	61.2969999313
1160.0	0.0008598	61.3439998627
1170.0	0.0008605	61.5939998627
1170.0	0.0008613	61.6410000324
1170.0	0.0008618	61.6719999313
1170.0	0.0008623	61.7189998627
1170.0	0.0008628	61.7660000324
1170.0	0.0008628	61.7969999313
1170.0	0.0008635	61.8439998627
1170.0	0.0008638	61.875
1170.0	0.0008638	61.9219999313
1170.0	0.000864	61.9689998627
1170.0	0.000864	62.0
1170.0	0.000864	62.0469999313
1170.0	0.000864	62.0939998627
1170.0	0.0008643	62.125
1170.0	0.0008643	62.1719999313
1170.0	0.0008648	62.2189998627
1170.0	0.0008648	62.25
1170.0	0.0008643	62.2969999313
1170.0	0.0008643	62.3280000687
1170.0	0.0008648	62.375
1170.0	0.0008648	62.4219999313
1170.0	0.0008653	62.4689998627
1170.0	0.0008653	62.5
1170.0	0.000865	62.5469999313
1170.0	0.0008648	62.5780000687
1170.0	0.0008648	62.625
1170.0	0.0008648	62.6719999313
1170.0	0.0008643	62.7030000687
1170.0	0.0008643	62.75
1170.0	0.0008643	62.7969999313
1170.0	0.0008643	62.8280000687
1170.0	0.0008643	62.875
1170.0	0.0008643	62.9059998989
1170.0	0.0008643	62.9530000687
1170.0	0.0008643	63.0
1170.0	0.0008643	63.0309998989
1170.0	0.000864	63.0780000687
1180.0	0.0008673	63.3439998627
1180.0	0.000868	63.375
1180.0	0.0008688	63.4219999313
1180.0	0.0008693	63.4530000687
1180.0	0.0008693	63.5
1180.0	0.0008698	63.5469999313
1180.0	0.00087	63.5780000687
1180.0	0.0008703	63.625
1180.0	0.0008703	63.6719999313
1180.0	0.00087	63.7030000687
1180.0	0.0008703	63.75
1180.0	0.0008703	63.7809998989
1180.0	0.0008703	63.8280000687
1180.0	0.00087	63.875
1180.0	0.0008703	63.9059998989
1180.0	0.0008703	63.9530000687
1180.0	0.0008705	64.0
1180.0	0.000871	64.0309998989
1180.0	0.0008705	64.0780000687
1180.0	0.0008705	64.125
1180.0	0.0008705	64.1559998989
1180.0	0.000871	64.2030000687
1180.0	0.000871	64.25
1180.0	0.0008713	64.2809998989
1180.0	0.0008713	64.3280000687
1180.0	0.000871	64.3589999676
1180.0	0.0008713	64.4059998989
1180.0	0.0008713	64.4530000687
1180.0	0.0008715	64.4839999676
1180.0	0.0008713	64.5309998989
1180.0	0.000871	64.5780000687
1180.0	0.000871	64.6089999676
1180.0	0.000871	64.6559998989
1180.0	0.00087	64.7030000687
1180.0	0.00087	64.7339999676
1180.0	0.00087	64.7809998989
1180.0	0.0008703	64.8120000362
1190.0	0.0008723	65.0780000687
1190.0	0.0008728	65.125
1190.0	0.0008738	65.1559998989
1190.0	0.0008743	65.2030000687
1190.0	0.000875	65.2339999676
1190.0	0.0008753	65.2809998989
1190.0	0.0008755	65.3280000687
1190.0	0.0008755	65.3589999676
1190.0	0.000876	65.4059998989
1190.0	0.000876	65.4530000687
1190.0	0.0008763	65.4839999676
1190.0	0.0008763	65.5309998989
1190.0	0.0008768	65.5780000687
1190.0	0.0008775	65.6089999676
1190.0	0.0008778	65.6559998989
1190.0	0.0008775	65.7030000687
1190.0	0.0008773	65.7339999676
1190.0	0.0008773	65.7809998989
1190.0	0.0008775	65.8280000687
1190.0	0.0008775	65.8589999676
1190.0	0.0008773	65.9059998989
1190.0	0.0008773	65.9370000362
1190.0	0.0008773	65.9839999676
1190.0	0.0008773	66.0309998989
1190.0	0.0008775	66.0620000362
1190.0	0.0008778	66.1089999676
1190.0	0.0008775	66.1559998989
1190.0	0.0008768	66.1870000362
1190.0	0.0008765	66.2339999676
1190.0	0.0008765	66.2660000324
1190.0	0.0008768	66.3120000362
1190.0	0.0008773	66.3589999676
1190.0	0.0008773	66.3910000324
1190.0	0.0008775	66.4370000362
1190.0	0.0008775	66.4839999676
1190.0	0.0008775	66.5160000324
1200.0	0.00088	66.7809998989
1200.0	0.000881	66.8280000687
1200.0	0.0008815	66.8589999676
1200.0	0.0008823	66.9059998989
1200.0	0.0008828	66.9530000687
1200.0	0.000883	66.9839999676
1200.0	0.0008835	67.0309998989
1200.0	0.0008838	67.0620000362
1200.0	0.0008835	67.1089999676
1200.0	0.000883	67.1559998989
1200.0	0.000883	67.1870000362
1200.0	0.0008835	67.2339999676
1200.0	0.0008835	67.2809998989
1200.0	0.0008835	67.3120000362
1200.0	0.0008835	67.3589999676
1200.0	0.0008835	67.3910000324
1200.0	0.0008835	67.4370000362
1200.0	0.0008838	67.4839999676
1200.0	0.000884	67.5160000324
1200.0	0.0008843	67.5620000362
1200.0	0.0008843	67.6089999676
1200.0	0.000884	67.6410000324
1200.0	0.0008838	67.6870000362
1200.0	0.0008835	67.7339999676
1200.0	0.0008838	67.7660000324
1200.0	0.0008838	67.8120000362
1200.0	0.0008838	67.8439998627
1200.0	0.000884	67.8910000324
1200.0	0.0008848	67.9370000362
1200.0	0.0008853	67.9689998627
1200.0	0.0008853	68.0160000324
1200.0	0.000885	68.0620000362
1200.0	0.0008848	68.0939998627
1200.0	0.0008843	68.1410000324
1200.0	0.000884	68.1719999313
1200.0	0.0008838	68.2189998627
1200.0	0.0008838	68.2660000324
1210.0	0.000886	68.5160000324
1210.0	0.0008873	68.5620000362
1210.0	0.0008878	68.6089999676
1210.0	0.0008885	68.6410000324
1210.0	0.0008893	68.6870000362
1210.0	0.00089	68.7339999676
1210.0	0.000891	68.7660000324
1210.0	0.0008913	68.8120000362
1210.0	0.0008918	68.8589999676
1210.0	0.0008923	68.8910000324
1210.0	0.0008925	68.9370000362
1210.0	0.0008923	68.9689998627
1210.0	0.0008923	69.0160000324
1210.0	0.0008923	69.0620000362
1210.0	0.0008923	69.0939998627
1210.0	0.0008925	69.1410000324
1210.0	0.0008925	69.1870000362
1210.0	0.0008925	69.2189998627
1210.0	0.0008923	69.2660000324
1210.0	0.0008923	69.2969999313
1210.0	0.0008918	69.3439998627
1210.0	0.0008915	69.3910000324
1210.0	0.0008915	69.4219999313
1210.0	0.0008915	69.4689998627
1210.0	0.0008915	69.5160000324
1210.0	0.0008915	69.5469999313
1210.0	0.0008918	69.5939998627
1210.0	0.0008923	69.6410000324
1210.0	0.0008918	69.6719999313
1210.0	0.0008915	69.7189998627
1210.0	0.0008915	69.7660000324
1210.0	0.0008915	69.7969999313
1210.0	0.0008918	69.8439998627
1210.0	0.0008918	69.8910000324
1210.0	0.0008918	69.9219999313
1210.0	0.0008923	69.9689998627
1210.0	0.0008923	70.0
1220.0	0.000895	70.2809998989
1220.0	0.0008965	70.3120000362
1220.0	0.0008973	70.3589999676
1220.0	0.0008978	70.3910000324
1220.0	0.0008988	70.4370000362
1220.0	0.0008993	70.4839999676
1220.0	0.0009003	70.5160000324
1220.0	0.0009005	70.5620000362
1220.0	0.000901	70.6089999676
1220.0	0.000901	70.6410000324
1220.0	0.000901	70.6870000362
1220.0	0.000901	70.7189998627
1220.0	0.000901	70.7660000324
1220.0	0.0009013	70.8120000362
1220.0	0.0009015	70.8439998627
1220.0	0.0009015	70.8910000324
1220.0	0.0009015	70.9370000362
1220.0	0.0009018	70.9689998627
1220.0	0.0009018	71.0160000324
1220.0	0.0009018	71.0469999313
1220.0	0.0009018	71.0939998627
1220.0	0.0009013	71.1410000324
1220.0	0.0009013	71.1719999313
1220.0	0.0009013	71.2189998627
1220.0	0.0009013	71.2660000324
1220.0	0.0009015	71.2969999313
1220.0	0.0009018	71.3439998627
1220.0	0.0009023	71.375
1220.0	0.0009025	71.4219999313
1220.0	0.0009023	71.4689998627
1220.0	0.0009015	71.5
1220.0	0.0009015	71.5469999313
1220.0	0.0009013	71.5939998627
1220.0	0.0009013	71.625
1220.0	0.0009013	71.6719999313
1220.0	0.0009013	71.7189998627
1220.0	0.0009013	71.75
1230.0	0.0009048	72.0160000324
1230.0	0.0009063	72.0620000362
1230.0	0.0009075	72.1089999676
1230.0	0.0009085	72.1410000324
1230.0	0.000909	72.1870000362
1230.0	0.0009098	72.2339999676
1230.0	0.0009103	72.2660000324
1230.0	0.000911	72.3120000362
1230.0	0.0009115	72.3439998627
1230.0	0.0009115	72.3910000324
1230.0	0.0009123	72.4370000362
1230.0	0.0009123	72.4689998627
1230.0	0.0009125	72.5160000324
1230.0	0.0009125	72.5620000362
1230.0	0.0009123	72.5939998627
1230.0	0.0009123	72.6410000324
1230.0	0.0009118	72.6870000362
1230.0	0.0009115	72.7189998627
1230.0	0.0009123	72.7660000324
1230.0	0.0009125	72.7969999313
1230.0	0.0009128	72.8439998627
1230.0	0.000913	72.8910000324
1230.0	0.0009128	72.9219999313
1230.0	0.0009125	72.9689998627
1230.0	0.0009118	73.0160000324
1230.0	0.0009123	73.0469999313
1230.0	0.0009123	73.0939998627
1230.0	0.0009118	73.1410000324
1230.0	0.0009115	73.1719999313
1230.0	0.0009113	73.2189998627
1230.0	0.000911	73.2660000324
1230.0	0.000911	73.2969999313
1230.0	0.0009115	73.3439998627
1230.0	0.0009115	73.3910000324
1230.0	0.0009115	73.4219999313
1230.0	0.0009118	73.4689998627
1230.0	0.0009118	73.5
1240.0	0.0009153	73.7809998989
1240.0	0.0009173	73.8120000362
1240.0	0.000918	73.8589999676
1240.0	0.000919	73.9059998989
1240.0	0.0009203	73.9370000362
1240.0	0.000921	73.9839999676
1240.0	0.0009215	74.0309998989
1240.0	0.0009218	74.0620000362
1240.0	0.0009225	74.1089999676
1240.0	0.0009223	74.1410000324
1240.0	0.0009218	74.1870000362
1240.0	0.0009218	74.2339999676
1240.0	0.0009223	74.2660000324
1240.0	0.0009223	74.3120000362
1240.0	0.0009228	74.3589999676
1240.0	0.0009228	74.3910000324
1240.0	0.0009228	74.4370000362
1240.0	0.0009228	74.4689998627
1240.0	0.0009223	74.5160000324
1240.0	0.0009223	74.5620000362
1240.0	0.0009223	74.5939998627
1240.0	0.0009223	74.6410000324
1240.0	0.0009225	74.6870000362
1240.0	0.0009225	74.7189998627
1240.0	0.0009225	74.7660000324
1240.0	0.0009223	74.7969999313
1240.0	0.0009223	74.8439998627
1240.0	0.0009223	74.8910000324
1240.0	0.0009223	74.9219999313
1240.0	0.0009223	74.9689998627
1240.0	0.0009223	75.0160000324
1240.0	0.0009223	75.0469999313
1240.0	0.0009218	75.0939998627
1240.0	0.0009218	75.125
1240.0	0.0009223	75.1719999313
1240.0	0.0009228	75.2189998627
1240.0	0.000923	75.25
1250.0	0.0009265	75.5309998989
1250.0	0.0009275	75.5620000362
1250.0	0.0009288	75.6089999676
1250.0	0.00093	75.6559998989
1250.0	0.000931	75.6870000362
1250.0	0.0009313	75.7339999676
1250.0	0.0009318	75.7809998989
1250.0	0.0009323	75.8120000362
1250.0	0.0009323	75.8589999676
1250.0	0.0009318	75.9059998989
1250.0	0.0009323	75.9370000362
1250.0	0.0009318	75.9839999676
1250.0	0.0009318	76.0309998989
1250.0	0.0009318	76.0620000362
1250.0	0.0009318	76.1089999676
1250.0	0.0009318	76.1410000324
1250.0	0.0009323	76.1870000362
1250.0	0.0009323	76.2339999676
1250.0	0.0009328	76.2660000324
1250.0	0.0009325	76.3120000362
1250.0	0.0009323	76.3589999676
1250.0	0.0009325	76.3910000324
1250.0	0.0009325	76.4370000362
1250.0	0.0009325	76.4689998627
1250.0	0.0009328	76.5160000324
1250.0	0.0009328	76.5620000362
1250.0	0.0009328	76.5939998627
1250.0	0.0009328	76.6410000324
1250.0	0.000933	76.6870000362
1250.0	0.0009335	76.7189998627
1250.0	0.0009338	76.7660000324
1250.0	0.0009338	76.7969999313
1250.0	0.000934	76.8439998627
1250.0	0.0009338	76.8910000324
1250.0	0.0009338	76.9370000362
1250.0	0.0009335	76.9689998627
1250.0	0.0009335	77.0160000324
1260.0	0.0009365	77.2809998989
1260.0	0.0009385	77.3280000687
1260.0	0.0009398	77.3589999676
1260.0	0.0009403	77.4059998989
1260.0	0.000941	77.4370000362
1260.0	0.0009413	77.4839999676
1260.0	0.0009413	77.5309998989
1260.0	0.0009415	77.5620000362
1260.0	0.0009418	77.6089999676
1260.0	0.0009425	77.6559998989
1260.0	0.0009428	77.6870000362
1260.0	0.0009428	77.7339999676
1260.0	0.000943	77.7809998989
1260.0	0.0009435	77.8120000362
1260.0	0.0009435	77.8589999676
1260.0	0.000943	77.8910000324
1260.0	0.0009435	77.9370000362
1260.0	0.0009435	77.9839999676
1260.0	0.0009438	78.0160000324
1260.0	0.000944	78.0620000362
1260.0	0.000944	78.1089999676
1260.0	0.0009438	78.1410000324
1260.0	0.0009438	78.1870000362
1260.0	0.0009438	78.2189998627
1260.0	0.0009428	78.2660000324
1260.0	0.0009428	78.3120000362
1260.0	0.0009428	78.3439998627
1260.0	0.0009428	78.3910000324
1260.0	0.0009428	78.4370000362
1260.0	0.000943	78.4689998627
1260.0	0.0009435	78.5160000324
1260.0	0.0009435	78.5469999313
1260.0	0.0009428	78.5939998627
1260.0	0.000943	78.6410000324
1260.0	0.000943	78.6719999313
1260.0	0.0009428	78.7189998627
1260.0	0.0009428	78.7660000324
1270.0	0.000945	79.0160000324
1270.0	0.0009463	79.0620000362
1270.0	0.0009475	79.1089999676
1270.0	0.0009485	79.1410000324
1270.0	0.000949	79.1870000362
1270.0	0.0009498	79.2339999676
1270.0	0.00095	79.2660000324
1270.0	0.0009503	79.3120000362
1270.0	0.0009505	79.3439998627
1270.0	0.000951	79.3910000324
1270.0	0.000951	79.4370000362
1270.0	0.0009505	79.4689998627
1270.0	0.0009505	79.5160000324
1270.0	0.0009505	79.5620000362
1270.0	0.000951	79.5939998627
1270.0	0.0009513	79.6410000324
1270.0	0.0009515	79.6719999313
1270.0	0.0009515	79.7189998627
1270.0	0.0009515	79.7660000324
1270.0	0.0009513	79.7969999313
1270.0	0.0009515	79.8439998627
1270.0	0.0009515	79.8910000324
1270.0	0.000951	79.9219999313
1270.0	0.000951	79.9689998627
1270.0	0.000951	80.0160000324
1270.0	0.000951	80.0469999313
1270.0	0.000951	80.0939998627
1270.0	0.0009513	80.125
1270.0	0.000951	80.1719999313
1270.0	0.000951	80.2189998627
1270.0	0.000951	80.25
1270.0	0.0009513	80.2969999313
1270.0	0.0009515	80.3439998627
1270.0	0.0009513	80.375
1270.0	0.000951	80.4219999313
1270.0	0.0009513	80.4530000687
1270.0	0.0009513	80.5
1280.0	0.000953	80.7660000324
1280.0	0.000954	80.8120000362
1280.0	0.0009548	80.8439998627
1280.0	0.0009553	80.8910000324
1280.0	0.000956	80.9370000362
1280.0	0.0009565	80.9689998627
1280.0	0.0009568	81.0160000324
1280.0	0.0009573	81.0620000362
1280.0	0.0009568	81.0939998627
1280.0	0.0009568	81.1410000324
1280.0	0.0009573	81.1719999313
1280.0	0.0009573	81.2189998627
1280.0	0.0009573	81.2660000324
1280.0	0.0009573	81.2969999313
1280.0	0.0009573	81.3439998627
1280.0	0.0009573	81.3910000324
1280.0	0.0009575	81.4219999313
1280.0	0.0009573	81.4689998627
1280.0	0.0009575	81.5
1280.0	0.0009578	81.5469999313
1280.0	0.0009578	81.5939998627
1280.0	0.0009573	81.625
1280.0	0.0009568	81.6719999313
1280.0	0.0009565	81.7189998627
1280.0	0.0009568	81.75
1280.0	0.0009568	81.7969999313
1280.0	0.0009573	81.8280000687
1280.0	0.0009568	81.875
1280.0	0.0009573	81.9219999313
1280.0	0.0009573	81.9530000687
1280.0	0.0009568	82.0
1280.0	0.0009565	82.0469999313
1280.0	0.0009565	82.0780000687
1280.0	0.0009568	82.125
1280.0	0.0009573	82.1719999313
1280.0	0.0009573	82.2030000687
1280.0	0.0009568	82.25
1290.0	0.000958	82.5160000324
1290.0	0.0009588	82.5469999313
1290.0	0.000959	82.5939998627
1290.0	0.0009598	82.625
1290.0	0.0009598	82.6719999313
1290.0	0.0009593	82.7189998627
1290.0	0.0009593	82.7660000324
1290.0	0.0009593	82.7969999313
1290.0	0.0009593	82.8439998627
1290.0	0.0009598	82.8910000324
1290.0	0.0009598	82.9219999313
1290.0	0.0009593	82.9689998627
1290.0	0.0009593	83.0
1290.0	0.0009593	83.0469999313
1290.0	0.0009593	83.0939998627
1290.0	0.0009593	83.125
1290.0	0.0009593	83.1719999313
1290.0	0.0009593	83.2189998627
1290.0	0.000959	83.25
1290.0	0.0009593	83.2969999313
1290.0	0.0009593	83.3280000687
1290.0	0.0009598	83.375
1290.0	0.0009598	83.4219999313
1290.0	0.0009598	83.4530000687
1290.0	0.000959	83.5
1290.0	0.000959	83.5469999313
1290.0	0.0009593	83.5780000687
1290.0	0.0009593	83.625
1290.0	0.0009593	83.6559998989
1290.0	0.0009598	83.7030000687
1290.0	0.00096	83.75
1290.0	0.0009598	83.7809998989
1290.0	0.00096	83.8280000687
1290.0	0.00096	83.875
1290.0	0.0009603	83.9059998989
1290.0	0.0009603	83.9530000687
1290.0	0.00096	83.9839999676
1300.0	0.000959	84.25
1300.0	0.0009588	84.2969999313
1300.0	0.0009585	84.3439998627
1300.0	0.000958	84.375
1300.0	0.0009585	84.4219999313
1300.0	0.0009585	84.4530000687
1300.0	0.0009588	84.5
1300.0	0.000959	84.5469999313
1300.0	0.0009588	84.5780000687
1300.0	0.0009588	84.625
1300.0	0.0009588	84.6719999313
1300.0	0.0009585	84.7030000687
1300.0	0.0009585	84.75
1300.0	0.0009588	84.7809998989
1300.0	0.000959	84.8280000687
1300.0	0.000959	84.875
1300.0	0.0009588	84.9059998989
1300.0	0.0009588	84.9530000687
1300.0	0.000959	85.0
1300.0	0.000959	85.0309998989
1300.0	0.000959	85.0780000687
1300.0	0.000959	85.1089999676
1300.0	0.0009588	85.1559998989
1300.0	0.0009588	85.2030000687
1300.0	0.0009585	85.2339999676
1300.0	0.0009585	85.2809998989
1300.0	0.000958	85.3280000687
1300.0	0.000958	85.3589999676
1300.0	0.0009585	85.4059998989
1300.0	0.0009585	85.4530000687
1300.0	0.0009588	85.4839999676
1300.0	0.0009588	85.5309998989
1300.0	0.0009593	85.5620000362
1300.0	0.0009593	85.6089999676
1300.0	0.000959	85.6559998989
1300.0	0.000959	85.6870000362
1300.0	0.000959	85.7339999676
1310.0	0.000956	86.0
1310.0	0.000955	86.0309998989
1310.0	0.000954	86.0780000687
1310.0	0.0009538	86.125
1310.0	0.000953	86.1559998989
1310.0	0.0009528	86.2030000687
1310.0	0.0009525	86.25
1310.0	0.0009523	86.2809998989
1310.0	0.0009525	86.3280000687
1310.0	0.0009523	86.3589999676
1310.0	0.0009523	86.4059998989
1310.0	0.0009515	86.4530000687
1310.0	0.0009515	86.4839999676
1310.0	0.0009513	86.5309998989
1310.0	0.0009515	86.5780000687
1310.0	0.0009515	86.6089999676
1310.0	0.0009518	86.6559998989
1310.0	0.0009518	86.6870000362
1310.0	0.0009518	86.7339999676
1310.0	0.0009515	86.7809998989
1310.0	0.0009513	86.8280000687
1310.0	0.000951	86.8589999676
1310.0	0.000951	86.9059998989
1310.0	0.0009513	86.9370000362
1310.0	0.0009515	86.9839999676
1310.0	0.0009513	87.0309998989
1310.0	0.0009518	87.0620000362
1310.0	0.0009523	87.1089999676
1310.0	0.0009525	87.1559998989
1310.0	0.0009525	87.1870000362
1310.0	0.0009528	87.2339999676
1310.0	0.0009525	87.2660000324
1310.0	0.0009525	87.3120000362
1310.0	0.0009523	87.3589999676
1310.0	0.0009518	87.3910000324
1310.0	0.0009513	87.4370000362
1310.0	0.0009513	87.4839999676
1320.0	0.0009468	87.7339999676
1320.0	0.000945	87.7809998989
1320.0	0.000943	87.8280000687
1320.0	0.0009418	87.8589999676
1320.0	0.0009405	87.9059998989
1320.0	0.0009398	87.9530000687
1320.0	0.000939	87.9839999676
1320.0	0.0009385	88.0309998989
1320.0	0.000938	88.0620000362
1320.0	0.0009378	88.1089999676
1320.0	0.0009375	88.1559998989
1320.0	0.0009373	88.1870000362
1320.0	0.0009373	88.2339999676
1320.0	0.0009373	88.2809998989
1320.0	0.0009373	88.3120000362
1320.0	0.0009373	88.3589999676
1320.0	0.0009373	88.4059998989
1320.0	0.0009378	88.4370000362
1320.0	0.000938	88.4839999676
1320.0	0.000938	88.5160000324
1320.0	0.000938	88.5620000362
1320.0	0.000938	88.6089999676
1320.0	0.0009385	88.6559998989
1320.0	0.0009385	88.6870000362
1320.0	0.000938	88.7339999676
1320.0	0.000938	88.7660000324
1320.0	0.000938	88.8120000362
1320.0	0.0009378	88.8589999676
1320.0	0.0009378	88.8910000324
1320.0	0.0009378	88.9370000362
1320.0	0.000938	88.9839999676
1320.0	0.000938	89.0160000324
1320.0	0.0009385	89.0620000362
1320.0	0.0009385	89.0939998627
1320.0	0.000938	89.1410000324
1320.0	0.0009385	89.1870000362
1320.0	0.0009385	89.2189998627
1330.0	0.000931	89.4839999676
1330.0	0.0009278	89.5309998989
1330.0	0.0009248	89.5620000362
1330.0	0.0009223	89.6089999676
1330.0	0.000921	89.6410000324
1330.0	0.0009198	89.6870000362
1330.0	0.0009185	89.7339999676
1330.0	0.0009178	89.7660000324
1330.0	0.0009175	89.8120000362
1330.0	0.0009173	89.8589999676
1330.0	0.0009168	89.8910000324
1330.0	0.0009168	89.9370000362
1330.0	0.0009168	89.9689998627
1330.0	0.0009168	90.0160000324
1330.0	0.0009163	90.0620000362
1330.0	0.000916	90.0939998627
1330.0	0.0009155	90.1410000324
1330.0	0.0009155	90.1870000362
1330.0	0.0009155	90.2189998627
1330.0	0.0009155	90.2660000324
1330.0	0.0009153	90.3120000362
1330.0	0.000915	90.3439998627
1330.0	0.000915	90.3910000324
1330.0	0.0009153	90.4370000362
1330.0	0.0009153	90.4689998627
1330.0	0.0009153	90.5160000324
1330.0	0.0009153	90.5620000362
1330.0	0.0009153	90.5939998627
1330.0	0.000915	90.6410000324
1330.0	0.0009153	90.6719999313
1330.0	0.0009153	90.7189998627
1330.0	0.0009155	90.7660000324
1330.0	0.0009148	90.7969999313
1330.0	0.0009143	90.8439998627
1330.0	0.0009143	90.8910000324
1330.0	0.0009143	90.9219999313
1330.0	0.0009143	90.9689998627
1340.0	0.0009055	91.2339999676
1340.0	0.0009015	91.2809998989
1340.0	0.000898	91.3120000362
1340.0	0.0008953	91.3589999676
1340.0	0.0008928	91.3910000324
1340.0	0.000891	91.4370000362
1340.0	0.0008893	91.4839999676
1340.0	0.0008885	91.5160000324
1340.0	0.0008875	91.5620000362
1340.0	0.0008873	91.6089999676
1340.0	0.0008873	91.6410000324
1340.0	0.0008868	91.6870000362
1340.0	0.0008868	91.7189998627
1340.0	0.0008865	91.7660000324
1340.0	0.0008868	91.8120000362
1340.0	0.0008865	91.8439998627
1340.0	0.0008868	91.8910000324
1340.0	0.0008873	91.9370000362
1340.0	0.0008873	91.9689998627
1340.0	0.0008873	92.0160000324
1340.0	0.0008873	92.0469999313
1340.0	0.0008868	92.0939998627
1340.0	0.0008868	92.1410000324
1340.0	0.0008865	92.1870000362
1340.0	0.0008865	92.2189998627
1340.0	0.0008868	92.2660000324
1340.0	0.0008865	92.3120000362
1340.0	0.0008865	92.3439998627
1340.0	0.0008865	92.3910000324
1340.0	0.0008865	92.4370000362
1340.0	0.0008865	92.4689998627
1340.0	0.0008865	92.5160000324
1340.0	0.0008865	92.5620000362
1340.0	0.0008868	92.5939998627
1340.0	0.0008873	92.6410000324
1340.0	0.0008873	92.6719999313
1340.0	0.0008873	92.7189998627
1350.0	0.0008753	92.9839999676
1350.0	0.000871	93.0160000324
1350.0	0.0008668	93.0620000362
1350.0	0.0008635	93.1089999676
1350.0	0.0008613	93.1410000324
1350.0	0.000859	93.1870000362
1350.0	0.0008578	93.2339999676
1350.0	0.0008568	93.2660000324
1350.0	0.0008565	93.3120000362
1350.0	0.0008555	93.3589999676
1350.0	0.0008553	93.3910000324
1350.0	0.000855	93.4370000362
1350.0	0.0008548	93.4689998627
1350.0	0.0008548	93.5160000324
1350.0	0.0008548	93.5620000362
1350.0	0.0008543	93.5939998627
1350.0	0.000854	93.6410000324
1350.0	0.0008535	93.6870000362
1350.0	0.0008535	93.7189998627
1350.0	0.0008535	93.7660000324
1350.0	0.0008528	93.7969999313
1350.0	0.0008535	93.8439998627
1350.0	0.0008538	93.8910000324
1350.0	0.000854	93.9219999313
1350.0	0.0008548	93.9689998627
1350.0	0.0008548	94.0160000324
1350.0	0.000855	94.0469999313
1350.0	0.000855	94.0939998627
1350.0	0.000855	94.125
1350.0	0.0008553	94.1719999313
1350.0	0.0008553	94.2189998627
1350.0	0.0008548	94.25
1350.0	0.0008543	94.2969999313
1350.0	0.0008543	94.3439998627
1350.0	0.000854	94.375
1350.0	0.000854	94.4219999313
1350.0	0.000854	94.4689998627
1360.0	0.0008405	94.7189998627
1360.0	0.0008363	94.7660000324
1360.0	0.0008328	94.8120000362
1360.0	0.0008293	94.8439998627
1360.0	0.0008268	94.8910000324
1360.0	0.0008253	94.9219999313
1360.0	0.0008238	94.9689998627
1360.0	0.0008225	95.0160000324
1360.0	0.0008218	95.0469999313
1360.0	0.0008215	95.0939998627
1360.0	0.0008215	95.1410000324
1360.0	0.000821	95.1719999313
1360.0	0.0008205	95.2189998627
1360.0	0.0008203	95.2660000324
1360.0	0.0008203	95.2969999313
1360.0	0.00082	95.3439998627
1360.0	0.0008198	95.375
1360.0	0.0008198	95.4219999313
1360.0	0.0008193	95.4689998627
1360.0	0.0008198	95.5
1360.0	0.00082	95.5469999313
1360.0	0.00082	95.5939998627
1360.0	0.00082	95.625
1360.0	0.0008198	95.6719999313
1360.0	0.0008198	95.7030000687
1360.0	0.0008193	95.75
1360.0	0.000819	95.7969999313
1360.0	0.0008188	95.8280000687
1360.0	0.0008188	95.875
1360.0	0.000819	95.9219999313
1360.0	0.000819	95.9530000687
1360.0	0.000819	96.0
1360.0	0.000819	96.0309998989
1360.0	0.000819	96.0780000687
1360.0	0.000819	96.125
1360.0	0.000819	96.1559998989
1360.0	0.000819	96.2030000687
1370.0	0.0008065	96.4689998627
1370.0	0.0008015	96.5
1370.0	0.0007975	96.5469999313
1370.0	0.000794	96.5939998627
1370.0	0.0007913	96.625
1370.0	0.0007893	96.6719999313
1370.0	0.0007875	96.7189998627
1370.0	0.0007865	96.75
1370.0	0.000786	96.7969999313
1370.0	0.0007853	96.8280000687
1370.0	0.000785	96.875
1370.0	0.0007848	96.9219999313
1370.0	0.0007843	96.9530000687
1370.0	0.000784	97.0
1370.0	0.0007838	97.0469999313
1370.0	0.000783	97.0780000687
1370.0	0.000783	97.125
1370.0	0.000783	97.1719999313
1370.0	0.0007835	97.2030000687
1370.0	0.000783	97.25
1370.0	0.000783	97.2809998989
1370.0	0.0007835	97.3280000687
1370.0	0.0007835	97.375
1370.0	0.0007838	97.4059998989
1370.0	0.0007838	97.4530000687
1370.0	0.000784	97.4839999676
1370.0	0.000784	97.5309998989
1370.0	0.0007838	97.5780000687
1370.0	0.0007835	97.6089999676
1370.0	0.0007835	97.6559998989
1370.0	0.0007835	97.7030000687
1370.0	0.000783	97.7339999676
1370.0	0.000783	97.7809998989
1370.0	0.000783	97.8280000687
1370.0	0.000783	97.8589999676
1370.0	0.000783	97.9059998989
1370.0	0.0007828	97.9370000362
1380.0	0.000771	98.2030000687
1380.0	0.0007655	98.25
1380.0	0.0007615	98.2969999313
1380.0	0.0007585	98.3280000687
1380.0	0.000756	98.375
1380.0	0.0007538	98.4059998989
1380.0	0.0007523	98.4530000687
1380.0	0.0007513	98.5
1380.0	0.0007505	98.5309998989
1380.0	0.00075	98.5780000687
1380.0	0.0007498	98.6089999676
1380.0	0.0007498	98.6559998989
1380.0	0.0007498	98.7030000687
1380.0	0.000749	98.7339999676
1380.0	0.000749	98.7809998989
1380.0	0.000749	98.8280000687
1380.0	0.000749	98.8589999676
1380.0	0.0007493	98.9059998989
1380.0	0.0007493	98.9530000687
1380.0	0.0007498	98.9839999676
1380.0	0.00075	99.0309998989
1380.0	0.0007498	99.0620000362
1380.0	0.0007498	99.1089999676
1380.0	0.0007493	99.1559998989
1380.0	0.0007493	99.1870000362
1380.0	0.000749	99.2339999676
1380.0	0.000749	99.2809998989
1380.0	0.0007493	99.3120000362
1380.0	0.0007493	99.3589999676
1380.0	0.0007493	99.3910000324
1380.0	0.0007493	99.4370000362
1380.0	0.0007498	99.4839999676
1380.0	0.0007498	99.5160000324
1380.0	0.0007493	99.5620000362
1380.0	0.000749	99.6089999676
1380.0	0.000749	99.6410000324
1380.0	0.000749	99.6870000362
1390.0	0.0007373	99.9530000687
1390.0	0.0007328	99.9839999676
1390.0	0.000729	100.030999899
1390.0	0.0007263	100.078000069
1390.0	0.0007238	100.108999968
1390.0	0.0007223	100.155999899
1390.0	0.000721	100.187000036
1390.0	0.00072	100.358999968
1390.0	0.0007185	100.391000032
1390.0	0.0007185	100.437000036
1390.0	0.0007185	100.483999968
1390.0	0.0007185	100.530999899
1390.0	0.000718	100.578000069
1390.0	0.000718	100.625
1390.0	0.000718	100.655999899
1390.0	0.000718	100.703000069
1390.0	0.000718	100.75
1390.0	0.0007178	100.780999899
1390.0	0.0007178	100.828000069
1390.0	0.0007178	100.875
1390.0	0.0007175	100.905999899
1390.0	0.0007175	100.953000069
1390.0	0.0007178	101.0
1390.0	0.0007178	101.046999931
1390.0	0.0007178	101.078000069
1390.0	0.000718	101.125
1390.0	0.0007185	101.171999931
1390.0	0.0007185	101.218999863
1390.0	0.0007185	101.25
1390.0	0.0007185	101.296999931
1390.0	0.0007185	101.343999863
1390.0	0.000718	101.375
1390.0	0.000718	101.421999931
1400.0	0.0007075	101.703000069
1400.0	0.0007038	101.75
1400.0	0.0007003	101.780999899
1400.0	0.0006975	101.828000069
1400.0	0.0006955	101.875
1400.0	0.000694	101.905999899
1400.0	0.0006928	101.953000069
1400.0	0.0006925	102.0
1400.0	0.0006918	102.030999899
1400.0	0.0006915	102.078000069
1400.0	0.0006913	102.108999968
1400.0	0.0006913	102.155999899
1400.0	0.0006913	102.203000069
1400.0	0.0006915	102.233999968
1400.0	0.0006918	102.280999899
1400.0	0.0006915	102.328000069
1400.0	0.0006913	102.358999968
1400.0	0.000691	102.405999899
1400.0	0.0006903	102.453000069
1400.0	0.0006903	102.483999968
1400.0	0.0006903	102.530999899
1400.0	0.0006905	102.562000036
1400.0	0.0006905	102.608999968
1400.0	0.000691	102.655999899
1400.0	0.000691	102.687000036
1400.0	0.0006905	102.733999968
1400.0	0.000691	102.780999899
1400.0	0.0006905	102.812000036
1400.0	0.0006905	102.858999968
1400.0	0.000691	102.891000032
1400.0	0.0006915	102.937000036
1400.0	0.0006915	102.983999968
1400.0	0.0006918	103.016000032
1400.0	0.0006918	103.062000036
1400.0	0.0006923	103.108999968
1400.0	0.0006925	103.141000032
1400.0	0.0006923	103.187000036
1410.0	0.000683	103.453000069
1410.0	0.0006803	103.5
1410.0	0.0006778	103.530999899
1410.0	0.000676	103.578000069
1410.0	0.000674	103.608999968
1410.0	0.0006728	103.655999899
1410.0	0.0006723	103.703000069
1410.0	0.0006718	103.733999968
1410.0	0.0006713	103.780999899
1410.0	0.0006705	103.828000069
1410.0	0.0006703	103.858999968
1410.0	0.00067	103.905999899
1410.0	0.0006703	103.937000036
1410.0	0.00067	103.983999968
1410.0	0.00067	104.030999899
1410.0	0.00067	104.078000069
1410.0	0.00067	104.108999968
1410.0	0.0006703	104.155999899
1410.0	0.0006703	104.187000036
1410.0	0.0006703	104.233999968
1410.0	0.00067	104.280999899
1410.0	0.00067	104.312000036
1410.0	0.00067	104.358999968
1410.0	0.00067	104.405999899
1410.0	0.00067	104.437000036
1410.0	0.0006703	104.483999968
1410.0	0.0006705	104.516000032
1410.0	0.000671	104.562000036
1410.0	0.000671	104.608999968
1410.0	0.000671	104.641000032
1410.0	0.000671	104.687000036
1410.0	0.0006713	104.733999968
1410.0	0.0006713	104.766000032
1410.0	0.0006713	104.812000036
1410.0	0.0006715	104.858999968
1410.0	0.0006715	104.891000032
1410.0	0.0006718	104.937000036
1420.0	0.0006638	105.203000069
1420.0	0.0006615	105.233999968
1420.0	0.0006598	105.280999899
1420.0	0.0006585	105.328000069
1420.0	0.0006573	105.358999968
1420.0	0.0006563	105.405999899
1420.0	0.0006555	105.453000069
1420.0	0.0006553	105.483999968
1420.0	0.000655	105.530999899
1420.0	0.0006543	105.578000069
1420.0	0.000654	105.608999968
1420.0	0.000654	105.655999899
1420.0	0.0006538	105.687000036
1420.0	0.0006538	105.733999968
1420.0	0.0006535	105.780999899
1420.0	0.000653	105.812000036
1420.0	0.000653	105.858999968
1420.0	0.000653	105.905999899
1420.0	0.0006528	105.937000036
1420.0	0.000653	105.983999968
1420.0	0.000653	106.016000032
1420.0	0.0006535	106.062000036
1420.0	0.0006535	106.108999968
1420.0	0.0006535	106.141000032
1420.0	0.0006525	106.187000036
1420.0	0.0006523	106.233999968
1420.0	0.0006523	106.266000032
1420.0	0.0006518	106.312000036
1420.0	0.0006518	106.343999863
1420.0	0.0006523	106.391000032
1420.0	0.0006518	106.437000036
1420.0	0.0006518	106.468999863
1420.0	0.0006523	106.516000032
1420.0	0.0006525	106.562000036
1420.0	0.0006525	106.593999863
1420.0	0.0006528	106.641000032
1420.0	0.0006528	106.687000036
1430.0	0.0006475	106.953000069
1430.0	0.000646	106.983999968
1430.0	0.0006448	107.030999899
1430.0	0.0006438	107.062000036
1430.0	0.0006428	107.108999968
1430.0	0.0006423	107.155999899
1430.0	0.0006423	107.187000036
1430.0	0.0006423	107.233999968
1430.0	0.0006418	107.280999899
1430.0	0.0006418	107.312000036
1430.0	0.0006413	107.358999968
1430.0	0.0006413	107.405999899
1430.0	0.0006413	107.437000036
1430.0	0.000641	107.483999968
1430.0	0.0006405	107.516000032
1430.0	0.0006405	107.562000036
1430.0	0.0006403	107.608999968
1430.0	0.00064	107.641000032
1430.0	0.0006398	107.687000036
1430.0	0.0006398	107.733999968
1430.0	0.0006398	107.766000032
1430.0	0.0006395	107.812000036
1430.0	0.0006398	107.843999863
1430.0	0.0006398	107.891000032
1430.0	0.00064	107.937000036
1430.0	0.00064	107.968999863
1430.0	0.0006403	108.016000032
1430.0	0.0006403	108.062000036
1430.0	0.0006403	108.093999863
1430.0	0.0006403	108.141000032
1430.0	0.0006403	108.171999931
1430.0	0.0006405	108.218999863
1430.0	0.0006403	108.266000032
1430.0	0.0006403	108.296999931
1430.0	0.00064	108.343999863
1430.0	0.0006398	108.391000032
1430.0	0.00064	108.421999931
1440.0	0.0006378	108.687000036
1440.0	0.000637	108.733999968
1440.0	0.000637	108.780999899
1440.0	0.000637	108.812000036
1440.0	0.0006368	108.858999968
1440.0	0.000637	108.891000032
1440.0	0.0006375	108.937000036
1440.0	0.0006375	108.983999968
1440.0	0.000637	109.016000032
1440.0	0.000637	109.062000036
1440.0	0.0006375	109.108999968
1440.0	0.000637	109.141000032
1440.0	0.000637	109.187000036
1440.0	0.000637	109.218999863
1440.0	0.000637	109.266000032
1440.0	0.000637	109.312000036
1440.0	0.000637	109.343999863
1440.0	0.0006375	109.391000032
1440.0	0.0006375	109.437000036
1440.0	0.0006378	109.468999863
1440.0	0.0006378	109.516000032
1440.0	0.0006378	109.562000036
1440.0	0.0006375	109.593999863
1440.0	0.0006375	109.641000032
1440.0	0.0006375	109.671999931
1440.0	0.0006378	109.718999863
1440.0	0.0006375	109.766000032
1440.0	0.0006378	109.796999931
1440.0	0.000638	109.843999863
1440.0	0.000638	109.891000032
1440.0	0.0006383	109.921999931
1440.0	0.0006383	109.968999863
1440.0	0.000638	110.0
1440.0	0.000638	110.046999931
1440.0	0.000638	110.093999863
1440.0	0.000638	110.125
1440.0	0.000638	110.171999931
1450.0	0.000639	110.437000036
1450.0	0.0006395	110.483999968
1450.0	0.0006395	110.516000032
1450.0	0.0006395	110.562000036
1450.0	0.0006398	110.608999968
1450.0	0.00064	110.641000032
1450.0	0.0006403	110.687000036
1450.0	0.0006405	110.718999863
1450.0	0.000641	110.766000032
1450.0	0.000641	110.812000036
1450.0	0.0006405	110.843999863
1450.0	0.0006405	110.891000032
1450.0	0.0006405	110.937000036
1450.0	0.0006405	110.968999863
1450.0	0.000641	111.016000032
1450.0	0.000641	111.046999931
1450.0	0.0006413	111.093999863
1450.0	0.000641	111.141000032
1450.0	0.0006415	111.171999931
1450.0	0.0006418	111.218999863
1450.0	0.0006415	111.266000032
1450.0	0.0006413	111.296999931
1450.0	0.000641	111.343999863
1450.0	0.000641	111.391000032
1450.0	0.0006405	111.421999931
1450.0	0.0006403	111.468999863
1450.0	0.00064	111.5
1450.0	0.0006398	111.546999931
1450.0	0.0006398	111.593999863
1450.0	0.0006398	111.625
1450.0	0.0006398	111.671999931
1450.0	0.0006398	111.718999863
1450.0	0.0006398	111.75
1450.0	0.0006398	111.796999931
1450.0	0.0006395	111.828000069
1450.0	0.0006393	111.875
1450.0	0.0006395	111.921999931
1460.0	0.0006415	112.187000036
1460.0	0.0006428	112.218999863
1460.0	0.0006438	112.266000032
1460.0	0.0006448	112.312000036
1460.0	0.0006453	112.343999863
1460.0	0.000646	112.391000032
1460.0	0.000646	112.437000036
1460.0	0.000646	112.468999863
1460.0	0.000646	112.516000032
1460.0	0.0006463	112.546999931
1460.0	0.0006465	112.593999863
1460.0	0.0006465	112.641000032
1460.0	0.0006465	112.671999931
1460.0	0.0006468	112.718999863
1460.0	0.0006468	112.766000032
1460.0	0.0006465	112.796999931
1460.0	0.000646	112.843999863
1460.0	0.0006463	112.875
1460.0	0.0006463	112.921999931
1460.0	0.0006463	112.968999863
1460.0	0.0006465	113.016000032
1460.0	0.0006465	113.046999931
1460.0	0.000646	113.093999863
1460.0	0.000646	113.125
1460.0	0.0006463	113.171999931
1460.0	0.0006465	113.218999863
1460.0	0.0006465	113.25
1460.0	0.0006463	113.296999931
1460.0	0.0006463	113.343999863
1460.0	0.000646	113.375
1460.0	0.0006455	113.421999931
1460.0	0.0006453	113.468999863
1460.0	0.0006453	113.5
1460.0	0.000646	113.546999931
1460.0	0.000646	113.578000069
1460.0	0.000646	113.625
1460.0	0.000646	113.671999931
1470.0	0.0006505	113.937000036
1470.0	0.0006523	113.968999863
1470.0	0.0006538	114.016000032
1470.0	0.0006548	114.062000036
1470.0	0.0006553	114.093999863
1470.0	0.000656	114.141000032
1470.0	0.000656	114.187000036
1470.0	0.000656	114.218999863
1470.0	0.0006563	114.266000032
1470.0	0.0006565	114.296999931
1470.0	0.0006568	114.343999863
1470.0	0.0006573	114.391000032
1470.0	0.0006573	114.421999931
1470.0	0.0006573	114.468999863
1470.0	0.0006573	114.516000032
1470.0	0.0006573	114.546999931
1470.0	0.0006573	114.593999863
1470.0	0.0006573	114.625
1470.0	0.0006575	114.671999931
1470.0	0.0006575	114.718999863
1470.0	0.0006578	114.75
1470.0	0.0006578	114.796999931
1470.0	0.0006578	114.843999863
1470.0	0.0006578	114.875
1470.0	0.0006578	114.921999931
1470.0	0.000658	114.953000069
1470.0	0.000658	115.0
1470.0	0.000658	115.046999931
1470.0	0.000658	115.078000069
1470.0	0.0006585	115.125
1470.0	0.000658	115.171999931
1470.0	0.000658	115.203000069
1470.0	0.000658	115.25
1470.0	0.0006585	115.296999931
1470.0	0.0006585	115.328000069
1470.0	0.0006585	115.375
1470.0	0.000658	115.405999899
1480.0	0.0006625	115.671999931
1480.0	0.0006643	115.718999863
1480.0	0.0006655	115.766000032
1480.0	0.0006665	115.796999931
1480.0	0.0006675	115.843999863
1480.0	0.000668	115.891000032
1480.0	0.0006685	115.921999931
1480.0	0.000668	115.968999863
1480.0	0.0006685	116.016000032
1480.0	0.0006685	116.046999931
1480.0	0.0006688	116.093999863
1480.0	0.000669	116.125
1480.0	0.000669	116.171999931
1480.0	0.000669	116.218999863
1480.0	0.000669	116.25
1480.0	0.000669	116.296999931
1480.0	0.0006693	116.343999863
1480.0	0.0006693	116.375
1480.0	0.0006698	116.421999931
1480.0	0.0006693	116.453000069
1480.0	0.0006693	116.5
1480.0	0.0006693	116.546999931
1480.0	0.0006698	116.578000069
1480.0	0.0006698	116.625
1480.0	0.0006698	116.671999931
1480.0	0.0006698	116.703000069
1480.0	0.0006698	116.75
1480.0	0.0006698	116.780999899
1480.0	0.0006693	116.828000069
1480.0	0.0006688	116.875
1480.0	0.0006685	116.905999899
1480.0	0.0006685	116.953000069
1480.0	0.000668	117.0
1480.0	0.0006685	117.030999899
1480.0	0.0006685	117.078000069
1480.0	0.000668	117.108999968
1480.0	0.0006678	117.155999899
1490.0	0.000671	117.421999931
1490.0	0.0006725	117.468999863
1490.0	0.0006735	117.516000032
1490.0	0.0006743	117.546999931
1490.0	0.0006755	117.593999863
1490.0	0.0006765	117.641000032
1490.0	0.0006773	117.671999931
1490.0	0.0006778	117.718999863
1490.0	0.0006778	117.75
1490.0	0.0006778	117.796999931
1490.0	0.0006778	117.843999863
1490.0	0.0006778	117.875
1490.0	0.0006778	117.921999931
1490.0	0.000678	117.968999863
1490.0	0.0006778	118.0
1490.0	0.0006778	118.046999931
1490.0	0.0006778	118.093999863
1490.0	0.000678	118.125
1490.0	0.0006785	118.171999931
1490.0	0.0006788	118.218999863
1490.0	0.000679	118.25
1490.0	0.000679	118.296999931
1490.0	0.0006788	118.343999863
1490.0	0.0006785	118.375
1490.0	0.0006785	118.421999931
1490.0	0.000678	118.453000069
1490.0	0.0006778	118.5
1490.0	0.0006775	118.546999931
1490.0	0.0006773	118.578000069
1490.0	0.0006773	118.625
1490.0	0.0006773	118.671999931
1490.0	0.0006768	118.703000069
1490.0	0.0006768	118.75
1490.0	0.0006773	118.780999899
1490.0	0.0006775	118.828000069
1490.0	0.000678	118.875
1490.0	0.000678	118.905999899
1500.0	0.0006818	119.187000036
1500.0	0.0006835	119.218999863
1500.0	0.000684	119.266000032
1500.0	0.0006843	119.312000036
1500.0	0.000685	119.343999863
1500.0	0.0006853	119.391000032
1500.0	0.0006855	119.421999931
1500.0	0.0006863	119.468999863
1500.0	0.0006865	119.516000032
1500.0	0.0006868	119.546999931
1500.0	0.0006868	119.593999863
1500.0	0.0006868	119.641000032
1500.0	0.0006873	119.671999931
1500.0	0.0006873	119.718999863
1500.0	0.0006873	119.766000032
1500.0	0.0006875	119.796999931
1500.0	0.0006878	119.843999863
1500.0	0.0006875	119.875
1500.0	0.0006875	119.921999931
1500.0	0.0006873	119.968999863
1500.0	0.0006873	120.0
1500.0	0.0006875	120.046999931
1500.0	0.0006875	120.093999863
1500.0	0.0006878	120.125
1500.0	0.0006878	120.171999931
1500.0	0.000688	120.203000069
1500.0	0.0006885	120.25
1500.0	0.000688	120.296999931
1500.0	0.0006885	120.328000069
1500.0	0.000688	120.375
1500.0	0.000688	120.421999931
1500.0	0.000688	120.453000069
1500.0	0.0006878	120.5
1500.0	0.0006878	120.530999899
1500.0	0.0006878	120.578000069
1500.0	0.0006875	120.625
1500.0	0.0006868	120.655999899
1510.0	0.0006903	120.937000036
1510.0	0.000691	120.983999968
1510.0	0.0006915	121.016000032
1510.0	0.0006923	121.062000036
1510.0	0.0006923	121.093999863
1510.0	0.0006925	121.141000032
1510.0	0.0006928	121.187000036
1510.0	0.0006928	121.218999863
1510.0	0.000693	121.266000032
1510.0	0.000693	121.312000036
1510.0	0.0006938	121.343999863
1510.0	0.000694	121.391000032
1510.0	0.000694	121.421999931
1510.0	0.000694	121.468999863
1510.0	0.000694	121.516000032
1510.0	0.0006938	121.546999931
1510.0	0.000694	121.593999863
1510.0	0.000694	121.641000032
1510.0	0.000694	121.671999931
1510.0	0.0006935	121.718999863
1510.0	0.0006935	121.75
1510.0	0.0006928	121.796999931
1510.0	0.0006925	121.843999863
1510.0	0.0006928	121.875
1510.0	0.000693	121.921999931
1510.0	0.000693	121.968999863
1510.0	0.0006928	122.0
1510.0	0.0006928	122.046999931
1510.0	0.0006928	122.093999863
1510.0	0.0006928	122.125
1510.0	0.0006928	122.171999931
1510.0	0.000693	122.203000069
1510.0	0.0006935	122.25
1510.0	0.000693	122.296999931
1510.0	0.000693	122.328000069
1510.0	0.000693	122.375
1510.0	0.0006935	122.421999931
1520.0	0.000694	122.687000036
1520.0	0.000694	122.733999968
1520.0	0.0006943	122.766000032
1520.0	0.0006948	122.812000036
1520.0	0.0006953	122.858999968
1520.0	0.000695	122.891000032
1520.0	0.0006948	122.937000036
1520.0	0.0006948	122.983999968
1520.0	0.0006948	123.016000032
1520.0	0.0006943	123.062000036
1520.0	0.0006943	123.093999863
1520.0	0.0006938	123.141000032
1520.0	0.0006935	123.187000036
1520.0	0.0006935	123.218999863
1520.0	0.0006938	123.266000032
1520.0	0.000694	123.312000036
1520.0	0.000694	123.343999863
1520.0	0.0006938	123.391000032
1520.0	0.0006935	123.421999931
1520.0	0.000693	123.468999863
1520.0	0.0006928	123.516000032
1520.0	0.000693	123.546999931
1520.0	0.0006935	123.593999863
1520.0	0.0006935	123.641000032
1520.0	0.0006935	123.671999931
1520.0	0.0006935	123.718999863
1520.0	0.0006935	123.766000032
1520.0	0.000693	123.796999931
1520.0	0.0006928	123.843999863
1520.0	0.0006928	123.875
1520.0	0.0006928	123.921999931
1520.0	0.000693	123.968999863
1520.0	0.0006935	124.0
1520.0	0.000694	124.046999931
1520.0	0.000694	124.093999863
1520.0	0.000694	124.125
1520.0	0.000694	124.171999931
1530.0	0.000694	124.453000069
1530.0	0.0006943	124.483999968
1530.0	0.000694	124.530999899
1530.0	0.0006938	124.578000069
1530.0	0.0006938	124.608999968
1530.0	0.000694	124.655999899
1530.0	0.0006938	124.687000036
1530.0	0.0006938	124.733999968
1530.0	0.0006938	124.780999899
1530.0	0.0006938	124.812000036
1530.0	0.000694	124.858999968
1530.0	0.000694	124.905999899
1530.0	0.0006938	124.937000036
1530.0	0.0006935	124.983999968
1530.0	0.0006935	125.016000032
1530.0	0.000693	125.062000036
1530.0	0.0006938	125.108999968
1530.0	0.0006938	125.141000032
1530.0	0.000694	125.187000036
1530.0	0.000694	125.233999968
1530.0	0.000694	125.266000032
1530.0	0.000694	125.312000036
1530.0	0.0006943	125.343999863
1530.0	0.000694	125.391000032
1530.0	0.0006943	125.437000036
1530.0	0.000694	125.468999863
1530.0	0.0006938	125.516000032
1530.0	0.0006938	125.562000036
1530.0	0.0006935	125.593999863
1530.0	0.000693	125.641000032
1530.0	0.000693	125.687000036
1530.0	0.0006935	125.718999863
1530.0	0.0006935	125.766000032
1530.0	0.000693	125.796999931
1530.0	0.0006935	125.843999863
1530.0	0.0006935	125.891000032
1530.0	0.0006935	125.921999931
1540.0	0.0006915	126.203000069
1540.0	0.0006913	126.25
1540.0	0.000691	126.280999899
1540.0	0.0006903	126.328000069
1540.0	0.00069	126.358999968
1540.0	0.0006898	126.405999899
1540.0	0.0006898	126.453000069
1540.0	0.0006898	126.483999968
1540.0	0.0006898	126.530999899
1540.0	0.0006898	126.578000069
1540.0	0.0006898	126.608999968
1540.0	0.00069	126.655999899
1540.0	0.0006903	126.687000036
1540.0	0.0006905	126.733999968
1540.0	0.000691	126.780999899
1540.0	0.0006905	126.812000036
1540.0	0.0006905	126.858999968
1540.0	0.000691	126.905999899
1540.0	0.000691	126.937000036
1540.0	0.000691	126.983999968
1540.0	0.000691	127.016000032
1540.0	0.0006913	127.062000036
1540.0	0.000691	127.108999968
1540.0	0.000691	127.141000032
1540.0	0.0006905	127.187000036
1540.0	0.0006905	127.233999968
1540.0	0.0006903	127.266000032
1540.0	0.00069	127.312000036
1540.0	0.0006898	127.358999968
1540.0	0.0006893	127.391000032
1540.0	0.0006898	127.437000036
1540.0	0.00069	127.468999863
1540.0	0.00069	127.516000032
1540.0	0.00069	127.562000036
1540.0	0.0006903	127.593999863
1540.0	0.0006903	127.641000032
1540.0	0.00069	127.687000036
1550.0	0.0006873	127.953000069
1550.0	0.0006863	128.0
1550.0	0.0006853	128.030999899
1550.0	0.0006848	128.078000069
1550.0	0.000684	128.125
1550.0	0.0006838	128.155999899
1550.0	0.0006835	128.203000069
1550.0	0.0006835	128.25
1550.0	0.0006835	128.280999899
1550.0	0.000683	128.328000069
1550.0	0.0006835	128.358999968
1550.0	0.000683	128.405999899
1550.0	0.000683	128.453000069
1550.0	0.0006835	128.483999968
1550.0	0.000683	128.530999899
1550.0	0.0006828	128.578000069
1550.0	0.0006828	128.608999968
1550.0	0.0006828	128.655999899
1550.0	0.0006825	128.687000036
1550.0	0.0006823	128.733999968
1550.0	0.0006823	128.780999899
1550.0	0.0006823	128.828000069
1550.0	0.0006823	128.858999968
1550.0	0.0006823	128.905999899
1550.0	0.0006823	128.937000036
1550.0	0.0006825	128.983999968
1550.0	0.0006828	129.030999899
1550.0	0.0006828	129.062000036
1550.0	0.0006828	129.108999968
1550.0	0.000683	129.155999899
1550.0	0.0006828	129.187000036
1550.0	0.000683	129.233999968
1550.0	0.000683	129.280999899
1550.0	0.0006828	129.312000036
1550.0	0.000683	129.358999968
1550.0	0.0006828	129.391000032
1550.0	0.0006828	129.437000036
1560.0	0.0006788	129.703000069
1560.0	0.0006768	129.75
1560.0	0.0006753	129.796999931
1560.0	0.000674	129.828000069
1560.0	0.0006735	129.875
1560.0	0.0006723	129.921999931
1560.0	0.0006715	129.953000069
1560.0	0.0006713	130.0
1560.0	0.000671	130.030999899
1560.0	0.000671	130.078000069
1560.0	0.0006705	130.125
1560.0	0.0006703	130.155999899
1560.0	0.0006705	130.203000069
1560.0	0.000671	130.25
1560.0	0.000671	130.280999899
1560.0	0.000671	130.328000069
1560.0	0.0006705	130.358999968
1560.0	0.0006703	130.405999899
1560.0	0.00067	130.453000069
1560.0	0.00067	130.483999968
1560.0	0.00067	130.530999899
1560.0	0.00067	130.578000069
1560.0	0.0006703	130.608999968
1560.0	0.0006703	130.655999899
1560.0	0.0006703	130.687000036
1560.0	0.00067	130.733999968
1560.0	0.0006703	130.780999899
1560.0	0.0006703	130.812000036
1560.0	0.0006703	130.858999968
1560.0	0.0006703	130.905999899
1560.0	0.0006705	130.937000036
1560.0	0.0006703	130.983999968
1560.0	0.0006698	131.016000032
1560.0	0.0006698	131.062000036
1560.0	0.0006698	131.108999968
1560.0	0.0006698	131.141000032
1560.0	0.0006698	131.187000036
1570.0	0.000664	131.468999863
1570.0	0.0006613	131.5
1570.0	0.0006588	131.546999931
1570.0	0.0006568	131.593999863
1570.0	0.0006555	131.625
1570.0	0.000655	131.671999931
1570.0	0.0006543	131.703000069
1570.0	0.0006538	131.75
1570.0	0.000653	131.796999931
1570.0	0.0006523	131.828000069
1570.0	0.0006518	131.875
1570.0	0.0006515	131.921999931
1570.0	0.0006513	131.953000069
1570.0	0.0006515	132.0
1570.0	0.0006515	132.030999899
1570.0	0.0006513	132.078000069
1570.0	0.0006513	132.125
1570.0	0.0006515	132.155999899
1570.0	0.0006515	132.203000069
1570.0	0.0006518	132.25
1570.0	0.0006515	132.280999899
1570.0	0.0006515	132.328000069
1570.0	0.0006513	132.358999968
1570.0	0.0006513	132.405999899
1570.0	0.0006518	132.453000069
1570.0	0.0006523	132.5
1570.0	0.0006525	132.530999899
1570.0	0.0006523	132.578000069
1570.0	0.0006523	132.608999968
1570.0	0.0006525	132.655999899
1570.0	0.000653	132.703000069
1570.0	0.000653	132.733999968
1570.0	0.000653	132.780999899
1570.0	0.000653	132.828000069
1570.0	0.0006528	132.858999968
1570.0	0.0006528	132.905999899
1570.0	0.0006525	132.953000069
1580.0	0.0006438	133.218999863
1580.0	0.0006405	133.266000032
1580.0	0.0006383	133.296999931
1580.0	0.0006368	133.343999863
1580.0	0.0006353	133.391000032
1580.0	0.000634	133.421999931
1580.0	0.000633	133.468999863
1580.0	0.0006325	133.516000032
1580.0	0.0006313	133.546999931
1580.0	0.0006308	133.593999863
1580.0	0.0006305	133.641000032
1580.0	0.0006303	133.671999931
1580.0	0.00063	133.718999863
1580.0	0.00063	133.766000032
1580.0	0.00063	133.796999931
1580.0	0.0006303	133.843999863
1580.0	0.0006305	133.875
1580.0	0.0006305	133.921999931
1580.0	0.0006305	133.968999863
1580.0	0.0006305	134.0
1580.0	0.0006303	134.046999931
1580.0	0.00063	134.093999863
1580.0	0.00063	134.125
1580.0	0.00063	134.171999931
1580.0	0.00063	134.218999863
1580.0	0.00063	134.25
1580.0	0.00063	134.296999931
1580.0	0.00063	134.328000069
1580.0	0.00063	134.375
1580.0	0.0006303	134.421999931
1580.0	0.00063	134.453000069
1580.0	0.00063	134.5
1580.0	0.00063	134.546999931
1580.0	0.00063	134.578000069
1580.0	0.00063	134.625
1580.0	0.00063	134.655999899
1580.0	0.0006295	134.703000069
1590.0	0.0006193	134.983999968
1590.0	0.0006158	135.016000032
1590.0	0.0006125	135.062000036
1590.0	0.00061	135.108999968
1590.0	0.0006078	135.141000032
1590.0	0.0006063	135.187000036
1590.0	0.0006045	135.218999863
1590.0	0.0006033	135.266000032
1590.0	0.0006028	135.312000036
1590.0	0.000602	135.343999863
1590.0	0.0006018	135.391000032
1590.0	0.0006015	135.437000036
1590.0	0.0006013	135.468999863
1590.0	0.0006013	135.516000032
1590.0	0.0006013	135.546999931
1590.0	0.0006015	135.593999863
1590.0	0.0006018	135.641000032
1590.0	0.000602	135.671999931
1590.0	0.0006018	135.718999863
1590.0	0.0006018	135.766000032
1590.0	0.0006018	135.796999931
1590.0	0.0006018	135.843999863
1590.0	0.0006018	135.875
1590.0	0.000602	135.921999931
1590.0	0.000602	135.968999863
1590.0	0.000602	136.0
1590.0	0.000602	136.046999931
1590.0	0.000602	136.093999863
1590.0	0.0006018	136.125
1590.0	0.0006015	136.171999931
1590.0	0.0006013	136.218999863
1590.0	0.0006013	136.25
1590.0	0.0006013	136.296999931
1590.0	0.0006015	136.328000069
1590.0	0.0006015	136.375
1590.0	0.0006015	136.421999931
1590.0	0.0006015	136.453000069
1600.0	0.0005903	136.733999968
1600.0	0.0005855	136.780999899
1600.0	0.0005818	136.812000036
1600.0	0.0005788	136.858999968
1600.0	0.0005765	136.891000032
1600.0	0.0005743	136.937000036
1600.0	0.000573	136.983999968
1600.0	0.0005718	137.016000032
1600.0	0.0005705	137.062000036
1600.0	0.0005703	137.108999968
1600.0	0.00057	137.141000032
1600.0	0.0005695	137.187000036
1600.0	0.0005693	137.218999863
1600.0	0.0005693	137.266000032
1600.0	0.0005693	137.312000036
1600.0	0.0005693	137.343999863
1600.0	0.0005693	137.391000032
1600.0	0.000569	137.437000036
1600.0	0.000569	137.468999863
1600.0	0.0005688	137.516000032
1600.0	0.000569	137.546999931
1600.0	0.0005688	137.593999863
1600.0	0.0005688	137.641000032
1600.0	0.0005683	137.671999931
1600.0	0.0005688	137.718999863
1600.0	0.0005688	137.766000032
1600.0	0.0005688	137.796999931
1600.0	0.0005688	137.843999863
1600.0	0.000569	137.891000032
1600.0	0.0005688	137.921999931
1600.0	0.0005688	137.968999863
1600.0	0.0005683	138.0
1600.0	0.000568	138.046999931
1600.0	0.000568	138.093999863
1600.0	0.0005683	138.125
1600.0	0.0005683	138.171999931
1600.0	0.0005683	138.218999863
1610.0	0.0005543	138.483999968
1610.0	0.00055	138.530999899
1610.0	0.0005463	138.578000069
1610.0	0.0005428	138.608999968
1610.0	0.00054	138.655999899
1610.0	0.000538	138.703000069
1610.0	0.0005368	138.733999968
1610.0	0.0005355	138.780999899
1610.0	0.0005345	138.812000036
1610.0	0.000534	138.858999968
1610.0	0.0005333	138.905999899
1610.0	0.000533	138.937000036
1610.0	0.0005328	138.983999968
1610.0	0.0005328	139.030999899
1610.0	0.0005325	139.062000036
1610.0	0.0005325	139.108999968
1610.0	0.0005328	139.141000032
1610.0	0.000533	139.187000036
1610.0	0.000533	139.233999968
1610.0	0.0005333	139.266000032
1610.0	0.000533	139.312000036
1610.0	0.0005328	139.358999968
1610.0	0.0005325	139.391000032
1610.0	0.000532	139.437000036
1610.0	0.0005315	139.468999863
1610.0	0.0005315	139.516000032
1610.0	0.0005315	139.562000036
1610.0	0.0005318	139.593999863
1610.0	0.000532	139.641000032
1610.0	0.0005325	139.687000036
1610.0	0.0005325	139.718999863
1610.0	0.0005325	139.766000032
1610.0	0.000532	139.812000036
1610.0	0.000532	139.843999863
1610.0	0.0005318	139.891000032
1610.0	0.0005318	139.921999931
1610.0	0.0005315	139.968999863
1620.0	0.000517	140.25
1620.0	0.0005118	140.296999931
1620.0	0.0005075	140.328000069
1620.0	0.000504	140.375
1620.0	0.0005013	140.405999899
1620.0	0.000499	140.453000069
1620.0	0.0004975	140.5
1620.0	0.0004965	140.530999899
1620.0	0.0004955	140.578000069
1620.0	0.0004953	140.625
1620.0	0.000495	140.655999899
1620.0	0.0004945	140.703000069
1620.0	0.0004943	140.733999968
1620.0	0.0004943	140.780999899
1620.0	0.000494	140.828000069
1620.0	0.0004938	140.858999968
1620.0	0.000493	140.905999899
1620.0	0.0004925	140.953000069
1620.0	0.000492	140.983999968
1620.0	0.0004918	141.030999899
1620.0	0.000492	141.062000036
1620.0	0.000492	141.108999968
1620.0	0.0004925	141.155999899
1620.0	0.0004925	141.187000036
1620.0	0.0004928	141.233999968
1620.0	0.0004928	141.280999899
1620.0	0.000493	141.312000036
1620.0	0.000493	141.358999968
1620.0	0.000493	141.405999899
1620.0	0.000493	141.437000036
1620.0	0.000493	141.483999968
1620.0	0.0004928	141.530999899
1620.0	0.0004928	141.562000036
1620.0	0.0004928	141.608999968
1620.0	0.0004928	141.655999899
1620.0	0.000493	141.687000036
1620.0	0.000493	141.733999968
1630.0	0.0004775	142.016000032
1630.0	0.0004715	142.046999931
1630.0	0.000467	142.093999863
1630.0	0.0004633	142.141000032
1630.0	0.0004605	142.171999931
1630.0	0.0004583	142.218999863
1630.0	0.0004565	142.25
1630.0	0.0004553	142.296999931
1630.0	0.0004545	142.343999863
1630.0	0.0004543	142.375
1630.0	0.0004538	142.421999931
1630.0	0.0004538	142.468999863
1630.0	0.0004538	142.5
1630.0	0.0004533	142.546999931
1630.0	0.000453	142.578000069
1630.0	0.0004528	142.625
1630.0	0.0004525	142.671999931
1630.0	0.0004528	142.703000069
1630.0	0.000453	142.75
1630.0	0.0004528	142.796999931
1630.0	0.0004528	142.828000069
1630.0	0.0004528	142.875
1630.0	0.0004528	142.921999931
1630.0	0.0004528	142.953000069
1630.0	0.000453	143.0
1630.0	0.0004533	143.030999899
1630.0	0.000453	143.078000069
1630.0	0.000453	143.125
1630.0	0.0004528	143.155999899
1630.0	0.000453	143.203000069
1630.0	0.000453	143.25
1630.0	0.0004528	143.280999899
1630.0	0.0004528	143.328000069
1630.0	0.0004525	143.358999968
1630.0	0.000452	143.405999899
1630.0	0.0004525	143.453000069
1630.0	0.000453	143.483999968
1640.0	0.0004368	143.766000032
1640.0	0.0004308	143.812000036
1640.0	0.0004263	143.858999968
1640.0	0.0004228	143.891000032
1640.0	0.0004195	143.937000036
1640.0	0.0004175	143.983999968
1640.0	0.0004163	144.016000032
1640.0	0.0004145	144.062000036
1640.0	0.0004138	144.093999863
1640.0	0.000413	144.141000032
1640.0	0.0004128	144.187000036
1640.0	0.0004125	144.218999863
1640.0	0.000412	144.266000032
1640.0	0.0004118	144.312000036
1640.0	0.000412	144.343999863
1640.0	0.000412	144.391000032
1640.0	0.000412	144.437000036
1640.0	0.0004118	144.468999863
1640.0	0.0004115	144.516000032
1640.0	0.0004108	144.546999931
1640.0	0.0004108	144.593999863
1640.0	0.0004113	144.641000032
1640.0	0.0004118	144.671999931
1640.0	0.000412	144.718999863
1640.0	0.0004125	144.766000032
1640.0	0.0004125	144.796999931
1640.0	0.0004125	144.843999863
1640.0	0.000412	144.875
1640.0	0.0004118	144.921999931
1640.0	0.0004118	144.968999863
1640.0	0.0004118	145.0
1640.0	0.0004118	145.046999931
1640.0	0.0004118	145.093999863
1640.0	0.0004115	145.125
1640.0	0.0004115	145.171999931
1640.0	0.0004118	145.203000069
1640.0	0.0004118	145.25
1650.0	0.0003968	145.530999899
1650.0	0.0003913	145.578000069
1650.0	0.0003865	145.608999968
1650.0	0.000383	145.655999899
1650.0	0.0003805	145.703000069
1650.0	0.000378	145.733999968
1650.0	0.0003763	145.780999899
1650.0	0.0003745	145.828000069
1650.0	0.0003738	145.858999968
1650.0	0.000373	145.905999899
1650.0	0.000373	145.937000036
1650.0	0.0003728	145.983999968
1650.0	0.0003725	146.030999899
1650.0	0.0003725	146.062000036
1650.0	0.0003725	146.108999968
1650.0	0.000372	146.155999899
1650.0	0.000372	146.187000036
1650.0	0.0003718	146.233999968
1650.0	0.0003718	146.266000032
1650.0	0.0003715	146.312000036
1650.0	0.0003718	146.358999968
1650.0	0.0003718	146.391000032
1650.0	0.0003718	146.437000036
1650.0	0.000372	146.483999968
1650.0	0.0003725	146.516000032
1650.0	0.000372	146.562000036
1650.0	0.000372	146.608999968
1650.0	0.000372	146.641000032
1650.0	0.000372	146.687000036
1650.0	0.0003715	146.718999863
1650.0	0.0003713	146.766000032
1650.0	0.0003713	146.812000036
1650.0	0.0003713	146.858999968
1650.0	0.0003708	146.891000032
1650.0	0.0003708	146.937000036
1650.0	0.0003708	146.968999863
1650.0	0.0003713	147.016000032
1660.0	0.0003568	147.296999931
1660.0	0.0003518	147.343999863
1660.0	0.0003475	147.391000032
1660.0	0.0003443	147.421999931
1660.0	0.0003413	147.468999863
1660.0	0.0003388	147.5
1660.0	0.0003368	147.546999931
1660.0	0.0003355	147.593999863
1660.0	0.000335	147.625
1660.0	0.0003343	147.671999931
1660.0	0.0003333	147.718999863
1660.0	0.000333	147.75
1660.0	0.0003328	147.796999931
1660.0	0.0003328	147.828000069
1660.0	0.0003328	147.875
1660.0	0.0003325	147.921999931
1660.0	0.0003318	147.953000069
1660.0	0.0003318	148.0
1660.0	0.0003318	148.046999931
1660.0	0.000332	148.078000069
1660.0	0.000332	148.125
1660.0	0.0003318	148.155999899
1660.0	0.0003318	148.203000069
1660.0	0.000332	148.25
1660.0	0.000332	148.280999899
1660.0	0.000332	148.328000069
1660.0	0.000332	148.375
1660.0	0.0003325	148.405999899
1660.0	0.0003325	148.453000069
1660.0	0.000332	148.5
1660.0	0.0003318	148.530999899
1660.0	0.0003315	148.578000069
1660.0	0.0003315	148.625
1660.0	0.0003318	148.655999899
1660.0	0.0003318	148.703000069
1660.0	0.0003315	148.733999968
1670.0	0.0003175	149.030999899
1670.0	0.0003133	149.062000036
1670.0	0.0003095	149.108999968
1670.0	0.0003063	149.141000032
1670.0	0.000304	149.187000036
1670.0	0.000302	149.233999968
1670.0	0.0003005	149.266000032
1670.0	0.0002993	149.312000036
1670.0	0.0002988	149.358999968
1670.0	0.0002978	149.391000032
1670.0	0.000297	149.437000036
1670.0	0.0002968	149.483999968
1670.0	0.0002965	149.516000032
1670.0	0.0002968	149.562000036
1670.0	0.0002965	149.593999863
1670.0	0.0002963	149.641000032
1670.0	0.0002963	149.687000036
1670.0	0.0002963	149.718999863
1670.0	0.0002963	149.766000032
1670.0	0.0002958	149.812000036
1670.0	0.0002958	149.843999863
1670.0	0.0002955	149.891000032
1670.0	0.0002955	149.921999931
1670.0	0.0002963	149.968999863
1670.0	0.0002965	150.016000032
1670.0	0.0002965	150.046999931
1670.0	0.0002968	150.093999863
1670.0	0.0002965	150.141000032
1670.0	0.0002965	150.171999931
1670.0	0.0002963	150.218999863
1670.0	0.0002963	150.266000032
1670.0	0.0002965	150.296999931
1670.0	0.0002965	150.343999863
1670.0	0.0002968	150.375
1670.0	0.0002965	150.421999931
1670.0	0.0002965	150.468999863
1670.0	0.0002963	150.5
1680.0	0.000283	150.796999931
1680.0	0.000279	150.828000069
1680.0	0.0002755	150.875
1680.0	0.0002728	150.921999931
1680.0	0.0002705	150.953000069
1680.0	0.000269	151.0
1680.0	0.000268	151.030999899
1680.0	0.000267	151.078000069
1680.0	0.0002663	151.125
1680.0	0.0002658	151.155999899
1680.0	0.0002653	151.203000069
1680.0	0.0002653	151.25
1680.0	0.000265	151.280999899
1680.0	0.0002645	151.328000069
1680.0	0.0002643	151.358999968
1680.0	0.0002643	151.405999899
1680.0	0.0002643	151.453000069
1680.0	0.0002643	151.483999968
1680.0	0.000264	151.530999899
1680.0	0.0002643	151.578000069
1680.0	0.0002645	151.608999968
1680.0	0.0002645	151.655999899
1680.0	0.0002645	151.687000036
1680.0	0.0002645	151.733999968
1680.0	0.0002645	151.780999899
1680.0	0.0002645	151.812000036
1680.0	0.000265	151.858999968
1680.0	0.000265	151.905999899
1680.0	0.000265	151.937000036
1680.0	0.0002653	151.983999968
1680.0	0.0002653	152.030999899
1680.0	0.000265	152.062000036
1680.0	0.0002645	152.108999968
1680.0	0.0002645	152.141000032
1680.0	0.0002643	152.187000036
1680.0	0.0002643	152.233999968
1680.0	0.0002643	152.266000032
1690.0	0.0002543	152.562000036
1690.0	0.0002505	152.593999863
1690.0	0.000247	152.641000032
1690.0	0.0002445	152.687000036
1690.0	0.000243	152.718999863
1690.0	0.0002418	152.766000032
1690.0	0.0002405	152.796999931
1690.0	0.00024	152.843999863
1690.0	0.000239	152.891000032
1690.0	0.0002383	152.921999931
1690.0	0.000238	152.968999863
1690.0	0.0002375	153.016000032
1690.0	0.000237	153.046999931
1690.0	0.0002368	153.093999863
1690.0	0.0002365	153.125
1690.0	0.0002368	153.171999931
1690.0	0.0002368	153.218999863
1690.0	0.0002365	153.25
1690.0	0.0002365	153.296999931
1690.0	0.0002368	153.343999863
1690.0	0.0002368	153.375
1690.0	0.0002365	153.421999931
1690.0	0.0002363	153.468999863
1690.0	0.0002363	153.5
1690.0	0.0002363	153.546999931
1690.0	0.0002363	153.578000069
1690.0	0.0002358	153.625
1690.0	0.0002358	153.671999931
1690.0	0.0002358	153.703000069
1690.0	0.0002358	153.75
1690.0	0.0002363	153.796999931
1690.0	0.0002365	153.828000069
1690.0	0.0002365	153.875
1690.0	0.0002368	153.921999931
1690.0	0.000237	153.953000069
1690.0	0.000237	154.0
1690.0	0.0002368	154.046999931
1700.0	0.0002268	154.328000069
1700.0	0.0002238	154.375
1700.0	0.0002208	154.405999899
1700.0	0.0002188	154.453000069
1700.0	0.000217	154.483999968
1700.0	0.0002158	154.530999899
1700.0	0.000215	154.578000069
1700.0	0.0002143	154.608999968
1700.0	0.0002138	154.655999899
1700.0	0.000213	154.703000069
1700.0	0.0002128	154.733999968
1700.0	0.0002128	154.780999899
1700.0	0.0002128	154.828000069
1700.0	0.000213	154.858999968
1700.0	0.0002128	154.905999899
1700.0	0.0002128	154.937000036
1700.0	0.0002128	154.983999968
1700.0	0.0002125	155.030999899
1700.0	0.000212	155.078000069
1700.0	0.000212	155.108999968
1700.0	0.000212	155.155999899
1700.0	0.0002125	155.187000036
1700.0	0.0002128	155.233999968
1700.0	0.0002128	155.280999899
1700.0	0.0002125	155.312000036
1700.0	0.0002125	155.358999968
1700.0	0.000212	155.405999899
1700.0	0.0002125	155.437000036
1700.0	0.0002125	155.483999968
1700.0	0.0002128	155.516000032
1700.0	0.0002125	155.562000036
1700.0	0.0002125	155.608999968
1700.0	0.0002125	155.641000032
1700.0	0.0002128	155.687000036
1700.0	0.0002128	155.733999968
1700.0	0.000213	155.766000032
1700.0	0.0002133	155.812000036
1710.0	0.0002033	156.093999863
1710.0	0.0002003	156.141000032
1710.0	0.0001978	156.187000036
1710.0	0.0001958	156.218999863
1710.0	0.0001943	156.266000032
1710.0	0.000193	156.296999931
1710.0	0.000192	156.343999863
1710.0	0.0001915	156.391000032
1710.0	0.0001905	156.421999931
1710.0	0.00019	156.468999863
1710.0	0.0001895	156.516000032
1710.0	0.0001895	156.546999931
1710.0	0.0001895	156.593999863
1710.0	0.0001895	156.625
1710.0	0.0001895	156.671999931
1710.0	0.0001895	156.718999863
1710.0	0.0001895	156.766000032
1710.0	0.0001895	156.796999931
1710.0	0.0001895	156.843999863
1710.0	0.0001893	156.875
1710.0	0.0001895	156.921999931
1710.0	0.0001895	156.968999863
1710.0	0.0001895	157.0
1710.0	0.0001895	157.046999931
1710.0	0.0001893	157.093999863
1710.0	0.0001893	157.125
1710.0	0.000189	157.171999931
1710.0	0.000189	157.218999863
1710.0	0.000189	157.25
1710.0	0.000189	157.296999931
1710.0	0.000189	157.328000069
1710.0	0.0001893	157.375
1710.0	0.0001893	157.421999931
1710.0	0.0001893	157.453000069
1710.0	0.000189	157.5
1710.0	0.0001888	157.546999931
1710.0	0.0001888	157.578000069
1720.0	0.0001808	157.875
1720.0	0.0001778	157.905999899
1720.0	0.0001755	157.953000069
1720.0	0.000174	157.983999968
1720.0	0.000173	158.030999899
1720.0	0.000172	158.078000069
1720.0	0.0001715	158.108999968
1720.0	0.0001708	158.155999899
1720.0	0.0001705	158.203000069
1720.0	0.0001703	158.233999968
1720.0	0.0001703	158.280999899
1720.0	0.00017	158.312000036
1720.0	0.0001695	158.358999968
1720.0	0.0001695	158.405999899
1720.0	0.0001695	158.437000036
1720.0	0.0001695	158.483999968
1720.0	0.00017	158.530999899
1720.0	0.0001695	158.562000036
1720.0	0.00017	158.608999968
1720.0	0.00017	158.641000032
1720.0	0.00017	158.687000036
1720.0	0.00017	158.733999968
1720.0	0.00017	158.766000032
1720.0	0.00017	158.812000036
1720.0	0.0001695	158.858999968
1720.0	0.0001695	158.891000032
1720.0	0.0001695	158.937000036
1720.0	0.0001703	158.983999968
1720.0	0.0001705	159.016000032
1720.0	0.0001713	159.062000036
1720.0	0.0001713	159.108999968
1720.0	0.0001713	159.141000032
1720.0	0.0001708	159.187000036
1720.0	0.0001705	159.233999968
1720.0	0.00017	159.266000032
1720.0	0.00017	159.312000036
1720.0	0.0001695	159.358999968
1730.0	0.000162	159.641000032
1730.0	0.0001595	159.687000036
1730.0	0.0001578	159.718999863
1730.0	0.0001563	159.766000032
1730.0	0.000155	159.812000036
1730.0	0.0001543	159.843999863
1730.0	0.000154	159.891000032
1730.0	0.0001538	159.937000036
1730.0	0.0001538	159.968999863
1730.0	0.0001533	160.016000032
1730.0	0.0001533	160.046999931
1730.0	0.000153	160.093999863
1730.0	0.0001528	160.141000032
1730.0	0.0001528	160.171999931
1730.0	0.0001528	160.218999863
1730.0	0.0001528	160.266000032
1730.0	0.0001528	160.296999931
1730.0	0.000153	160.343999863
1730.0	0.000153	160.375
1730.0	0.000153	160.421999931
1730.0	0.0001528	160.468999863
1730.0	0.0001525	160.5
1730.0	0.0001525	160.546999931
1730.0	0.0001525	160.593999863
1730.0	0.000152	160.625
1730.0	0.000152	160.671999931
1730.0	0.0001518	160.718999863
1730.0	0.0001513	160.75
1730.0	0.0001515	160.796999931
1730.0	0.000152	160.828000069
1730.0	0.0001525	160.875
1730.0	0.0001528	160.921999931
1730.0	0.0001525	160.953000069
1730.0	0.0001525	161.0
1730.0	0.000152	161.030999899
1730.0	0.000152	161.078000069
1730.0	0.000152	161.125
1740.0	0.000147	161.405999899
1740.0	0.0001445	161.453000069
1740.0	0.0001433	161.5
1740.0	0.000142	161.530999899
1740.0	0.0001413	161.578000069
1740.0	0.0001403	161.625
1740.0	0.0001393	161.655999899
1740.0	0.0001388	161.703000069
1740.0	0.000138	161.733999968
1740.0	0.000138	161.780999899
1740.0	0.0001375	161.828000069
1740.0	0.0001375	161.858999968
1740.0	0.0001375	161.905999899
1740.0	0.0001375	161.953000069
1740.0	0.0001375	161.983999968
1740.0	0.0001375	162.030999899
1740.0	0.0001375	162.062000036
1740.0	0.0001375	162.108999968
1740.0	0.0001375	162.155999899
1740.0	0.0001375	162.187000036
1740.0	0.0001375	162.233999968
1740.0	0.000137	162.280999899
1740.0	0.0001368	162.328000069
1740.0	0.0001368	162.358999968
1740.0	0.000137	162.405999899
1740.0	0.0001375	162.437000036
1740.0	0.0001375	162.483999968
1740.0	0.0001375	162.530999899
1740.0	0.0001375	162.562000036
1740.0	0.0001375	162.608999968
1740.0	0.0001375	162.655999899
1740.0	0.0001375	162.687000036
1740.0	0.000137	162.733999968
1740.0	0.000137	162.766000032
1740.0	0.0001375	162.812000036
1740.0	0.0001378	162.858999968
1740.0	0.000138	162.891000032
1750.0	0.0001325	163.187000036
1750.0	0.0001305	163.233999968
1750.0	0.0001288	163.266000032
1750.0	0.0001275	163.312000036
1750.0	0.0001265	163.358999968
1750.0	0.0001258	163.391000032
1750.0	0.0001253	163.437000036
1750.0	0.000125	163.483999968
1750.0	0.000125	163.516000032
1750.0	0.0001245	163.562000036
1750.0	0.0001245	163.608999968
1750.0	0.0001245	163.641000032
1750.0	0.0001245	163.687000036
1750.0	0.0001243	163.718999863
1750.0	0.0001243	163.766000032
1750.0	0.0001243	163.812000036
1750.0	0.0001243	163.843999863
1750.0	0.0001243	163.891000032
1750.0	0.0001243	163.937000036
1750.0	0.0001243	163.968999863
1750.0	0.0001243	164.016000032
1750.0	0.0001243	164.046999931
1750.0	0.0001243	164.093999863
1750.0	0.000124	164.141000032
1750.0	0.000124	164.171999931
1750.0	0.000124	164.218999863
1750.0	0.000124	164.266000032
1750.0	0.000124	164.296999931
1750.0	0.000124	164.343999863
1750.0	0.0001243	164.391000032
1750.0	0.0001243	164.421999931
1750.0	0.0001243	164.468999863
1750.0	0.000124	164.5
1750.0	0.000124	164.546999931
1750.0	0.000124	164.593999863
1750.0	0.0001243	164.625
1750.0	0.0001243	164.671999931
1760.0	0.000118	164.968999863
1760.0	0.0001163	165.016000032
1760.0	0.000115	165.062000036
1760.0	0.000114	165.093999863
1760.0	0.000113	165.141000032
1760.0	0.0001128	165.187000036
1760.0	0.0001125	165.218999863
1760.0	0.000112	165.266000032
1760.0	0.0001118	165.312000036
1760.0	0.0001115	165.343999863
1760.0	0.0001115	165.391000032
1760.0	0.0001113	165.437000036
1760.0	0.0001115	165.468999863
1760.0	0.0001115	165.516000032
1760.0	0.0001115	165.546999931
1760.0	0.0001113	165.593999863
1760.0	0.0001115	165.641000032
1760.0	0.0001115	165.671999931
1760.0	0.0001113	165.718999863
1760.0	0.0001108	165.766000032
1760.0	0.0001108	165.796999931
1760.0	0.0001113	165.843999863
1760.0	0.0001115	165.891000032
1760.0	0.0001118	165.921999931
1760.0	0.0001115	165.968999863
1760.0	0.0001118	166.016000032
1760.0	0.0001118	166.046999931
1760.0	0.0001115	166.093999863
1760.0	0.0001113	166.125
1760.0	0.0001113	166.171999931
1760.0	0.0001108	166.218999863
1760.0	0.0001113	166.25
1760.0	0.0001113	166.296999931
1760.0	0.0001115	166.343999863
1760.0	0.0001115	166.375
1760.0	0.0001115	166.421999931
1770.0	0.0001063	166.718999863
1770.0	0.0001045	166.766000032
1770.0	0.0001038	166.812000036
1770.0	0.0001028	166.843999863
1770.0	0.0001018	166.891000032
1770.0	0.0001013	166.921999931
1770.0	0.0001008	166.968999863
1770.0	0.0001005	167.016000032
1770.0	0.0001005	167.046999931
1770.0	0.0001003	167.093999863
1770.0	0.0001003	167.141000032
1770.0	0.0001003	167.171999931
1770.0	0.0001003	167.218999863
1770.0	0.0001	167.25
1770.0	9.95e-05	167.296999931
1770.0	9.9e-05	167.343999863
1770.0	9.9e-05	167.375
1770.0	9.9e-05	167.421999931
1770.0	9.93e-05	167.468999863
1770.0	9.93e-05	167.516000032
1770.0	9.93e-05	167.546999931
1770.0	9.95e-05	167.593999863
1770.0	9.95e-05	167.641000032
1770.0	9.95e-05	167.671999931
1770.0	9.95e-05	167.718999863
1770.0	9.95e-05	167.766000032
1770.0	9.93e-05	167.796999931
1770.0	9.93e-05	167.843999863
1770.0	9.95e-05	167.875
1770.0	0.0001	167.921999931
1770.0	0.0001003	167.968999863
1770.0	0.0001	168.0
1770.0	9.95e-05	168.046999931
1770.0	9.93e-05	168.093999863
1770.0	9.93e-05	168.141000032
1770.0	9.93e-05	168.171999931
1770.0	9.95e-05	168.218999863
1780.0	9.45e-05	168.516000032
1780.0	9.3e-05	168.562000036
1780.0	9.2e-05	168.593999863
1780.0	9.13e-05	168.641000032
1780.0	9.03e-05	168.687000036
1780.0	9e-05	168.718999863
1780.0	8.93e-05	168.766000032
1780.0	8.9e-05	168.812000036
1780.0	8.9e-05	168.843999863
1780.0	8.9e-05	168.891000032
1780.0	8.88e-05	168.921999931
1780.0	8.83e-05	168.968999863
1780.0	8.8e-05	169.016000032
1780.0	8.78e-05	169.046999931
1780.0	8.78e-05	169.093999863
1780.0	8.78e-05	169.141000032
1780.0	8.8e-05	169.171999931
1780.0	8.8e-05	169.218999863
1780.0	8.8e-05	169.266000032
1780.0	8.83e-05	169.296999931
1780.0	8.83e-05	169.343999863
1780.0	8.83e-05	169.375
1780.0	8.83e-05	169.421999931
1780.0	8.88e-05	169.468999863
1780.0	8.88e-05	169.5
1780.0	8.83e-05	169.546999931
1780.0	8.83e-05	169.593999863
1780.0	8.8e-05	169.625
1780.0	8.8e-05	169.671999931
1780.0	8.8e-05	169.703000069
1780.0	8.8e-05	169.75
1780.0	8.78e-05	169.796999931
1780.0	8.8e-05	169.828000069
1780.0	8.83e-05	169.875
1780.0	8.83e-05	169.921999931
1780.0	8.83e-05	169.953000069
1780.0	8.88e-05	170.0
1790.0	8.5e-05	170.296999931
1790.0	8.33e-05	170.343999863
1790.0	8.18e-05	170.375
1790.0	8.05e-05	170.421999931
1790.0	7.95e-05	170.468999863
1790.0	7.9e-05	170.5
1790.0	7.88e-05	170.546999931
1790.0	7.88e-05	170.578000069
1790.0	7.88e-05	170.625
1790.0	7.83e-05	170.671999931
1790.0	7.8e-05	170.703000069
1790.0	7.78e-05	170.75
1790.0	7.75e-05	170.796999931
1790.0	7.75e-05	170.828000069
1790.0	7.75e-05	170.875
1790.0	7.75e-05	170.905999899
1790.0	7.78e-05	170.953000069
1790.0	7.78e-05	171.0
1790.0	7.78e-05	171.030999899
1790.0	7.78e-05	171.078000069
1790.0	7.78e-05	171.125
1790.0	7.78e-05	171.155999899
1790.0	7.8e-05	171.203000069
1790.0	7.83e-05	171.233999968
1790.0	7.83e-05	171.280999899
1790.0	7.83e-05	171.328000069
1790.0	7.83e-05	171.375
1790.0	7.83e-05	171.405999899
1790.0	7.8e-05	171.453000069
1790.0	7.8e-05	171.483999968
1790.0	7.78e-05	171.530999899
1790.0	7.78e-05	171.578000069
1790.0	7.75e-05	171.608999968
1790.0	7.75e-05	171.655999899
1790.0	7.7e-05	171.703000069
1790.0	7.7e-05	171.733999968
1790.0	7.75e-05	171.780999899
1800.0	7.38e-05	172.078000069
1800.0	7.28e-05	172.125
1800.0	7.18e-05	172.155999899
1800.0	7.13e-05	172.203000069
1800.0	7.08e-05	172.25
1800.0	7.03e-05	172.280999899
1800.0	7e-05	172.328000069
1800.0	6.95e-05	172.358999968
1800.0	6.93e-05	172.405999899
1800.0	6.93e-05	172.453000069
1800.0	6.93e-05	172.5
1800.0	6.9e-05	172.530999899
1800.0	6.88e-05	172.578000069
1800.0	6.88e-05	172.625
1800.0	6.88e-05	172.655999899
1800.0	6.88e-05	172.703000069
1800.0	6.83e-05	172.75
1800.0	6.83e-05	172.780999899
1800.0	6.8e-05	172.828000069
1800.0	6.83e-05	172.875
1800.0	6.83e-05	172.905999899
1800.0	6.8e-05	172.953000069
1800.0	6.78e-05	172.983999968
1800.0	6.8e-05	173.030999899
1800.0	6.83e-05	173.078000069
1800.0	6.88e-05	173.108999968
1800.0	6.88e-05	173.155999899
1800.0	6.88e-05	173.203000069
1800.0	6.88e-05	173.233999968
1800.0	6.88e-05	173.280999899
1800.0	6.88e-05	173.312000036
1800.0	6.9e-05	173.358999968
1800.0	6.9e-05	173.405999899
1800.0	6.9e-05	173.437000036
1800.0	6.88e-05	173.483999968
1800.0	6.88e-05	173.530999899
