Your edit line - do NOT delete this line
Wavelength [nm], Voltage [V], Elapsed time [s]
900.0	0.0002603	14.1089999676
900.0	0.0002553	14.1410000324
900.0	0.0002513	14.1870000362
900.0	0.000248	14.2189998627
900.0	0.0002455	14.2660000324
900.0	0.0002438	14.3120000362
900.0	0.0002425	14.3439998627
900.0	0.0002413	14.3910000324
900.0	0.0002405	14.4370000362
900.0	0.0002395	14.4689998627
900.0	0.000239	14.5160000324
900.0	0.0002388	14.5469999313
900.0	0.0002388	14.5939998627
900.0	0.0002383	14.6410000324
900.0	0.0002383	14.6719999313
900.0	0.0002383	14.7189998627
900.0	0.0002388	14.7660000324
900.0	0.000239	14.7969999313
900.0	0.0002393	14.8439998627
900.0	0.0002393	14.875
900.0	0.0002393	14.9219999313
900.0	0.0002393	14.9689998627
900.0	0.0002395	15.0
900.0	0.0002395	15.0469999313
900.0	0.0002393	15.0939998627
900.0	0.0002393	15.125
900.0	0.0002393	15.1719999313
900.0	0.0002393	15.2189998627
900.0	0.0002393	15.25
900.0	0.0002393	15.2969999313
900.0	0.000239	15.3439998627
900.0	0.0002388	15.375
900.0	0.0002388	15.4219999313
900.0	0.0002388	15.4689998627
900.0	0.0002388	15.5
900.0	0.0002388	15.5469999313
900.0	0.0002388	15.5780000687
910.0	0.0002495	15.8910000324
910.0	0.0002528	15.9219999313
910.0	0.0002555	15.9689998627
910.0	0.0002575	16.0160000324
910.0	0.0002588	16.0469999313
910.0	0.00026	16.0939998627
910.0	0.0002605	16.1410000324
910.0	0.0002615	16.1719999313
910.0	0.000262	16.2189998627
910.0	0.0002625	16.2660000324
910.0	0.000263	16.2969999313
910.0	0.000263	16.3439998627
910.0	0.000263	16.375
910.0	0.0002633	16.4219999313
910.0	0.0002638	16.4689998627
910.0	0.0002633	16.5
910.0	0.0002638	16.5469999313
910.0	0.0002638	16.5939998627
910.0	0.000263	16.625
910.0	0.0002633	16.6719999313
910.0	0.000263	16.7189998627
910.0	0.000263	16.75
910.0	0.000263	16.7969999313
910.0	0.000263	16.8439998627
910.0	0.000263	16.875
910.0	0.0002633	16.9219999313
910.0	0.0002633	16.9530000687
910.0	0.0002638	17.0
910.0	0.0002638	17.0469999313
910.0	0.0002638	17.0780000687
910.0	0.0002633	17.125
910.0	0.000263	17.1719999313
910.0	0.000263	17.2030000687
910.0	0.000263	17.25
910.0	0.000263	17.2969999313
910.0	0.000263	17.3280000687
910.0	0.000263	17.375
920.0	0.0002745	17.6719999313
920.0	0.0002783	17.7189998627
920.0	0.0002815	17.7660000324
920.0	0.0002838	17.7969999313
920.0	0.0002853	17.8439998627
920.0	0.0002868	17.8910000324
920.0	0.0002878	17.9219999313
920.0	0.0002883	17.9689998627
920.0	0.000289	18.0
920.0	0.0002893	18.0469999313
920.0	0.0002893	18.0939998627
920.0	0.00029	18.125
920.0	0.00029	18.1719999313
920.0	0.0002903	18.2189998627
920.0	0.0002903	18.25
920.0	0.0002905	18.2969999313
920.0	0.0002905	18.3439998627
920.0	0.0002905	18.375
920.0	0.0002908	18.4219999313
920.0	0.0002913	18.4689998627
920.0	0.0002913	18.5160000324
920.0	0.0002913	18.5469999313
920.0	0.0002913	18.5939998627
920.0	0.0002915	18.625
920.0	0.0002915	18.6719999313
920.0	0.0002913	18.7189998627
920.0	0.0002908	18.7660000324
920.0	0.0002905	18.7969999313
920.0	0.0002903	18.8439998627
920.0	0.0002903	18.875
920.0	0.0002903	18.9219999313
920.0	0.00029	18.9689998627
920.0	0.0002903	19.0
920.0	0.0002903	19.0469999313
920.0	0.0002903	19.0939998627
920.0	0.0002903	19.125
920.0	0.0002905	19.1719999313
930.0	0.0003028	19.4689998627
930.0	0.0003068	19.5160000324
930.0	0.0003105	19.5620000362
930.0	0.000313	19.5939998627
930.0	0.0003153	19.6410000324
930.0	0.0003168	19.6870000362
930.0	0.000318	19.7189998627
930.0	0.0003188	19.7660000324
930.0	0.000319	19.8120000362
930.0	0.0003195	19.8439998627
930.0	0.0003195	19.8910000324
930.0	0.0003195	19.9219999313
930.0	0.00032	19.9689998627
930.0	0.00032	20.0160000324
930.0	0.00032	20.0469999313
930.0	0.00032	20.0939998627
930.0	0.0003195	20.1410000324
930.0	0.0003195	20.1719999313
930.0	0.0003193	20.2189998627
930.0	0.0003193	20.25
930.0	0.0003193	20.2969999313
930.0	0.0003195	20.3439998627
930.0	0.0003195	20.375
930.0	0.0003195	20.4219999313
930.0	0.0003195	20.4689998627
930.0	0.0003195	20.5
930.0	0.0003195	20.5469999313
930.0	0.0003195	20.5939998627
930.0	0.00032	20.625
930.0	0.0003203	20.6719999313
930.0	0.0003203	20.7030000687
930.0	0.0003203	20.75
930.0	0.00032	20.7969999313
930.0	0.00032	20.8280000687
930.0	0.0003203	20.875
930.0	0.0003203	20.9219999313
940.0	0.0003325	21.2189998627
940.0	0.0003365	21.25
940.0	0.00034	21.2969999313
940.0	0.0003425	21.3439998627
940.0	0.0003443	21.375
940.0	0.0003455	21.4219999313
940.0	0.0003468	21.4689998627
940.0	0.000348	21.5
940.0	0.000349	21.5469999313
940.0	0.0003495	21.5780000687
940.0	0.0003503	21.625
940.0	0.0003503	21.6719999313
940.0	0.00035	21.7030000687
940.0	0.00035	21.75
940.0	0.00035	21.7969999313
940.0	0.0003503	21.8280000687
940.0	0.0003505	21.875
940.0	0.0003505	21.9059998989
940.0	0.0003508	21.9530000687
940.0	0.0003508	22.0
940.0	0.0003505	22.0309998989
940.0	0.0003505	22.0780000687
940.0	0.0003505	22.125
940.0	0.0003505	22.1559998989
940.0	0.0003505	22.2030000687
940.0	0.0003505	22.2339999676
940.0	0.0003505	22.2809998989
940.0	0.0003505	22.3280000687
940.0	0.0003505	22.3589999676
940.0	0.0003505	22.4059998989
940.0	0.0003505	22.4530000687
940.0	0.0003508	22.5
940.0	0.0003508	22.5309998989
940.0	0.0003505	22.5780000687
940.0	0.0003503	22.6089999676
940.0	0.0003503	22.6559998989
940.0	0.00035	22.7030000687
950.0	0.0003633	23.0
950.0	0.0003675	23.0309998989
950.0	0.0003708	23.0780000687
950.0	0.0003738	23.1089999676
950.0	0.0003758	23.1559998989
950.0	0.0003775	23.2030000687
950.0	0.0003783	23.2339999676
950.0	0.0003793	23.2809998989
950.0	0.00038	23.3280000687
950.0	0.0003805	23.3589999676
950.0	0.0003813	23.4059998989
950.0	0.0003818	23.4530000687
950.0	0.0003818	23.4839999676
950.0	0.000382	23.5309998989
950.0	0.0003825	23.5620000362
950.0	0.0003825	23.6089999676
950.0	0.0003828	23.6559998989
950.0	0.0003828	23.6870000362
950.0	0.0003828	23.7339999676
950.0	0.0003828	23.7809998989
950.0	0.0003828	23.8120000362
950.0	0.000383	23.8589999676
950.0	0.0003833	23.8910000324
950.0	0.000383	23.9370000362
950.0	0.000383	23.9839999676
950.0	0.0003828	24.0160000324
950.0	0.0003828	24.0620000362
950.0	0.0003825	24.1089999676
950.0	0.0003825	24.1410000324
950.0	0.0003825	24.1870000362
950.0	0.000382	24.2189998627
950.0	0.0003818	24.2660000324
950.0	0.0003815	24.3120000362
950.0	0.0003815	24.3439998627
950.0	0.0003818	24.3910000324
950.0	0.000382	24.4370000362
950.0	0.000382	24.4839999676
960.0	0.0003945	24.7660000324
960.0	0.0003983	24.7969999313
960.0	0.0004018	24.8439998627
960.0	0.0004045	24.8910000324
960.0	0.0004068	24.9219999313
960.0	0.000409	24.9689998627
960.0	0.0004105	25.0160000324
960.0	0.000412	25.0469999313
960.0	0.0004133	25.0939998627
960.0	0.0004138	25.1410000324
960.0	0.0004143	25.1719999313
960.0	0.0004145	25.2189998627
960.0	0.0004145	25.25
960.0	0.0004143	25.2969999313
960.0	0.000414	25.3439998627
960.0	0.000414	25.375
960.0	0.0004138	25.4219999313
960.0	0.0004138	25.4689998627
960.0	0.0004138	25.5
960.0	0.0004143	25.5469999313
960.0	0.0004143	25.5780000687
960.0	0.0004143	25.625
960.0	0.0004145	25.6719999313
960.0	0.0004145	25.7030000687
960.0	0.000415	25.75
960.0	0.0004153	25.7969999313
960.0	0.0004153	25.8280000687
960.0	0.000415	25.875
960.0	0.000415	25.9059998989
960.0	0.0004145	25.9530000687
960.0	0.0004143	26.0
960.0	0.0004143	26.0309998989
960.0	0.0004143	26.0780000687
960.0	0.0004143	26.125
960.0	0.0004145	26.1559998989
960.0	0.0004145	26.2030000687
960.0	0.0004145	26.25
970.0	0.000427	26.5309998989
970.0	0.0004313	26.5620000362
970.0	0.0004345	26.6089999676
970.0	0.000437	26.6559998989
970.0	0.0004393	26.6870000362
970.0	0.0004408	26.7339999676
970.0	0.000442	26.7660000324
970.0	0.000443	26.8120000362
970.0	0.0004443	26.8589999676
970.0	0.0004455	26.8910000324
970.0	0.0004463	26.9370000362
970.0	0.0004468	26.9839999676
970.0	0.000447	27.0160000324
970.0	0.000447	27.0620000362
970.0	0.000447	27.0939998627
970.0	0.000447	27.1410000324
970.0	0.0004468	27.1870000362
970.0	0.0004475	27.2189998627
970.0	0.0004475	27.2660000324
970.0	0.0004475	27.3120000362
970.0	0.000447	27.3439998627
970.0	0.000447	27.3910000324
970.0	0.0004468	27.4219999313
970.0	0.0004465	27.4689998627
970.0	0.0004465	27.5160000324
970.0	0.0004463	27.5469999313
970.0	0.0004465	27.5939998627
970.0	0.0004465	27.6410000324
970.0	0.0004465	27.6719999313
970.0	0.0004468	27.7189998627
970.0	0.0004468	27.7660000324
970.0	0.000447	27.7969999313
970.0	0.000447	27.8439998627
970.0	0.000447	27.875
970.0	0.000447	27.9219999313
970.0	0.000447	27.9689998627
970.0	0.0004468	28.0
980.0	0.0004583	28.2809998989
980.0	0.0004625	28.3280000687
980.0	0.0004663	28.3589999676
980.0	0.000469	28.4059998989
980.0	0.0004713	28.4530000687
980.0	0.0004725	28.4839999676
980.0	0.000474	28.5309998989
980.0	0.0004745	28.5780000687
980.0	0.0004753	28.6089999676
980.0	0.0004753	28.6559998989
980.0	0.0004755	28.6870000362
980.0	0.0004758	28.7339999676
980.0	0.0004758	28.7809998989
980.0	0.0004763	28.8120000362
980.0	0.0004768	28.8589999676
980.0	0.0004768	28.9059998989
980.0	0.0004768	28.9370000362
980.0	0.0004768	28.9839999676
980.0	0.000477	29.0309998989
980.0	0.000477	29.0620000362
980.0	0.0004775	29.1089999676
980.0	0.000477	29.1410000324
980.0	0.000477	29.1870000362
980.0	0.000477	29.2339999676
980.0	0.000477	29.2660000324
980.0	0.0004775	29.3120000362
980.0	0.000477	29.3589999676
980.0	0.000477	29.3910000324
980.0	0.0004768	29.4370000362
980.0	0.0004768	29.4689998627
980.0	0.0004768	29.5160000324
980.0	0.0004768	29.5620000362
980.0	0.000477	29.5939998627
980.0	0.000477	29.6410000324
980.0	0.0004768	29.6719999313
980.0	0.0004768	29.7189998627
980.0	0.0004768	29.7660000324
990.0	0.0004878	30.0469999313
990.0	0.0004915	30.0780000687
990.0	0.0004945	30.125
990.0	0.0004975	30.1719999313
990.0	0.0004993	30.2030000687
990.0	0.0005013	30.25
990.0	0.0005025	30.2809998989
990.0	0.0005038	30.3280000687
990.0	0.0005045	30.375
990.0	0.0005055	30.4059998989
990.0	0.0005058	30.4530000687
990.0	0.0005058	30.5
990.0	0.0005058	30.5309998989
990.0	0.0005058	30.5780000687
990.0	0.0005058	30.625
990.0	0.0005058	30.6559998989
990.0	0.0005058	30.7030000687
990.0	0.0005058	30.7339999676
990.0	0.0005055	30.7809998989
990.0	0.0005055	30.8280000687
990.0	0.0005055	30.875
990.0	0.0005058	30.9059998989
990.0	0.0005058	30.9530000687
990.0	0.0005058	30.9839999676
990.0	0.0005063	31.0309998989
990.0	0.0005065	31.0780000687
990.0	0.0005065	31.1089999676
990.0	0.0005068	31.1559998989
990.0	0.000507	31.2030000687
990.0	0.000507	31.2339999676
990.0	0.0005068	31.2809998989
990.0	0.0005068	31.3120000362
990.0	0.0005068	31.3589999676
990.0	0.000507	31.4059998989
990.0	0.0005068	31.4370000362
990.0	0.0005068	31.4839999676
990.0	0.0005068	31.5309998989
1000.0	0.0005183	31.7969999313
1000.0	0.000522	31.8439998627
1000.0	0.0005255	31.8910000324
1000.0	0.0005283	31.9219999313
1000.0	0.0005305	31.9689998627
1000.0	0.000532	32.0160000324
1000.0	0.0005333	32.0469999313
1000.0	0.0005345	32.0939998627
1000.0	0.000535	32.1410000324
1000.0	0.0005355	32.1719999313
1000.0	0.0005358	32.2189998627
1000.0	0.0005363	32.2660000324
1000.0	0.0005365	32.2969999313
1000.0	0.0005368	32.3439998627
1000.0	0.0005368	32.375
1000.0	0.0005368	32.4219999313
1000.0	0.0005368	32.4689998627
1000.0	0.0005368	32.5
1000.0	0.0005368	32.5469999313
1000.0	0.0005365	32.5939998627
1000.0	0.0005365	32.625
1000.0	0.0005365	32.6719999313
1000.0	0.0005368	32.7189998627
1000.0	0.0005365	32.75
1000.0	0.0005363	32.7969999313
1000.0	0.0005363	32.8280000687
1000.0	0.0005358	32.875
1000.0	0.0005358	32.9219999313
1000.0	0.0005355	32.9530000687
1000.0	0.0005355	33.0
1000.0	0.0005358	33.0469999313
1000.0	0.0005363	33.0780000687
1000.0	0.0005363	33.125
1000.0	0.0005363	33.1559998989
1000.0	0.0005365	33.2030000687
1000.0	0.0005363	33.25
1000.0	0.0005363	33.2809998989
1010.0	0.0005475	33.5620000362
1010.0	0.0005513	33.6089999676
1010.0	0.0005543	33.6410000324
1010.0	0.000557	33.6870000362
1010.0	0.0005593	33.7339999676
1010.0	0.0005613	33.7660000324
1010.0	0.0005625	33.8120000362
1010.0	0.0005633	33.8589999676
1010.0	0.000564	33.8910000324
1010.0	0.0005645	33.9370000362
1010.0	0.000565	33.9839999676
1010.0	0.0005655	34.0160000324
1010.0	0.0005658	34.0620000362
1010.0	0.0005658	34.0939998627
1010.0	0.0005655	34.1410000324
1010.0	0.0005655	34.1870000362
1010.0	0.0005658	34.2189998627
1010.0	0.0005663	34.2660000324
1010.0	0.0005665	34.2969999313
1010.0	0.0005668	34.3439998627
1010.0	0.0005668	34.3910000324
1010.0	0.0005663	34.4219999313
1010.0	0.0005663	34.4689998627
1010.0	0.0005658	34.5160000324
1010.0	0.0005658	34.5469999313
1010.0	0.0005658	34.5939998627
1010.0	0.0005655	34.6410000324
1010.0	0.0005655	34.6719999313
1010.0	0.0005658	34.7189998627
1010.0	0.0005658	34.75
1010.0	0.0005658	34.7969999313
1010.0	0.0005663	34.8439998627
1010.0	0.0005663	34.875
1010.0	0.0005665	34.9219999313
1010.0	0.0005663	34.9689998627
1010.0	0.0005663	35.0
1010.0	0.0005663	35.0469999313
1020.0	0.0005783	35.3280000687
1020.0	0.000582	35.3589999676
1020.0	0.0005853	35.4059998989
1020.0	0.0005878	35.4530000687
1020.0	0.0005905	35.4839999676
1020.0	0.0005925	35.5309998989
1020.0	0.000594	35.5780000687
1020.0	0.000595	35.6089999676
1020.0	0.0005963	35.6559998989
1020.0	0.0005965	35.6870000362
1020.0	0.0005965	35.7339999676
1020.0	0.0005965	35.7809998989
1020.0	0.0005968	35.8120000362
1020.0	0.000597	35.8589999676
1020.0	0.000597	35.9059998989
1020.0	0.0005975	35.9370000362
1020.0	0.0005975	35.9839999676
1020.0	0.000597	36.0160000324
1020.0	0.0005968	36.0620000362
1020.0	0.0005968	36.1089999676
1020.0	0.0005965	36.1410000324
1020.0	0.0005965	36.1870000362
1020.0	0.0005965	36.2339999676
1020.0	0.0005968	36.2660000324
1020.0	0.0005968	36.3120000362
1020.0	0.0005968	36.3439998627
1020.0	0.0005968	36.3910000324
1020.0	0.0005968	36.4370000362
1020.0	0.000597	36.4689998627
1020.0	0.0005975	36.5160000324
1020.0	0.0005978	36.5620000362
1020.0	0.0005975	36.5939998627
1020.0	0.000597	36.6410000324
1020.0	0.0005968	36.6719999313
1020.0	0.0005968	36.7189998627
1020.0	0.0005968	36.7660000324
1020.0	0.0005968	36.7969999313
1030.0	0.000609	37.0780000687
1030.0	0.000613	37.125
1030.0	0.0006165	37.1719999313
1030.0	0.0006193	37.2030000687
1030.0	0.0006213	37.25
1030.0	0.000623	37.2969999313
1030.0	0.0006243	37.3280000687
1030.0	0.000625	37.375
1030.0	0.0006255	37.4219999313
1030.0	0.0006263	37.4530000687
1030.0	0.0006268	37.5
1030.0	0.000627	37.5309998989
1030.0	0.0006275	37.5780000687
1030.0	0.0006278	37.625
1030.0	0.0006275	37.6559998989
1030.0	0.000627	37.7030000687
1030.0	0.0006268	37.75
1030.0	0.0006268	37.7809998989
1030.0	0.000627	37.8280000687
1030.0	0.0006275	37.8589999676
1030.0	0.0006275	37.9059998989
1030.0	0.0006275	37.9530000687
1030.0	0.0006275	37.9839999676
1030.0	0.0006275	38.0309998989
1030.0	0.0006278	38.0780000687
1030.0	0.0006278	38.1089999676
1030.0	0.0006278	38.1559998989
1030.0	0.000628	38.2030000687
1030.0	0.000628	38.2339999676
1030.0	0.0006278	38.2809998989
1030.0	0.0006275	38.3120000362
1030.0	0.0006275	38.3589999676
1030.0	0.0006278	38.4059998989
1030.0	0.0006278	38.4370000362
1030.0	0.0006278	38.4839999676
1030.0	0.0006278	38.5309998989
1030.0	0.0006278	38.5620000362
1040.0	0.0006403	38.8439998627
1040.0	0.000644	38.8910000324
1040.0	0.0006475	38.9370000362
1040.0	0.00065	38.9689998627
1040.0	0.0006523	39.0160000324
1040.0	0.0006535	39.0469999313
1040.0	0.000655	39.0939998627
1040.0	0.0006555	39.1410000324
1040.0	0.0006565	39.1719999313
1040.0	0.0006573	39.2189998627
1040.0	0.0006575	39.2660000324
1040.0	0.0006578	39.2969999313
1040.0	0.000658	39.3439998627
1040.0	0.0006585	39.375
1040.0	0.0006588	39.4219999313
1040.0	0.0006588	39.4689998627
1040.0	0.0006588	39.5
1040.0	0.0006588	39.5469999313
1040.0	0.0006588	39.5939998627
1040.0	0.000659	39.625
1040.0	0.000659	39.6719999313
1040.0	0.0006593	39.7030000687
1040.0	0.0006598	39.75
1040.0	0.0006598	39.7969999313
1040.0	0.000659	39.8280000687
1040.0	0.0006588	39.875
1040.0	0.0006588	39.9219999313
1040.0	0.000659	39.9530000687
1040.0	0.000659	40.0
1040.0	0.000659	40.0309998989
1040.0	0.000659	40.0780000687
1040.0	0.000659	40.125
1040.0	0.0006598	40.1559998989
1040.0	0.0006598	40.2030000687
1040.0	0.00066	40.25
1040.0	0.00066	40.2809998989
1040.0	0.0006598	40.3280000687
1050.0	0.0006705	40.6089999676
1050.0	0.0006748	40.6559998989
1050.0	0.000678	40.6870000362
1050.0	0.000681	40.7339999676
1050.0	0.0006835	40.7809998989
1050.0	0.000685	40.8120000362
1050.0	0.0006863	40.8589999676
1050.0	0.0006875	40.8910000324
1050.0	0.0006878	40.9370000362
1050.0	0.0006885	40.9839999676
1050.0	0.0006888	41.0160000324
1050.0	0.0006888	41.0620000362
1050.0	0.0006888	41.1089999676
1050.0	0.0006888	41.1410000324
1050.0	0.000689	41.1870000362
1050.0	0.000689	41.2189998627
1050.0	0.0006893	41.2660000324
1050.0	0.0006893	41.3120000362
1050.0	0.0006898	41.3439998627
1050.0	0.0006893	41.3910000324
1050.0	0.0006898	41.4370000362
1050.0	0.0006898	41.4689998627
1050.0	0.0006898	41.5160000324
1050.0	0.0006898	41.5469999313
1050.0	0.0006898	41.5939998627
1050.0	0.0006898	41.6410000324
1050.0	0.0006898	41.6719999313
1050.0	0.00069	41.7189998627
1050.0	0.00069	41.7660000324
1050.0	0.0006903	41.7969999313
1050.0	0.0006905	41.8439998627
1050.0	0.0006905	41.8910000324
1050.0	0.0006903	41.9219999313
1050.0	0.0006903	41.9689998627
1050.0	0.00069	42.0
1050.0	0.00069	42.0469999313
1050.0	0.00069	42.0939998627
1060.0	0.0007013	42.375
1060.0	0.0007048	42.4059998989
1060.0	0.0007075	42.4530000687
1060.0	0.0007103	42.5
1060.0	0.0007123	42.5309998989
1060.0	0.000714	42.5780000687
1060.0	0.0007153	42.625
1060.0	0.000716	42.6559998989
1060.0	0.0007165	42.7030000687
1060.0	0.0007173	42.7339999676
1060.0	0.0007178	42.7809998989
1060.0	0.0007178	42.8280000687
1060.0	0.0007178	42.8589999676
1060.0	0.000718	42.9059998989
1060.0	0.000718	42.9530000687
1060.0	0.000718	42.9839999676
1060.0	0.000718	43.0309998989
1060.0	0.000718	43.0620000362
1060.0	0.0007178	43.1089999676
1060.0	0.0007178	43.1559998989
1060.0	0.000718	43.1870000362
1060.0	0.0007185	43.2339999676
1060.0	0.0007185	43.2809998989
1060.0	0.000718	43.3120000362
1060.0	0.0007185	43.3589999676
1060.0	0.000718	43.4059998989
1060.0	0.000718	43.4370000362
1060.0	0.0007178	43.4839999676
1060.0	0.0007178	43.5160000324
1060.0	0.0007175	43.5620000362
1060.0	0.0007173	43.6089999676
1060.0	0.0007173	43.6410000324
1060.0	0.0007173	43.6870000362
1060.0	0.0007173	43.7339999676
1060.0	0.0007175	43.7660000324
1060.0	0.0007175	43.8120000362
1060.0	0.0007175	43.8589999676
1070.0	0.000729	44.1410000324
1070.0	0.000733	44.1719999313
1070.0	0.000736	44.2189998627
1070.0	0.0007385	44.2660000324
1070.0	0.0007403	44.2969999313
1070.0	0.0007413	44.3439998627
1070.0	0.0007423	44.3910000324
1070.0	0.0007428	44.4219999313
1070.0	0.0007435	44.4689998627
1070.0	0.0007438	44.5
1070.0	0.0007435	44.5469999313
1070.0	0.0007438	44.5939998627
1070.0	0.0007438	44.625
1070.0	0.0007438	44.6719999313
1070.0	0.000744	44.7189998627
1070.0	0.000744	44.75
1070.0	0.000744	44.7969999313
1070.0	0.000744	44.8280000687
1070.0	0.0007443	44.875
1070.0	0.0007443	44.9219999313
1070.0	0.0007443	44.9530000687
1070.0	0.0007443	45.0
1070.0	0.0007448	45.0469999313
1070.0	0.0007443	45.0780000687
1070.0	0.0007448	45.125
1070.0	0.0007448	45.1719999313
1070.0	0.0007448	45.2030000687
1070.0	0.0007448	45.25
1070.0	0.0007448	45.2809998989
1070.0	0.0007448	45.3280000687
1070.0	0.0007448	45.375
1070.0	0.0007448	45.4059998989
1070.0	0.0007443	45.4530000687
1070.0	0.0007443	45.5
1070.0	0.0007443	45.5309998989
1070.0	0.0007438	45.5780000687
1070.0	0.0007438	45.6089999676
1080.0	0.0007528	45.9059998989
1080.0	0.0007563	45.9370000362
1080.0	0.000759	45.9839999676
1080.0	0.0007613	46.0160000324
1080.0	0.0007635	46.0620000362
1080.0	0.000765	46.1089999676
1080.0	0.0007663	46.1410000324
1080.0	0.0007668	46.1870000362
1080.0	0.0007675	46.2339999676
1080.0	0.0007678	46.2660000324
1080.0	0.0007678	46.3120000362
1080.0	0.0007678	46.3439998627
1080.0	0.000768	46.3910000324
1080.0	0.0007685	46.4370000362
1080.0	0.000768	46.4689998627
1080.0	0.000768	46.5160000324
1080.0	0.000768	46.5620000362
1080.0	0.000768	46.5939998627
1080.0	0.000768	46.6410000324
1080.0	0.0007685	46.6870000362
1080.0	0.0007685	46.7189998627
1080.0	0.0007685	46.7660000324
1080.0	0.0007688	46.7969999313
1080.0	0.000769	46.8439998627
1080.0	0.0007693	46.8910000324
1080.0	0.0007693	46.9219999313
1080.0	0.0007698	46.9689998627
1080.0	0.0007698	47.0160000324
1080.0	0.0007698	47.0469999313
1080.0	0.0007698	47.0939998627
1080.0	0.0007693	47.125
1080.0	0.0007693	47.1719999313
1080.0	0.0007698	47.2189998627
1080.0	0.0007698	47.25
1080.0	0.0007698	47.2969999313
1080.0	0.0007698	47.3439998627
1080.0	0.0007698	47.375
1090.0	0.0007788	47.6559998989
1090.0	0.0007815	47.7030000687
1090.0	0.000784	47.75
1090.0	0.000786	47.7809998989
1090.0	0.0007873	47.8280000687
1090.0	0.0007885	47.8589999676
1090.0	0.0007893	47.9059998989
1090.0	0.0007903	47.9530000687
1090.0	0.000791	47.9839999676
1090.0	0.0007913	48.0309998989
1090.0	0.0007915	48.0780000687
1090.0	0.0007915	48.1089999676
1090.0	0.0007915	48.1559998989
1090.0	0.0007915	48.2030000687
1090.0	0.0007915	48.2339999676
1090.0	0.0007915	48.2809998989
1090.0	0.0007915	48.3120000362
1090.0	0.0007918	48.3589999676
1090.0	0.0007915	48.4059998989
1090.0	0.0007918	48.4370000362
1090.0	0.0007923	48.4839999676
1090.0	0.0007928	48.5309998989
1090.0	0.0007928	48.5620000362
1090.0	0.0007935	48.6089999676
1090.0	0.0007935	48.6410000324
1090.0	0.0007935	48.6870000362
1090.0	0.0007938	48.7339999676
1090.0	0.000794	48.7660000324
1090.0	0.000794	48.8120000362
1090.0	0.000794	48.8589999676
1090.0	0.0007943	48.8910000324
1090.0	0.000794	48.9370000362
1090.0	0.0007943	48.9689998627
1090.0	0.000794	49.0160000324
1090.0	0.000794	49.0620000362
1090.0	0.000794	49.0939998627
1090.0	0.0007938	49.1410000324
1100.0	0.0008018	49.4219999313
1100.0	0.0008048	49.4689998627
1100.0	0.0008073	49.5
1100.0	0.000809	49.5469999313
1100.0	0.0008103	49.5939998627
1100.0	0.0008115	49.625
1100.0	0.0008125	49.6719999313
1100.0	0.0008128	49.7189998627
1100.0	0.0008135	49.75
1100.0	0.000813	49.7969999313
1100.0	0.0008128	49.8280000687
1100.0	0.000813	49.875
1100.0	0.0008135	49.9219999313
1100.0	0.0008135	49.9530000687
1100.0	0.0008138	50.0
1100.0	0.000814	50.0469999313
1100.0	0.0008143	50.0780000687
1100.0	0.0008143	50.125
1100.0	0.0008148	50.1559998989
1100.0	0.000815	50.2030000687
1100.0	0.0008153	50.25
1100.0	0.0008153	50.2809998989
1100.0	0.0008153	50.3280000687
1100.0	0.000815	50.375
1100.0	0.0008143	50.4059998989
1100.0	0.0008143	50.4530000687
1100.0	0.0008148	50.4839999676
1100.0	0.0008148	50.5309998989
1100.0	0.0008143	50.5780000687
1100.0	0.000814	50.6089999676
1100.0	0.000814	50.6559998989
1100.0	0.0008143	50.7030000687
1100.0	0.000814	50.7339999676
1100.0	0.000814	50.7809998989
1100.0	0.0008143	50.8120000362
1100.0	0.0008148	50.8589999676
1100.0	0.000815	50.9059998989
1110.0	0.000821	51.1870000362
1110.0	0.000823	51.2189998627
1110.0	0.000825	51.2660000324
1110.0	0.0008263	51.2969999313
1110.0	0.0008275	51.3439998627
1110.0	0.000828	51.3910000324
1110.0	0.000829	51.4219999313
1110.0	0.0008298	51.4689998627
1110.0	0.0008303	51.5160000324
1110.0	0.000831	51.5469999313
1110.0	0.000831	51.5939998627
1110.0	0.0008305	51.6410000324
1110.0	0.0008305	51.6719999313
1110.0	0.0008305	51.7189998627
1110.0	0.0008305	51.75
1110.0	0.0008303	51.7969999313
1110.0	0.0008303	51.8439998627
1110.0	0.0008303	51.875
1110.0	0.0008303	51.9219999313
1110.0	0.00083	51.9689998627
1110.0	0.0008298	52.0
1110.0	0.0008298	52.0469999313
1110.0	0.00083	52.0939998627
1110.0	0.00083	52.125
1110.0	0.0008298	52.1719999313
1110.0	0.0008293	52.2189998627
1110.0	0.000829	52.25
1110.0	0.0008293	52.2969999313
1110.0	0.000829	52.3280000687
1110.0	0.0008293	52.375
1110.0	0.0008293	52.4219999313
1110.0	0.000829	52.4689998627
1110.0	0.000829	52.5
1110.0	0.0008288	52.5469999313
1110.0	0.0008288	52.5939998627
1110.0	0.0008288	52.625
1110.0	0.0008288	52.6719999313
1120.0	0.0008335	52.9530000687
1120.0	0.0008348	52.9839999676
1120.0	0.000836	53.0309998989
1120.0	0.0008368	53.0780000687
1120.0	0.0008378	53.1089999676
1120.0	0.0008385	53.1559998989
1120.0	0.000839	53.1870000362
1120.0	0.0008398	53.2339999676
1120.0	0.0008403	53.2809998989
1120.0	0.0008405	53.3120000362
1120.0	0.000841	53.3589999676
1120.0	0.0008413	53.4059998989
1120.0	0.0008415	53.4370000362
1120.0	0.0008413	53.4839999676
1120.0	0.000841	53.5160000324
1120.0	0.0008405	53.5620000362
1120.0	0.0008405	53.6089999676
1120.0	0.0008405	53.6410000324
1120.0	0.0008403	53.6870000362
1120.0	0.0008403	53.7339999676
1120.0	0.0008403	53.7660000324
1120.0	0.0008403	53.8120000362
1120.0	0.0008403	53.8439998627
1120.0	0.00084	53.8910000324
1120.0	0.00084	53.9370000362
1120.0	0.0008403	53.9689998627
1120.0	0.0008403	54.0160000324
1120.0	0.0008403	54.0620000362
1120.0	0.0008403	54.0939998627
1120.0	0.00084	54.1410000324
1120.0	0.0008403	54.1870000362
1120.0	0.00084	54.2189998627
1120.0	0.00084	54.2660000324
1120.0	0.0008403	54.2969999313
1120.0	0.0008403	54.3439998627
1120.0	0.0008405	54.3910000324
1120.0	0.0008405	54.4219999313
1130.0	0.0008448	54.7030000687
1130.0	0.0008463	54.75
1130.0	0.0008473	54.7809998989
1130.0	0.0008478	54.8280000687
1130.0	0.0008488	54.8589999676
1130.0	0.000849	54.9059998989
1130.0	0.0008498	54.9530000687
1130.0	0.0008503	54.9839999676
1130.0	0.0008503	55.0309998989
1130.0	0.000851	55.0780000687
1130.0	0.000851	55.1089999676
1130.0	0.0008513	55.1559998989
1130.0	0.0008513	55.1870000362
1130.0	0.0008513	55.2339999676
1130.0	0.0008515	55.2809998989
1130.0	0.0008523	55.3120000362
1130.0	0.0008523	55.3589999676
1130.0	0.0008523	55.4059998989
1130.0	0.0008518	55.4370000362
1130.0	0.0008518	55.4839999676
1130.0	0.0008515	55.5309998989
1130.0	0.0008515	55.5620000362
1130.0	0.0008513	55.6089999676
1130.0	0.0008515	55.6410000324
1130.0	0.0008515	55.6870000362
1130.0	0.0008515	55.7339999676
1130.0	0.0008518	55.7660000324
1130.0	0.0008523	55.8120000362
1130.0	0.0008523	55.8439998627
1130.0	0.0008523	55.8910000324
1130.0	0.0008525	55.9370000362
1130.0	0.0008528	55.9689998627
1130.0	0.0008528	56.0160000324
1130.0	0.0008528	56.0620000362
1130.0	0.0008528	56.0939998627
1130.0	0.0008528	56.1410000324
1130.0	0.0008528	56.1719999313
1140.0	0.0008568	56.4530000687
1140.0	0.0008578	56.5
1140.0	0.000859	56.5309998989
1140.0	0.0008603	56.5780000687
1140.0	0.000861	56.6089999676
1140.0	0.0008615	56.6559998989
1140.0	0.0008618	56.7030000687
1140.0	0.0008623	56.7339999676
1140.0	0.0008625	56.7809998989
1140.0	0.0008625	56.8280000687
1140.0	0.0008625	56.8589999676
1140.0	0.0008628	56.9059998989
1140.0	0.000863	56.9370000362
1140.0	0.0008635	56.9839999676
1140.0	0.0008638	57.0309998989
1140.0	0.0008638	57.0620000362
1140.0	0.0008638	57.1089999676
1140.0	0.0008638	57.1559998989
1140.0	0.000864	57.1870000362
1140.0	0.000864	57.2339999676
1140.0	0.000864	57.2660000324
1140.0	0.000864	57.3120000362
1140.0	0.000864	57.3589999676
1140.0	0.000864	57.3910000324
1140.0	0.0008635	57.4370000362
1140.0	0.0008635	57.4839999676
1140.0	0.0008635	57.5160000324
1140.0	0.0008635	57.5620000362
1140.0	0.0008635	57.6089999676
1140.0	0.0008635	57.6410000324
1140.0	0.0008638	57.6870000362
1140.0	0.000864	57.7339999676
1140.0	0.0008643	57.7660000324
1140.0	0.000864	57.8120000362
1140.0	0.000864	57.8439998627
1140.0	0.000864	57.8910000324
1140.0	0.000864	57.9370000362
1150.0	0.000865	58.2030000687
1150.0	0.000866	58.2339999676
1150.0	0.0008668	58.2809998989
1150.0	0.0008678	58.3280000687
1150.0	0.0008688	58.3589999676
1150.0	0.000869	58.4059998989
1150.0	0.0008693	58.4530000687
1150.0	0.0008698	58.4839999676
1150.0	0.0008703	58.5309998989
1150.0	0.0008703	58.5780000687
1150.0	0.0008705	58.6089999676
1150.0	0.0008705	58.6559998989
1150.0	0.0008705	58.6870000362
1150.0	0.0008703	58.7339999676
1150.0	0.0008703	58.7809998989
1150.0	0.00087	58.8120000362
1150.0	0.0008698	58.8589999676
1150.0	0.00087	58.9059998989
1150.0	0.00087	58.9370000362
1150.0	0.0008698	58.9839999676
1150.0	0.0008693	59.0160000324
1150.0	0.000869	59.0620000362
1150.0	0.000869	59.1089999676
1150.0	0.000869	59.1410000324
1150.0	0.0008693	59.1870000362
1150.0	0.0008693	59.2339999676
1150.0	0.0008698	59.2660000324
1150.0	0.000869	59.3120000362
1150.0	0.000869	59.3439998627
1150.0	0.0008688	59.3910000324
1150.0	0.0008685	59.4370000362
1150.0	0.000868	59.4839999676
1150.0	0.0008678	59.5160000324
1150.0	0.0008678	59.5620000362
1150.0	0.0008685	59.5939998627
1150.0	0.0008688	59.6410000324
1150.0	0.0008688	59.6870000362
1160.0	0.0008698	59.9530000687
1160.0	0.0008703	59.9839999676
1160.0	0.0008713	60.0309998989
1160.0	0.0008718	60.0620000362
1160.0	0.0008725	60.1089999676
1160.0	0.0008728	60.1559998989
1160.0	0.000873	60.1870000362
1160.0	0.0008735	60.2339999676
1160.0	0.0008738	60.2809998989
1160.0	0.0008738	60.3120000362
1160.0	0.0008738	60.3589999676
1160.0	0.0008738	60.4059998989
1160.0	0.000874	60.4370000362
1160.0	0.000874	60.4839999676
1160.0	0.000874	60.5309998989
1160.0	0.0008738	60.5620000362
1160.0	0.0008735	60.6089999676
1160.0	0.0008735	60.6559998989
1160.0	0.0008738	60.6870000362
1160.0	0.0008738	60.7339999676
1160.0	0.000874	60.7660000324
1160.0	0.000874	60.8120000362
1160.0	0.0008743	60.8589999676
1160.0	0.000874	60.8910000324
1160.0	0.0008735	60.9370000362
1160.0	0.0008735	60.9839999676
1160.0	0.0008735	61.0160000324
1160.0	0.0008738	61.0620000362
1160.0	0.000874	61.0939998627
1160.0	0.0008738	61.1410000324
1160.0	0.0008738	61.1870000362
1160.0	0.000874	61.2189998627
1160.0	0.0008748	61.2660000324
1160.0	0.0008748	61.3120000362
1160.0	0.000874	61.3439998627
1160.0	0.000874	61.3910000324
1160.0	0.0008735	61.4370000362
1170.0	0.0008763	61.6870000362
1170.0	0.0008773	61.7339999676
1170.0	0.000878	61.7809998989
1170.0	0.0008788	61.8120000362
1170.0	0.0008798	61.8589999676
1170.0	0.0008798	61.8910000324
1170.0	0.0008803	61.9370000362
1170.0	0.0008805	61.9839999676
1170.0	0.000881	62.0160000324
1170.0	0.000881	62.0620000362
1170.0	0.000881	62.1089999676
1170.0	0.000881	62.1410000324
1170.0	0.0008813	62.1870000362
1170.0	0.0008813	62.2189998627
1170.0	0.0008815	62.2660000324
1170.0	0.0008815	62.3120000362
1170.0	0.0008815	62.3439998627
1170.0	0.0008813	62.3910000324
1170.0	0.0008815	62.4370000362
1170.0	0.0008813	62.4689998627
1170.0	0.0008815	62.5160000324
1170.0	0.0008815	62.5469999313
1170.0	0.0008818	62.5939998627
1170.0	0.0008823	62.6410000324
1170.0	0.0008823	62.6719999313
1170.0	0.0008823	62.7189998627
1170.0	0.0008823	62.7660000324
1170.0	0.0008823	62.7969999313
1170.0	0.0008823	62.8439998627
1170.0	0.0008818	62.8910000324
1170.0	0.0008815	62.9219999313
1170.0	0.0008815	62.9689998627
1170.0	0.0008813	63.0
1170.0	0.0008815	63.0469999313
1170.0	0.0008823	63.0939998627
1170.0	0.0008823	63.125
1170.0	0.0008823	63.1719999313
1180.0	0.0008848	63.4219999313
1180.0	0.0008855	63.4689998627
1180.0	0.0008865	63.5160000324
1180.0	0.0008873	63.5469999313
1180.0	0.0008873	63.5939998627
1180.0	0.0008878	63.6410000324
1180.0	0.0008885	63.6719999313
1180.0	0.0008885	63.7189998627
1180.0	0.000889	63.7660000324
1180.0	0.0008898	63.7969999313
1180.0	0.0008893	63.8439998627
1180.0	0.0008898	63.875
1180.0	0.0008898	63.9219999313
1180.0	0.0008898	63.9689998627
1180.0	0.0008898	64.0
1180.0	0.0008898	64.0469999313
1180.0	0.0008898	64.0939998627
1180.0	0.0008898	64.125
1180.0	0.00089	64.1719999313
1180.0	0.0008903	64.2030000687
1180.0	0.0008905	64.25
1180.0	0.000891	64.2969999313
1180.0	0.000891	64.3280000687
1180.0	0.0008913	64.375
1180.0	0.000891	64.4219999313
1180.0	0.000891	64.4530000687
1180.0	0.000891	64.5
1180.0	0.000891	64.5309998989
1180.0	0.000891	64.5780000687
1180.0	0.0008913	64.625
1180.0	0.0008915	64.6559998989
1180.0	0.0008918	64.7030000687
1180.0	0.0008915	64.75
1180.0	0.0008913	64.7809998989
1180.0	0.0008913	64.8280000687
1180.0	0.000891	64.875
1180.0	0.000891	64.9059998989
1190.0	0.000894	65.1719999313
1190.0	0.0008953	65.2030000687
1190.0	0.0008963	65.25
1190.0	0.0008965	65.2969999313
1190.0	0.0008968	65.3280000687
1190.0	0.0008975	65.375
1190.0	0.0008975	65.4059998989
1190.0	0.0008978	65.4530000687
1190.0	0.0008988	65.5
1190.0	0.000899	65.5309998989
1190.0	0.000899	65.5780000687
1190.0	0.0008993	65.625
1190.0	0.0008998	65.6559998989
1190.0	0.0008993	65.7030000687
1190.0	0.000899	65.75
1190.0	0.000899	65.7809998989
1190.0	0.0008988	65.8280000687
1190.0	0.0008985	65.8589999676
1190.0	0.0008985	65.9059998989
1190.0	0.0008985	65.9530000687
1190.0	0.0008985	65.9839999676
1190.0	0.0008985	66.0309998989
1190.0	0.0008985	66.0780000687
1190.0	0.0008988	66.1089999676
1190.0	0.0008988	66.1559998989
1190.0	0.0008985	66.1870000362
1190.0	0.0008988	66.2339999676
1190.0	0.0008993	66.2809998989
1190.0	0.000899	66.3120000362
1190.0	0.000899	66.3589999676
1190.0	0.0008993	66.4059998989
1190.0	0.0008998	66.4370000362
1190.0	0.0008993	66.4839999676
1190.0	0.000899	66.5309998989
1190.0	0.0008988	66.5780000687
1190.0	0.0008985	66.6089999676
1190.0	0.0008978	66.6559998989
1200.0	0.0009	66.9219999313
1200.0	0.000901	66.9530000687
1200.0	0.0009018	67.0
1200.0	0.0009028	67.0469999313
1200.0	0.0009035	67.0780000687
1200.0	0.000904	67.125
1200.0	0.0009048	67.1559998989
1200.0	0.0009048	67.2030000687
1200.0	0.0009053	67.25
1200.0	0.0009055	67.2809998989
1200.0	0.0009055	67.3280000687
1200.0	0.000906	67.375
1200.0	0.0009065	67.4059998989
1200.0	0.0009063	67.4530000687
1200.0	0.0009063	67.4839999676
1200.0	0.000906	67.5309998989
1200.0	0.000906	67.5780000687
1200.0	0.0009055	67.6089999676
1200.0	0.0009055	67.6559998989
1200.0	0.0009053	67.7030000687
1200.0	0.000905	67.7339999676
1200.0	0.000905	67.7809998989
1200.0	0.000905	67.8280000687
1200.0	0.0009053	67.8589999676
1200.0	0.0009053	67.9059998989
1200.0	0.0009048	67.9370000362
1200.0	0.0009043	67.9839999676
1200.0	0.0009043	68.0309998989
1200.0	0.0009048	68.0620000362
1200.0	0.000904	68.1089999676
1200.0	0.0009043	68.1559998989
1200.0	0.0009043	68.1870000362
1200.0	0.000905	68.2339999676
1200.0	0.0009053	68.2660000324
1200.0	0.0009053	68.3120000362
1200.0	0.000905	68.3589999676
1200.0	0.000905	68.3910000324
1210.0	0.000906	68.6559998989
1210.0	0.0009073	68.7030000687
1210.0	0.0009085	68.75
1210.0	0.0009098	68.7809998989
1210.0	0.00091	68.8280000687
1210.0	0.00091	68.875
1210.0	0.0009105	68.9059998989
1210.0	0.000911	68.9530000687
1210.0	0.0009113	68.9839999676
1210.0	0.0009115	69.0309998989
1210.0	0.0009118	69.0780000687
1210.0	0.0009118	69.1089999676
1210.0	0.0009123	69.1559998989
1210.0	0.0009123	69.2030000687
1210.0	0.0009123	69.2339999676
1210.0	0.0009118	69.2809998989
1210.0	0.0009115	69.3120000362
1210.0	0.0009115	69.3589999676
1210.0	0.0009123	69.4059998989
1210.0	0.0009128	69.4370000362
1210.0	0.0009128	69.4839999676
1210.0	0.0009128	69.5309998989
1210.0	0.0009125	69.5620000362
1210.0	0.0009128	69.6089999676
1210.0	0.0009125	69.6410000324
1210.0	0.0009123	69.6870000362
1210.0	0.0009125	69.7339999676
1210.0	0.0009128	69.7660000324
1210.0	0.0009128	69.8120000362
1210.0	0.0009135	69.8589999676
1210.0	0.0009135	69.8910000324
1210.0	0.0009128	69.9370000362
1210.0	0.0009128	69.9689998627
1210.0	0.0009128	70.0160000324
1210.0	0.0009128	70.0620000362
1210.0	0.0009125	70.0939998627
1210.0	0.0009123	70.1410000324
1220.0	0.0009165	70.4059998989
1220.0	0.0009178	70.4530000687
1220.0	0.000919	70.4839999676
1220.0	0.0009203	70.5309998989
1220.0	0.0009213	70.5780000687
1220.0	0.0009223	70.6089999676
1220.0	0.000923	70.6559998989
1220.0	0.0009235	70.7030000687
1220.0	0.000924	70.7339999676
1220.0	0.0009243	70.7809998989
1220.0	0.000924	70.8120000362
1220.0	0.000924	70.8589999676
1220.0	0.000924	70.9059998989
1220.0	0.0009243	70.9370000362
1220.0	0.0009243	70.9839999676
1220.0	0.0009243	71.0309998989
1220.0	0.0009248	71.0620000362
1220.0	0.000925	71.1089999676
1220.0	0.0009248	71.1410000324
1220.0	0.0009248	71.1870000362
1220.0	0.000925	71.2339999676
1220.0	0.000925	71.2660000324
1220.0	0.0009248	71.3120000362
1220.0	0.000925	71.3439998627
1220.0	0.000925	71.3910000324
1220.0	0.000925	71.4370000362
1220.0	0.000925	71.4689998627
1220.0	0.0009253	71.5160000324
1220.0	0.0009253	71.5620000362
1220.0	0.0009255	71.5939998627
1220.0	0.0009255	71.6410000324
1220.0	0.0009255	71.6870000362
1220.0	0.0009253	71.7189998627
1220.0	0.0009253	71.7660000324
1220.0	0.0009255	71.8120000362
1220.0	0.000926	71.8589999676
1230.0	0.0009303	72.125
1230.0	0.0009318	72.1719999313
1230.0	0.000933	72.2030000687
1230.0	0.0009338	72.25
1230.0	0.0009348	72.2809998989
1230.0	0.0009353	72.3280000687
1230.0	0.000936	72.375
1230.0	0.0009363	72.4059998989
1230.0	0.0009368	72.4530000687
1230.0	0.0009373	72.5
1230.0	0.0009375	72.5309998989
1230.0	0.0009375	72.5780000687
1230.0	0.0009378	72.625
1230.0	0.0009378	72.6559998989
1230.0	0.0009378	72.7030000687
1230.0	0.0009378	72.75
1230.0	0.0009378	72.7809998989
1230.0	0.0009378	72.8280000687
1230.0	0.0009378	72.875
1230.0	0.000938	72.9059998989
1230.0	0.0009385	72.9530000687
1230.0	0.0009385	72.9839999676
1230.0	0.0009385	73.0309998989
1230.0	0.0009388	73.0780000687
1230.0	0.0009385	73.1089999676
1230.0	0.0009385	73.1559998989
1230.0	0.0009388	73.2030000687
1230.0	0.0009388	73.2339999676
1230.0	0.0009388	73.2809998989
1230.0	0.000938	73.3120000362
1230.0	0.000938	73.3589999676
1230.0	0.000938	73.4059998989
1230.0	0.0009378	73.4370000362
1230.0	0.000938	73.4839999676
1230.0	0.000938	73.5309998989
1230.0	0.000938	73.5620000362
1230.0	0.000938	73.6089999676
1240.0	0.000941	73.875
1240.0	0.0009425	73.9219999313
1240.0	0.0009438	73.9530000687
1240.0	0.000945	74.0
1240.0	0.0009453	74.0469999313
1240.0	0.000946	74.0780000687
1240.0	0.000946	74.125
1240.0	0.0009463	74.1719999313
1240.0	0.0009465	74.2030000687
1240.0	0.0009465	74.25
1240.0	0.0009465	74.2809998989
1240.0	0.0009465	74.3280000687
1240.0	0.0009463	74.375
1240.0	0.000946	74.4059998989
1240.0	0.0009463	74.4530000687
1240.0	0.0009465	74.5
1240.0	0.0009465	74.5469999313
1240.0	0.0009465	74.5780000687
1240.0	0.0009463	74.625
1240.0	0.000946	74.6559998989
1240.0	0.0009463	74.7030000687
1240.0	0.0009465	74.75
1240.0	0.0009465	74.7809998989
1240.0	0.0009463	74.8280000687
1240.0	0.000946	74.875
1240.0	0.0009455	74.9059998989
1240.0	0.0009453	74.9530000687
1240.0	0.0009453	74.9839999676
1240.0	0.000945	75.0309998989
1240.0	0.0009453	75.0780000687
1240.0	0.0009453	75.1089999676
1240.0	0.0009455	75.1559998989
1240.0	0.0009455	75.2030000687
1240.0	0.0009455	75.2339999676
1240.0	0.000946	75.2809998989
1240.0	0.000946	75.3120000362
1240.0	0.000946	75.3589999676
1250.0	0.0009485	75.625
1250.0	0.0009498	75.6719999313
1250.0	0.000951	75.7189998627
1250.0	0.0009518	75.7660000324
1250.0	0.0009525	75.7969999313
1250.0	0.0009528	75.8439998627
1250.0	0.000953	75.875
1250.0	0.0009535	75.9219999313
1250.0	0.0009535	75.9689998627
1250.0	0.0009535	76.0
1250.0	0.0009535	76.0469999313
1250.0	0.0009538	76.0939998627
1250.0	0.0009538	76.125
1250.0	0.0009538	76.1719999313
1250.0	0.000954	76.2030000687
1250.0	0.0009548	76.25
1250.0	0.0009548	76.2969999313
1250.0	0.000954	76.3439998627
1250.0	0.000954	76.375
1250.0	0.0009543	76.4219999313
1250.0	0.0009543	76.4689998627
1250.0	0.0009543	76.5
1250.0	0.0009548	76.5469999313
1250.0	0.0009548	76.5780000687
1250.0	0.0009548	76.625
1250.0	0.0009548	76.6719999313
1250.0	0.0009548	76.7030000687
1250.0	0.0009548	76.75
1250.0	0.0009548	76.7969999313
1250.0	0.0009548	76.8280000687
1250.0	0.0009543	76.875
1250.0	0.0009548	76.9059998989
1250.0	0.0009548	76.9530000687
1250.0	0.0009548	77.0
1250.0	0.0009548	77.0309998989
1250.0	0.000955	77.0780000687
1250.0	0.000955	77.125
1260.0	0.0009585	77.3910000324
1260.0	0.0009598	77.4370000362
1260.0	0.0009603	77.4689998627
1260.0	0.0009613	77.5160000324
1260.0	0.0009618	77.5620000362
1260.0	0.0009625	77.5939998627
1260.0	0.000963	77.6410000324
1260.0	0.000964	77.6870000362
1260.0	0.0009643	77.7189998627
1260.0	0.0009648	77.7660000324
1260.0	0.0009643	77.8120000362
1260.0	0.0009643	77.8439998627
1260.0	0.0009648	77.8910000324
1260.0	0.0009648	77.9219999313
1260.0	0.000965	77.9689998627
1260.0	0.000965	78.0160000324
1260.0	0.0009653	78.0469999313
1260.0	0.0009653	78.0939998627
1260.0	0.0009655	78.1410000324
1260.0	0.000966	78.1719999313
1260.0	0.000966	78.2189998627
1260.0	0.000966	78.25
1260.0	0.000966	78.2969999313
1260.0	0.000966	78.3439998627
1260.0	0.000966	78.3910000324
1260.0	0.0009653	78.4219999313
1260.0	0.0009653	78.4689998627
1260.0	0.0009653	78.5
1260.0	0.0009653	78.5469999313
1260.0	0.0009655	78.5939998627
1260.0	0.000966	78.625
1260.0	0.0009663	78.6719999313
1260.0	0.0009663	78.7189998627
1260.0	0.000966	78.75
1260.0	0.000966	78.7969999313
1260.0	0.000966	78.8280000687
1270.0	0.0009673	79.1089999676
1270.0	0.0009678	79.1410000324
1270.0	0.0009685	79.1870000362
1270.0	0.0009693	79.2189998627
1270.0	0.0009698	79.2660000324
1270.0	0.00097	79.3120000362
1270.0	0.0009703	79.3589999676
1270.0	0.0009705	79.3910000324
1270.0	0.000971	79.4370000362
1270.0	0.000971	79.4689998627
1270.0	0.000971	79.5160000324
1270.0	0.000971	79.5620000362
1270.0	0.000971	79.5939998627
1270.0	0.0009713	79.6410000324
1270.0	0.0009715	79.6870000362
1270.0	0.0009713	79.7189998627
1270.0	0.000971	79.7660000324
1270.0	0.0009705	79.8120000362
1270.0	0.0009705	79.8439998627
1270.0	0.000971	79.8910000324
1270.0	0.0009705	79.9370000362
1270.0	0.00097	79.9689998627
1270.0	0.0009698	80.0160000324
1270.0	0.0009693	80.0620000362
1270.0	0.000969	80.0939998627
1270.0	0.000969	80.1410000324
1270.0	0.0009688	80.1719999313
1270.0	0.0009688	80.2189998627
1270.0	0.0009685	80.2660000324
1270.0	0.0009685	80.2969999313
1270.0	0.0009688	80.3439998627
1270.0	0.000968	80.3910000324
1270.0	0.000968	80.4219999313
1270.0	0.000968	80.4689998627
1270.0	0.000968	80.5
1270.0	0.0009685	80.5469999313
1270.0	0.0009688	80.5939998627
1280.0	0.0009678	80.8589999676
1280.0	0.000968	80.8910000324
1280.0	0.0009685	80.9370000362
1280.0	0.0009685	80.9839999676
1280.0	0.0009685	81.0160000324
1280.0	0.0009688	81.0620000362
1280.0	0.0009688	81.1089999676
1280.0	0.000969	81.1410000324
1280.0	0.0009693	81.1870000362
1280.0	0.0009698	81.2189998627
1280.0	0.0009698	81.2660000324
1280.0	0.0009693	81.3120000362
1280.0	0.0009688	81.3439998627
1280.0	0.0009685	81.3910000324
1280.0	0.000968	81.4370000362
1280.0	0.0009678	81.4689998627
1280.0	0.0009675	81.5160000324
1280.0	0.0009675	81.5469999313
1280.0	0.0009678	81.5939998627
1280.0	0.000968	81.6410000324
1280.0	0.0009685	81.6719999313
1280.0	0.0009688	81.7189998627
1280.0	0.0009688	81.7660000324
1280.0	0.0009685	81.7969999313
1280.0	0.0009685	81.8439998627
1280.0	0.0009678	81.8910000324
1280.0	0.0009678	81.9219999313
1280.0	0.000968	81.9689998627
1280.0	0.0009685	82.0
1280.0	0.0009685	82.0469999313
1280.0	0.0009688	82.0939998627
1280.0	0.0009693	82.125
1280.0	0.0009698	82.1719999313
1280.0	0.0009698	82.2189998627
1280.0	0.0009698	82.25
1280.0	0.0009698	82.2969999313
1280.0	0.0009698	82.3280000687
1290.0	0.000969	82.5939998627
1290.0	0.0009685	82.6410000324
1290.0	0.0009685	82.6870000362
1290.0	0.000968	82.7189998627
1290.0	0.000968	82.7660000324
1290.0	0.000968	82.8120000362
1290.0	0.000968	82.8439998627
1290.0	0.0009678	82.8910000324
1290.0	0.0009678	82.9370000362
1290.0	0.0009678	82.9689998627
1290.0	0.000968	83.0160000324
1290.0	0.0009685	83.0469999313
1290.0	0.0009685	83.0939998627
1290.0	0.0009685	83.1410000324
1290.0	0.0009688	83.1719999313
1290.0	0.0009688	83.2189998627
1290.0	0.0009688	83.2660000324
1290.0	0.0009688	83.2969999313
1290.0	0.0009688	83.3439998627
1290.0	0.000969	83.375
1290.0	0.000969	83.4219999313
1290.0	0.000969	83.4689998627
1290.0	0.0009693	83.5
1290.0	0.0009693	83.5469999313
1290.0	0.000969	83.5939998627
1290.0	0.000969	83.625
1290.0	0.000969	83.6719999313
1290.0	0.0009688	83.7030000687
1290.0	0.0009688	83.75
1290.0	0.0009688	83.7969999313
1290.0	0.0009688	83.8280000687
1290.0	0.0009688	83.875
1290.0	0.0009688	83.9219999313
1290.0	0.0009688	83.9689998627
1290.0	0.0009688	84.0
1290.0	0.000969	84.0469999313
1290.0	0.0009693	84.0780000687
1300.0	0.0009673	84.3439998627
1300.0	0.0009663	84.3910000324
1300.0	0.0009653	84.4219999313
1300.0	0.0009648	84.4689998627
1300.0	0.0009643	84.5160000324
1300.0	0.000964	84.5469999313
1300.0	0.0009638	84.5939998627
1300.0	0.0009638	84.6410000324
1300.0	0.0009635	84.6719999313
1300.0	0.0009635	84.7189998627
1300.0	0.000963	84.7660000324
1300.0	0.0009628	84.7969999313
1300.0	0.0009628	84.8439998627
1300.0	0.0009625	84.875
1300.0	0.0009623	84.9219999313
1300.0	0.0009625	84.9689998627
1300.0	0.0009628	85.0
1300.0	0.0009628	85.0469999313
1300.0	0.000963	85.0939998627
1300.0	0.0009635	85.125
1300.0	0.0009635	85.1719999313
1300.0	0.000963	85.2030000687
1300.0	0.0009628	85.25
1300.0	0.000963	85.2969999313
1300.0	0.000963	85.3280000687
1300.0	0.0009628	85.375
1300.0	0.0009628	85.4219999313
1300.0	0.000963	85.4530000687
1300.0	0.0009628	85.5
1300.0	0.0009628	85.5469999313
1300.0	0.0009625	85.5780000687
1300.0	0.0009623	85.625
1300.0	0.0009623	85.6719999313
1300.0	0.0009623	85.7030000687
1300.0	0.0009623	85.75
1300.0	0.0009623	85.7809998989
1300.0	0.0009623	85.8280000687
1310.0	0.0009578	86.0939998627
1310.0	0.0009555	86.1410000324
1310.0	0.0009538	86.1719999313
1310.0	0.0009528	86.2189998627
1310.0	0.0009513	86.25
1310.0	0.0009503	86.2969999313
1310.0	0.0009498	86.3439998627
1310.0	0.0009493	86.375
1310.0	0.0009488	86.4219999313
1310.0	0.0009485	86.4689998627
1310.0	0.0009485	86.5
1310.0	0.0009485	86.5469999313
1310.0	0.0009485	86.5780000687
1310.0	0.0009485	86.625
1310.0	0.0009485	86.6719999313
1310.0	0.0009485	86.7030000687
1310.0	0.0009485	86.75
1310.0	0.000948	86.7969999313
1310.0	0.000948	86.8280000687
1310.0	0.000948	86.875
1310.0	0.0009478	86.9219999313
1310.0	0.0009473	86.9530000687
1310.0	0.0009475	87.0
1310.0	0.0009475	87.0309998989
1310.0	0.0009475	87.0780000687
1310.0	0.0009478	87.125
1310.0	0.0009475	87.1719999313
1310.0	0.0009473	87.2030000687
1310.0	0.0009475	87.25
1310.0	0.0009468	87.2809998989
1310.0	0.0009465	87.3280000687
1310.0	0.0009463	87.375
1310.0	0.000946	87.4059998989
1310.0	0.000946	87.4530000687
1310.0	0.000946	87.5
1310.0	0.000946	87.5309998989
1310.0	0.000946	87.5780000687
1320.0	0.0009398	87.8439998627
1320.0	0.0009368	87.875
1320.0	0.0009343	87.9219999313
1320.0	0.0009323	87.9689998627
1320.0	0.0009305	88.0
1320.0	0.000929	88.0469999313
1320.0	0.0009275	88.0780000687
1320.0	0.0009265	88.125
1320.0	0.000926	88.1719999313
1320.0	0.0009255	88.2030000687
1320.0	0.0009255	88.25
1320.0	0.0009255	88.2969999313
1320.0	0.0009255	88.3280000687
1320.0	0.0009253	88.375
1320.0	0.0009253	88.4059998989
1320.0	0.0009253	88.4530000687
1320.0	0.000925	88.5
1320.0	0.0009248	88.5309998989
1320.0	0.0009248	88.5780000687
1320.0	0.000925	88.625
1320.0	0.000925	88.6559998989
1320.0	0.000925	88.7030000687
1320.0	0.0009253	88.75
1320.0	0.0009253	88.7809998989
1320.0	0.0009255	88.8280000687
1320.0	0.0009255	88.8589999676
1320.0	0.0009253	88.9059998989
1320.0	0.0009253	88.9530000687
1320.0	0.000925	88.9839999676
1320.0	0.0009253	89.0309998989
1320.0	0.0009253	89.0780000687
1320.0	0.000925	89.1089999676
1320.0	0.000925	89.1559998989
1320.0	0.0009253	89.1870000362
1320.0	0.0009255	89.2339999676
1320.0	0.0009255	89.2809998989
1320.0	0.0009253	89.3120000362
1330.0	0.0009155	89.5780000687
1330.0	0.0009118	89.625
1330.0	0.0009088	89.6559998989
1330.0	0.0009063	89.7030000687
1330.0	0.000904	89.75
1330.0	0.0009028	89.7809998989
1330.0	0.0009018	89.8280000687
1330.0	0.0009013	89.875
1330.0	0.0009005	89.9059998989
1330.0	0.0009003	89.9530000687
1330.0	0.0009	89.9839999676
1330.0	0.0009	90.0309998989
1330.0	0.0008998	90.0780000687
1330.0	0.0008993	90.1089999676
1330.0	0.000899	90.1559998989
1330.0	0.0008988	90.2030000687
1330.0	0.0008985	90.2339999676
1330.0	0.0008988	90.2809998989
1330.0	0.0008985	90.3120000362
1330.0	0.0008985	90.3589999676
1330.0	0.0008985	90.4059998989
1330.0	0.000898	90.4370000362
1330.0	0.0008985	90.4839999676
1330.0	0.0008988	90.5309998989
1330.0	0.000899	90.5620000362
1330.0	0.0008988	90.6089999676
1330.0	0.0008985	90.6410000324
1330.0	0.0008985	90.6870000362
1330.0	0.0008985	90.7339999676
1330.0	0.0008988	90.7660000324
1330.0	0.0008985	90.8120000362
1330.0	0.000898	90.8589999676
1330.0	0.000898	90.8910000324
1330.0	0.000898	90.9370000362
1330.0	0.000898	90.9839999676
1330.0	0.0008985	91.0160000324
1330.0	0.0008985	91.0620000362
1340.0	0.0008893	91.3280000687
1340.0	0.0008848	91.3589999676
1340.0	0.0008813	91.4059998989
1340.0	0.000878	91.4530000687
1340.0	0.0008755	91.4839999676
1340.0	0.0008738	91.5309998989
1340.0	0.0008718	91.5780000687
1340.0	0.000871	91.6089999676
1340.0	0.0008698	91.6559998989
1340.0	0.000869	91.6870000362
1340.0	0.0008688	91.7339999676
1340.0	0.0008685	91.7809998989
1340.0	0.0008678	91.8120000362
1340.0	0.0008675	91.8589999676
1340.0	0.0008675	91.9059998989
1340.0	0.0008673	91.9370000362
1340.0	0.0008668	91.9839999676
1340.0	0.0008668	92.0309998989
1340.0	0.0008673	92.0620000362
1340.0	0.0008673	92.1089999676
1340.0	0.0008673	92.1559998989
1340.0	0.0008675	92.1870000362
1340.0	0.0008678	92.2339999676
1340.0	0.0008678	92.2809998989
1340.0	0.0008675	92.3120000362
1340.0	0.0008678	92.3589999676
1340.0	0.000868	92.3910000324
1340.0	0.0008685	92.4370000362
1340.0	0.0008688	92.4839999676
1340.0	0.0008688	92.5160000324
1340.0	0.0008688	92.5620000362
1340.0	0.0008688	92.6089999676
1340.0	0.0008685	92.6410000324
1340.0	0.0008685	92.6870000362
1340.0	0.0008685	92.7189998627
1340.0	0.000868	92.7660000324
1340.0	0.0008685	92.8120000362
1350.0	0.0008565	93.0780000687
1350.0	0.0008515	93.1089999676
1350.0	0.0008478	93.1559998989
1350.0	0.0008443	93.1870000362
1350.0	0.0008413	93.2339999676
1350.0	0.0008388	93.2809998989
1350.0	0.0008373	93.3120000362
1350.0	0.000836	93.3589999676
1350.0	0.0008353	93.4059998989
1350.0	0.0008348	93.4370000362
1350.0	0.000834	93.4839999676
1350.0	0.000834	93.5309998989
1350.0	0.0008338	93.5620000362
1350.0	0.0008338	93.6089999676
1350.0	0.0008338	93.6559998989
1350.0	0.0008338	93.6870000362
1350.0	0.0008338	93.7339999676
1350.0	0.000834	93.7660000324
1350.0	0.0008335	93.8120000362
1350.0	0.0008335	93.8589999676
1350.0	0.0008335	93.8910000324
1350.0	0.0008335	93.9370000362
1350.0	0.0008335	93.9839999676
1350.0	0.0008335	94.0160000324
1350.0	0.0008338	94.0620000362
1350.0	0.0008338	94.1089999676
1350.0	0.0008338	94.1410000324
1350.0	0.000834	94.1870000362
1350.0	0.0008348	94.2189998627
1350.0	0.0008348	94.2660000324
1350.0	0.0008343	94.3120000362
1350.0	0.0008348	94.3439998627
1350.0	0.0008348	94.3910000324
1350.0	0.0008343	94.4370000362
1350.0	0.000834	94.4689998627
1350.0	0.000834	94.5160000324
1350.0	0.000834	94.5620000362
1360.0	0.0008225	94.8280000687
1360.0	0.0008175	94.8589999676
1360.0	0.0008138	94.9059998989
1360.0	0.0008103	94.9370000362
1360.0	0.0008075	94.9839999676
1360.0	0.0008053	95.0309998989
1360.0	0.000804	95.0620000362
1360.0	0.0008028	95.1089999676
1360.0	0.0008015	95.1559998989
1360.0	0.000801	95.1870000362
1360.0	0.0008003	95.2339999676
1360.0	0.0007998	95.2660000324
1360.0	0.0007998	95.3120000362
1360.0	0.0007998	95.3589999676
1360.0	0.0007993	95.3910000324
1360.0	0.0007993	95.4370000362
1360.0	0.0007993	95.4839999676
1360.0	0.000799	95.5309998989
1360.0	0.000799	95.5620000362
1360.0	0.000799	95.6089999676
1360.0	0.000799	95.6410000324
1360.0	0.0007988	95.6870000362
1360.0	0.000799	95.7339999676
1360.0	0.0007993	95.7660000324
1360.0	0.0008005	95.8120000362
1360.0	0.000801	95.8439998627
1360.0	0.000801	95.8910000324
1360.0	0.0008005	95.9370000362
1360.0	0.0008005	95.9689998627
1360.0	0.0008003	96.0160000324
1360.0	0.0008	96.0620000362
1360.0	0.0008	96.0939998627
1360.0	0.0008005	96.1410000324
1360.0	0.000801	96.1870000362
1360.0	0.0008013	96.2189998627
1360.0	0.0008013	96.2660000324
1360.0	0.000801	96.2969999313
1370.0	0.000788	96.5620000362
1370.0	0.000783	96.6089999676
1370.0	0.000779	96.6559998989
1370.0	0.0007755	96.6870000362
1370.0	0.0007723	96.7339999676
1370.0	0.00077	96.7660000324
1370.0	0.000768	96.8120000362
1370.0	0.0007673	96.8589999676
1370.0	0.0007665	96.8910000324
1370.0	0.000766	96.9370000362
1370.0	0.0007653	96.9839999676
1370.0	0.0007653	97.0160000324
1370.0	0.0007653	97.0620000362
1370.0	0.000765	97.1089999676
1370.0	0.000765	97.1410000324
1370.0	0.000765	97.1870000362
1370.0	0.000765	97.2339999676
1370.0	0.0007648	97.2660000324
1370.0	0.0007648	97.3120000362
1370.0	0.0007643	97.3589999676
1370.0	0.0007643	97.3910000324
1370.0	0.000764	97.4370000362
1370.0	0.0007638	97.4839999676
1370.0	0.000764	97.5160000324
1370.0	0.000764	97.5620000362
1370.0	0.000764	97.5939998627
1370.0	0.0007643	97.6410000324
1370.0	0.0007648	97.6870000362
1370.0	0.000765	97.7189998627
1370.0	0.000765	97.7660000324
1370.0	0.000765	97.8120000362
1370.0	0.000765	97.8439998627
1370.0	0.0007648	97.8910000324
1370.0	0.0007648	97.9219999313
1370.0	0.0007643	97.9689998627
1370.0	0.0007643	98.0160000324
1370.0	0.0007643	98.0469999313
1380.0	0.0007538	98.3120000362
1380.0	0.0007488	98.3589999676
1380.0	0.0007448	98.3910000324
1380.0	0.0007415	98.4370000362
1380.0	0.000739	98.4839999676
1380.0	0.0007373	98.5160000324
1380.0	0.000736	98.5620000362
1380.0	0.0007348	98.6089999676
1380.0	0.0007338	98.6410000324
1380.0	0.000733	98.6870000362
1380.0	0.000733	98.7189998627
1380.0	0.0007325	98.7660000324
1380.0	0.0007323	98.8120000362
1380.0	0.0007318	98.8439998627
1380.0	0.0007315	98.8910000324
1380.0	0.0007315	98.9370000362
1380.0	0.0007315	98.9689998627
1380.0	0.0007315	99.0160000324
1380.0	0.0007318	99.0620000362
1380.0	0.0007318	99.0939998627
1380.0	0.0007323	99.1410000324
1380.0	0.0007325	99.1719999313
1380.0	0.0007325	99.2189998627
1380.0	0.0007328	99.2660000324
1380.0	0.0007328	99.2969999313
1380.0	0.0007328	99.3439998627
1380.0	0.0007325	99.3910000324
1380.0	0.0007325	99.4219999313
1380.0	0.0007323	99.4689998627
1380.0	0.0007323	99.5
1380.0	0.0007318	99.5469999313
1380.0	0.0007318	99.5939998627
1380.0	0.0007315	99.625
1380.0	0.0007315	99.6719999313
1380.0	0.0007315	99.7189998627
1380.0	0.0007315	99.75
1380.0	0.0007315	99.7969999313
1390.0	0.0007203	100.062000036
1390.0	0.000716	100.108999968
1390.0	0.0007128	100.141000032
1390.0	0.00071	100.187000036
1390.0	0.0007078	100.218999863
1390.0	0.000706	100.266000032
1390.0	0.0007043	100.312000036
1390.0	0.0007038	100.343999863
1390.0	0.000703	100.391000032
1390.0	0.0007025	100.437000036
1390.0	0.0007023	100.468999863
1390.0	0.0007023	100.516000032
1390.0	0.0007023	100.546999931
1390.0	0.0007018	100.593999863
1390.0	0.0007018	100.641000032
1390.0	0.0007013	100.671999931
1390.0	0.0007013	100.718999863
1390.0	0.0007015	100.766000032
1390.0	0.0007015	100.796999931
1390.0	0.0007013	100.843999863
1390.0	0.000701	100.875
1390.0	0.0007005	100.921999931
1390.0	0.0007005	100.968999863
1390.0	0.000701	101.0
1390.0	0.000701	101.046999931
1390.0	0.000701	101.093999863
1390.0	0.000701	101.125
1390.0	0.000701	101.171999931
1390.0	0.000701	101.218999863
1390.0	0.000701	101.25
1390.0	0.000701	101.296999931
1390.0	0.000701	101.328000069
1390.0	0.000701	101.375
1390.0	0.0007005	101.421999931
1390.0	0.000701	101.453000069
1390.0	0.0007005	101.5
1390.0	0.000701	101.546999931
1400.0	0.0006923	101.812000036
1400.0	0.000689	101.843999863
1400.0	0.000686	101.891000032
1400.0	0.0006835	101.937000036
1400.0	0.0006815	101.968999863
1400.0	0.0006798	102.016000032
1400.0	0.0006788	102.046999931
1400.0	0.000678	102.093999863
1400.0	0.0006778	102.141000032
1400.0	0.0006773	102.171999931
1400.0	0.0006765	102.218999863
1400.0	0.0006763	102.266000032
1400.0	0.0006763	102.296999931
1400.0	0.0006765	102.343999863
1400.0	0.0006765	102.375
1400.0	0.0006763	102.421999931
1400.0	0.0006763	102.468999863
1400.0	0.0006763	102.5
1400.0	0.000676	102.546999931
1400.0	0.0006763	102.593999863
1400.0	0.0006763	102.625
1400.0	0.0006763	102.671999931
1400.0	0.0006763	102.703000069
1400.0	0.000676	102.75
1400.0	0.000676	102.796999931
1400.0	0.0006763	102.828000069
1400.0	0.0006765	102.875
1400.0	0.0006763	102.921999931
1400.0	0.0006763	102.953000069
1400.0	0.0006763	103.0
1400.0	0.0006765	103.046999931
1400.0	0.0006765	103.078000069
1400.0	0.0006773	103.125
1400.0	0.0006773	103.155999899
1400.0	0.0006765	103.203000069
1400.0	0.0006768	103.25
1400.0	0.0006765	103.280999899
1410.0	0.000669	103.546999931
1410.0	0.0006665	103.593999863
1410.0	0.0006643	103.641000032
1410.0	0.0006625	103.671999931
1410.0	0.000661	103.718999863
1410.0	0.00066	103.766000032
1410.0	0.0006593	103.796999931
1410.0	0.0006585	103.843999863
1410.0	0.0006578	103.875
1410.0	0.0006575	103.921999931
1410.0	0.0006573	103.968999863
1410.0	0.0006568	104.0
1410.0	0.0006568	104.046999931
1410.0	0.0006565	104.093999863
1410.0	0.0006565	104.125
1410.0	0.0006565	104.171999931
1410.0	0.0006565	104.203000069
1410.0	0.0006568	104.25
1410.0	0.0006565	104.296999931
1410.0	0.0006565	104.328000069
1410.0	0.0006565	104.375
1410.0	0.0006563	104.421999931
1410.0	0.000656	104.453000069
1410.0	0.000656	104.5
1410.0	0.0006555	104.530999899
1410.0	0.0006555	104.578000069
1410.0	0.000656	104.625
1410.0	0.000656	104.655999899
1410.0	0.0006563	104.703000069
1410.0	0.0006563	104.75
1410.0	0.0006563	104.780999899
1410.0	0.0006563	104.828000069
1410.0	0.0006563	104.875
1410.0	0.0006563	104.905999899
1410.0	0.0006563	104.953000069
1410.0	0.0006563	105.0
1410.0	0.0006563	105.030999899
1420.0	0.000651	105.296999931
1420.0	0.0006493	105.343999863
1420.0	0.0006485	105.391000032
1420.0	0.0006473	105.421999931
1420.0	0.0006463	105.468999863
1420.0	0.000646	105.5
1420.0	0.0006453	105.546999931
1420.0	0.000645	105.593999863
1420.0	0.0006448	105.625
1420.0	0.0006443	105.671999931
1420.0	0.0006443	105.718999863
1420.0	0.0006443	105.75
1420.0	0.0006448	105.796999931
1420.0	0.0006448	105.843999863
1420.0	0.0006443	105.875
1420.0	0.000644	105.921999931
1420.0	0.0006438	105.953000069
1420.0	0.0006438	106.0
1420.0	0.0006435	106.046999931
1420.0	0.0006438	106.078000069
1420.0	0.0006438	106.125
1420.0	0.0006443	106.171999931
1420.0	0.0006443	106.203000069
1420.0	0.0006443	106.25
1420.0	0.0006448	106.280999899
1420.0	0.0006443	106.328000069
1420.0	0.000644	106.375
1420.0	0.000644	106.405999899
1420.0	0.000644	106.453000069
1420.0	0.0006443	106.5
1420.0	0.0006448	106.530999899
1420.0	0.000645	106.578000069
1420.0	0.0006453	106.608999968
1420.0	0.000645	106.655999899
1420.0	0.0006448	106.703000069
1420.0	0.0006448	106.733999968
1420.0	0.0006448	106.780999899
1430.0	0.0006413	107.046999931
1430.0	0.0006413	107.093999863
1430.0	0.0006405	107.125
1430.0	0.0006405	107.171999931
1430.0	0.0006403	107.218999863
1430.0	0.00064	107.25
1430.0	0.0006398	107.296999931
1430.0	0.0006395	107.328000069
1430.0	0.0006393	107.375
1430.0	0.000639	107.421999931
1430.0	0.0006388	107.453000069
1430.0	0.0006388	107.5
1430.0	0.000639	107.546999931
1430.0	0.000639	107.578000069
1430.0	0.000639	107.625
1430.0	0.0006393	107.671999931
1430.0	0.0006395	107.703000069
1430.0	0.0006398	107.75
1430.0	0.00064	107.780999899
1430.0	0.0006403	107.828000069
1430.0	0.0006403	107.875
1430.0	0.00064	107.905999899
1430.0	0.0006398	107.953000069
1430.0	0.0006395	108.0
1430.0	0.0006393	108.030999899
1430.0	0.000639	108.078000069
1430.0	0.000639	108.108999968
1430.0	0.000639	108.155999899
1430.0	0.0006393	108.203000069
1430.0	0.0006393	108.233999968
1430.0	0.0006395	108.280999899
1430.0	0.0006395	108.328000069
1430.0	0.0006395	108.358999968
1430.0	0.0006395	108.405999899
1430.0	0.0006395	108.437000036
1430.0	0.0006395	108.483999968
1430.0	0.0006393	108.530999899
1440.0	0.000639	108.796999931
1440.0	0.000639	108.843999863
1440.0	0.0006393	108.875
1440.0	0.0006398	108.921999931
1440.0	0.0006398	108.968999863
1440.0	0.00064	109.0
1440.0	0.0006403	109.046999931
1440.0	0.000641	109.078000069
1440.0	0.0006413	109.125
1440.0	0.0006413	109.171999931
1440.0	0.0006415	109.203000069
1440.0	0.0006418	109.25
1440.0	0.0006418	109.296999931
1440.0	0.0006418	109.328000069
1440.0	0.0006413	109.375
1440.0	0.0006413	109.421999931
1440.0	0.000641	109.453000069
1440.0	0.0006405	109.5
1440.0	0.0006403	109.546999931
1440.0	0.0006403	109.578000069
1440.0	0.0006403	109.625
1440.0	0.0006405	109.671999931
1440.0	0.000641	109.703000069
1440.0	0.000641	109.75
1440.0	0.000641	109.780999899
1440.0	0.000641	109.828000069
1440.0	0.0006405	109.875
1440.0	0.0006405	109.905999899
1440.0	0.0006405	109.953000069
1440.0	0.0006405	110.0
1440.0	0.0006405	110.030999899
1440.0	0.0006413	110.078000069
1440.0	0.0006413	110.108999968
1440.0	0.0006413	110.155999899
1440.0	0.000641	110.203000069
1440.0	0.000641	110.233999968
1440.0	0.0006405	110.280999899
1450.0	0.0006425	110.546999931
1450.0	0.0006438	110.593999863
1450.0	0.0006443	110.625
1450.0	0.000645	110.671999931
1450.0	0.0006455	110.718999863
1450.0	0.000646	110.75
1450.0	0.0006468	110.796999931
1450.0	0.0006473	110.843999863
1450.0	0.0006475	110.875
1450.0	0.0006475	110.921999931
1450.0	0.0006478	110.968999863
1450.0	0.0006478	111.0
1450.0	0.000648	111.046999931
1450.0	0.0006478	111.078000069
1450.0	0.0006475	111.125
1450.0	0.0006473	111.171999931
1450.0	0.0006468	111.203000069
1450.0	0.0006465	111.25
1450.0	0.0006465	111.296999931
1450.0	0.0006465	111.328000069
1450.0	0.0006468	111.375
1450.0	0.0006468	111.421999931
1450.0	0.0006468	111.453000069
1450.0	0.0006468	111.5
1450.0	0.0006468	111.530999899
1450.0	0.0006473	111.578000069
1450.0	0.0006473	111.625
1450.0	0.0006475	111.655999899
1450.0	0.0006475	111.703000069
1450.0	0.0006475	111.75
1450.0	0.0006475	111.780999899
1450.0	0.0006475	111.828000069
1450.0	0.0006478	111.858999968
1450.0	0.000648	111.905999899
1450.0	0.000648	111.953000069
1450.0	0.000648	111.983999968
1450.0	0.0006478	112.030999899
1460.0	0.0006503	112.296999931
1460.0	0.0006523	112.343999863
1460.0	0.0006535	112.375
1460.0	0.0006543	112.421999931
1460.0	0.000655	112.468999863
1460.0	0.0006555	112.5
1460.0	0.000656	112.546999931
1460.0	0.000656	112.578000069
1460.0	0.0006563	112.625
1460.0	0.0006565	112.671999931
1460.0	0.0006565	112.703000069
1460.0	0.0006565	112.75
1460.0	0.0006565	112.796999931
1460.0	0.0006568	112.828000069
1460.0	0.0006565	112.875
1460.0	0.0006565	112.921999931
1460.0	0.0006565	112.953000069
1460.0	0.0006568	113.0
1460.0	0.0006573	113.046999931
1460.0	0.0006575	113.078000069
1460.0	0.0006575	113.125
1460.0	0.0006575	113.171999931
1460.0	0.0006578	113.203000069
1460.0	0.0006578	113.25
1460.0	0.0006578	113.280999899
1460.0	0.0006575	113.328000069
1460.0	0.0006575	113.375
1460.0	0.0006578	113.405999899
1460.0	0.0006578	113.453000069
1460.0	0.0006578	113.5
1460.0	0.000658	113.530999899
1460.0	0.0006585	113.578000069
1460.0	0.0006585	113.608999968
1460.0	0.0006588	113.655999899
1460.0	0.0006585	113.703000069
1460.0	0.0006588	113.733999968
1460.0	0.0006588	113.780999899
1470.0	0.0006618	114.046999931
1470.0	0.0006638	114.093999863
1470.0	0.000665	114.125
1470.0	0.0006663	114.171999931
1470.0	0.0006675	114.218999863
1470.0	0.0006685	114.25
1470.0	0.000669	114.296999931
1470.0	0.0006698	114.328000069
1470.0	0.00067	114.375
1470.0	0.00067	114.421999931
1470.0	0.0006705	114.453000069
1470.0	0.000671	114.5
1470.0	0.000671	114.546999931
1470.0	0.0006705	114.578000069
1470.0	0.0006705	114.625
1470.0	0.0006705	114.655999899
1470.0	0.0006705	114.703000069
1470.0	0.000671	114.75
1470.0	0.0006713	114.796999931
1470.0	0.0006713	114.828000069
1470.0	0.0006713	114.875
1470.0	0.0006713	114.905999899
1470.0	0.0006713	114.953000069
1470.0	0.0006715	115.0
1470.0	0.0006715	115.030999899
1470.0	0.0006713	115.078000069
1470.0	0.0006713	115.125
1470.0	0.000671	115.155999899
1470.0	0.000671	115.203000069
1470.0	0.000671	115.233999968
1470.0	0.000671	115.280999899
1470.0	0.0006713	115.328000069
1470.0	0.0006715	115.358999968
1470.0	0.0006718	115.405999899
1470.0	0.0006715	115.453000069
1470.0	0.0006715	115.483999968
1470.0	0.0006713	115.530999899
1480.0	0.000675	115.796999931
1480.0	0.0006765	115.843999863
1480.0	0.000678	115.875
1480.0	0.0006793	115.921999931
1480.0	0.0006803	115.953000069
1480.0	0.000681	116.0
1480.0	0.0006813	116.046999931
1480.0	0.0006813	116.078000069
1480.0	0.0006815	116.125
1480.0	0.0006815	116.171999931
1480.0	0.0006815	116.203000069
1480.0	0.0006818	116.25
1480.0	0.0006823	116.296999931
1480.0	0.0006823	116.328000069
1480.0	0.0006823	116.375
1480.0	0.0006825	116.421999931
1480.0	0.0006825	116.453000069
1480.0	0.0006825	116.5
1480.0	0.0006825	116.546999931
1480.0	0.0006825	116.578000069
1480.0	0.0006825	116.625
1480.0	0.0006825	116.655999899
1480.0	0.0006828	116.703000069
1480.0	0.0006825	116.75
1480.0	0.0006828	116.780999899
1480.0	0.0006828	116.828000069
1480.0	0.0006828	116.875
1480.0	0.0006828	116.905999899
1480.0	0.0006823	116.953000069
1480.0	0.0006818	116.983999968
1480.0	0.0006815	117.030999899
1480.0	0.0006813	117.078000069
1480.0	0.0006813	117.108999968
1480.0	0.0006813	117.155999899
1480.0	0.0006813	117.203000069
1480.0	0.0006813	117.233999968
1480.0	0.0006815	117.280999899
1490.0	0.0006843	117.546999931
1490.0	0.0006853	117.593999863
1490.0	0.0006865	117.625
1490.0	0.0006873	117.671999931
1490.0	0.0006875	117.718999863
1490.0	0.0006878	117.75
1490.0	0.0006885	117.796999931
1490.0	0.0006885	117.843999863
1490.0	0.0006885	117.891000032
1490.0	0.000688	117.921999931
1490.0	0.000688	117.968999863
1490.0	0.0006885	118.0
1490.0	0.0006885	118.046999931
1490.0	0.0006885	118.093999863
1490.0	0.0006885	118.125
1490.0	0.0006888	118.171999931
1490.0	0.0006888	118.218999863
1490.0	0.000689	118.25
1490.0	0.0006893	118.296999931
1490.0	0.000689	118.343999863
1490.0	0.000689	118.375
1490.0	0.0006885	118.421999931
1490.0	0.0006885	118.468999863
1490.0	0.0006878	118.5
1490.0	0.0006878	118.546999931
1490.0	0.0006875	118.578000069
1490.0	0.0006878	118.625
1490.0	0.0006878	118.671999931
1490.0	0.000688	118.703000069
1490.0	0.0006885	118.75
1490.0	0.0006885	118.796999931
1490.0	0.0006885	118.828000069
1490.0	0.0006885	118.875
1490.0	0.0006888	118.921999931
1490.0	0.000689	118.953000069
1490.0	0.000689	119.0
1500.0	0.000691	119.266000032
1500.0	0.0006915	119.312000036
1500.0	0.0006918	119.358999968
1500.0	0.0006923	119.391000032
1500.0	0.0006925	119.437000036
1500.0	0.0006925	119.468999863
1500.0	0.000693	119.516000032
1500.0	0.0006935	119.562000036
1500.0	0.0006938	119.593999863
1500.0	0.000694	119.641000032
1500.0	0.000694	119.687000036
1500.0	0.000694	119.718999863
1500.0	0.000694	119.766000032
1500.0	0.0006943	119.812000036
1500.0	0.0006943	119.843999863
1500.0	0.0006943	119.891000032
1500.0	0.000694	119.921999931
1500.0	0.000694	119.968999863
1500.0	0.000694	120.016000032
1500.0	0.0006943	120.046999931
1500.0	0.0006943	120.093999863
1500.0	0.0006943	120.141000032
1500.0	0.0006943	120.171999931
1500.0	0.0006943	120.218999863
1500.0	0.0006943	120.25
1500.0	0.0006948	120.296999931
1500.0	0.000695	120.343999863
1500.0	0.0006948	120.375
1500.0	0.000695	120.421999931
1500.0	0.000695	120.468999863
1500.0	0.0006953	120.5
1500.0	0.0006955	120.546999931
1500.0	0.0006955	120.578000069
1500.0	0.000696	120.625
1500.0	0.000696	120.671999931
1500.0	0.0006955	120.703000069
1500.0	0.0006955	120.75
1510.0	0.0006973	121.016000032
1510.0	0.000698	121.062000036
1510.0	0.0006985	121.108999968
1510.0	0.000699	121.141000032
1510.0	0.0006993	121.187000036
1510.0	0.0006998	121.218999863
1510.0	0.0007	121.266000032
1510.0	0.0007005	121.312000036
1510.0	0.000701	121.343999863
1510.0	0.000701	121.391000032
1510.0	0.0007005	121.437000036
1510.0	0.0007003	121.468999863
1510.0	0.0006998	121.516000032
1510.0	0.0006998	121.546999931
1510.0	0.0007	121.593999863
1510.0	0.0007003	121.641000032
1510.0	0.0007003	121.671999931
1510.0	0.0007003	121.718999863
1510.0	0.0007003	121.766000032
1510.0	0.0007003	121.796999931
1510.0	0.0007005	121.843999863
1510.0	0.0007013	121.891000032
1510.0	0.0007013	121.921999931
1510.0	0.0007013	121.968999863
1510.0	0.0007013	122.0
1510.0	0.000701	122.046999931
1510.0	0.0007005	122.093999863
1510.0	0.0007005	122.125
1510.0	0.0007005	122.171999931
1510.0	0.0007005	122.218999863
1510.0	0.0007003	122.25
1510.0	0.0007003	122.296999931
1510.0	0.0007003	122.343999863
1510.0	0.0007003	122.375
1510.0	0.0007003	122.421999931
1510.0	0.000701	122.468999863
1510.0	0.0007013	122.5
1520.0	0.0007005	122.780999899
1520.0	0.0007005	122.812000036
1520.0	0.0007	122.858999968
1520.0	0.0007	122.905999899
1520.0	0.0006998	122.937000036
1520.0	0.0006993	122.983999968
1520.0	0.0006993	123.030999899
1520.0	0.0006993	123.062000036
1520.0	0.000699	123.108999968
1520.0	0.000699	123.141000032
1520.0	0.0006998	123.187000036
1520.0	0.0007	123.233999968
1520.0	0.0007	123.266000032
1520.0	0.0007	123.312000036
1520.0	0.0006998	123.358999968
1520.0	0.000699	123.391000032
1520.0	0.0006988	123.437000036
1520.0	0.0006988	123.483999968
1520.0	0.0006988	123.516000032
1520.0	0.000699	123.562000036
1520.0	0.000699	123.593999863
1520.0	0.000699	123.641000032
1520.0	0.000699	123.687000036
1520.0	0.000699	123.718999863
1520.0	0.0006993	123.766000032
1520.0	0.000699	123.812000036
1520.0	0.000699	123.843999863
1520.0	0.0006988	123.891000032
1520.0	0.0006985	123.921999931
1520.0	0.000698	123.968999863
1520.0	0.0006985	124.016000032
1520.0	0.000698	124.046999931
1520.0	0.000698	124.093999863
1520.0	0.000698	124.141000032
1520.0	0.000698	124.171999931
1520.0	0.000698	124.218999863
1520.0	0.0006985	124.25
1530.0	0.0006963	124.530999899
1530.0	0.0006955	124.578000069
1530.0	0.0006953	124.608999968
1530.0	0.000695	124.655999899
1530.0	0.000695	124.703000069
1530.0	0.0006948	124.733999968
1530.0	0.0006948	124.780999899
1530.0	0.0006943	124.828000069
1530.0	0.0006943	124.858999968
1530.0	0.000694	124.905999899
1530.0	0.000694	124.937000036
1530.0	0.0006938	124.983999968
1530.0	0.000694	125.030999899
1530.0	0.0006943	125.062000036
1530.0	0.000694	125.108999968
1530.0	0.000694	125.155999899
1530.0	0.0006938	125.187000036
1530.0	0.0006938	125.233999968
1530.0	0.000694	125.280999899
1530.0	0.000694	125.312000036
1530.0	0.0006943	125.358999968
1530.0	0.0006943	125.405999899
1530.0	0.0006943	125.437000036
1530.0	0.0006948	125.483999968
1530.0	0.0006948	125.516000032
1530.0	0.000695	125.562000036
1530.0	0.0006955	125.608999968
1530.0	0.000696	125.641000032
1530.0	0.0006955	125.687000036
1530.0	0.0006955	125.733999968
1530.0	0.0006953	125.766000032
1530.0	0.0006953	125.812000036
1530.0	0.0006953	125.843999863
1530.0	0.0006953	125.891000032
1530.0	0.000695	125.937000036
1530.0	0.0006953	125.983999968
1540.0	0.0006935	126.25
1540.0	0.0006923	126.296999931
1540.0	0.0006915	126.328000069
1540.0	0.0006905	126.375
1540.0	0.00069	126.421999931
1540.0	0.0006893	126.453000069
1540.0	0.0006888	126.5
1540.0	0.0006888	126.546999931
1540.0	0.0006888	126.578000069
1540.0	0.0006888	126.625
1540.0	0.0006885	126.671999931
1540.0	0.0006885	126.703000069
1540.0	0.0006888	126.75
1540.0	0.0006893	126.780999899
1540.0	0.0006898	126.828000069
1540.0	0.0006903	126.875
1540.0	0.0006903	126.905999899
1540.0	0.0006905	126.953000069
1540.0	0.0006903	127.0
1540.0	0.0006898	127.030999899
1540.0	0.0006898	127.078000069
1540.0	0.0006898	127.108999968
1540.0	0.0006898	127.155999899
1540.0	0.0006898	127.203000069
1540.0	0.00069	127.233999968
1540.0	0.0006898	127.280999899
1540.0	0.00069	127.328000069
1540.0	0.0006898	127.358999968
1540.0	0.0006898	127.405999899
1540.0	0.00069	127.437000036
1540.0	0.0006903	127.483999968
1540.0	0.0006903	127.530999899
1540.0	0.0006903	127.562000036
1540.0	0.0006905	127.608999968
1540.0	0.000691	127.655999899
1540.0	0.000691	127.687000036
1540.0	0.0006905	127.733999968
1550.0	0.0006855	128.0
1550.0	0.000684	128.046999931
1550.0	0.0006825	128.093999863
1550.0	0.0006815	128.125
1550.0	0.00068	128.171999931
1550.0	0.0006793	128.218999863
1550.0	0.0006788	128.25
1550.0	0.0006785	128.296999931
1550.0	0.0006785	128.343999863
1550.0	0.000678	128.375
1550.0	0.000678	128.421999931
1550.0	0.0006785	128.453000069
1550.0	0.0006785	128.5
1550.0	0.0006785	128.546999931
1550.0	0.000678	128.578000069
1550.0	0.0006778	128.625
1550.0	0.0006773	128.671999931
1550.0	0.0006768	128.703000069
1550.0	0.0006768	128.75
1550.0	0.0006768	128.780999899
1550.0	0.0006768	128.828000069
1550.0	0.0006768	128.875
1550.0	0.0006768	128.905999899
1550.0	0.0006765	128.953000069
1550.0	0.0006765	129.0
1550.0	0.0006763	129.030999899
1550.0	0.0006763	129.078000069
1550.0	0.000676	129.108999968
1550.0	0.000676	129.155999899
1550.0	0.0006755	129.203000069
1550.0	0.0006753	129.233999968
1550.0	0.0006753	129.280999899
1550.0	0.0006755	129.328000069
1550.0	0.0006755	129.358999968
1550.0	0.000676	129.405999899
1550.0	0.000676	129.453000069
1550.0	0.0006755	129.483999968
1560.0	0.0006688	129.766000032
1560.0	0.0006668	129.796999931
1560.0	0.0006653	129.843999863
1560.0	0.0006638	129.891000032
1560.0	0.0006625	129.921999931
1560.0	0.0006615	129.968999863
1560.0	0.000661	130.0
1560.0	0.0006605	130.046999931
1560.0	0.0006603	130.093999863
1560.0	0.0006598	130.125
1560.0	0.0006593	130.171999931
1560.0	0.000659	130.218999863
1560.0	0.0006588	130.25
1560.0	0.0006585	130.296999931
1560.0	0.0006585	130.328000069
1560.0	0.000658	130.375
1560.0	0.0006578	130.421999931
1560.0	0.0006578	130.453000069
1560.0	0.0006575	130.5
1560.0	0.0006575	130.546999931
1560.0	0.0006575	130.578000069
1560.0	0.0006578	130.625
1560.0	0.0006578	130.671999931
1560.0	0.000658	130.703000069
1560.0	0.0006578	130.75
1560.0	0.0006575	130.780999899
1560.0	0.0006575	130.828000069
1560.0	0.0006575	130.875
1560.0	0.0006578	130.905999899
1560.0	0.0006585	130.953000069
1560.0	0.0006585	131.0
1560.0	0.0006585	131.030999899
1560.0	0.0006585	131.078000069
1560.0	0.0006585	131.108999968
1560.0	0.000658	131.155999899
1560.0	0.0006585	131.203000069
1560.0	0.0006585	131.233999968
1570.0	0.00065	131.516000032
1570.0	0.0006465	131.546999931
1570.0	0.0006443	131.593999863
1570.0	0.0006423	131.641000032
1570.0	0.0006405	131.671999931
1570.0	0.0006395	131.718999863
1570.0	0.0006388	131.766000032
1570.0	0.000638	131.812000036
1570.0	0.000638	131.843999863
1570.0	0.000638	131.891000032
1570.0	0.000638	131.937000036
1570.0	0.0006378	131.968999863
1570.0	0.0006375	132.016000032
1570.0	0.0006375	132.062000036
1570.0	0.000637	132.093999863
1570.0	0.000637	132.141000032
1570.0	0.0006375	132.187000036
1570.0	0.0006375	132.218999863
1570.0	0.0006375	132.266000032
1570.0	0.0006375	132.296999931
1570.0	0.000637	132.343999863
1570.0	0.000637	132.391000032
1570.0	0.0006375	132.421999931
1570.0	0.0006375	132.468999863
1570.0	0.0006378	132.516000032
1570.0	0.000638	132.546999931
1570.0	0.000638	132.593999863
1570.0	0.000638	132.641000032
1570.0	0.0006378	132.671999931
1570.0	0.000638	132.718999863
1570.0	0.0006378	132.766000032
1570.0	0.0006378	132.796999931
1570.0	0.0006375	132.843999863
1570.0	0.0006375	132.875
1570.0	0.000638	132.921999931
1570.0	0.0006383	132.968999863
1580.0	0.0006295	133.233999968
1580.0	0.0006258	133.280999899
1580.0	0.0006225	133.312000036
1580.0	0.00062	133.358999968
1580.0	0.000618	133.405999899
1580.0	0.0006165	133.437000036
1580.0	0.0006153	133.483999968
1580.0	0.000614	133.516000032
1580.0	0.000613	133.562000036
1580.0	0.0006125	133.608999968
1580.0	0.000612	133.641000032
1580.0	0.0006118	133.687000036
1580.0	0.000612	133.733999968
1580.0	0.000612	133.766000032
1580.0	0.0006125	133.812000036
1580.0	0.000613	133.858999968
1580.0	0.0006128	133.891000032
1580.0	0.000613	133.937000036
1580.0	0.000613	133.968999863
1580.0	0.000613	134.016000032
1580.0	0.000613	134.062000036
1580.0	0.000613	134.093999863
1580.0	0.000613	134.141000032
1580.0	0.000613	134.187000036
1580.0	0.000613	134.218999863
1580.0	0.000613	134.266000032
1580.0	0.0006128	134.296999931
1580.0	0.0006128	134.343999863
1580.0	0.0006128	134.391000032
1580.0	0.0006128	134.437000036
1580.0	0.000612	134.468999863
1580.0	0.000612	134.516000032
1580.0	0.000612	134.546999931
1580.0	0.000612	134.593999863
1580.0	0.0006125	134.641000032
1580.0	0.0006128	134.671999931
1580.0	0.000613	134.718999863
1590.0	0.0006008	135.0
1590.0	0.0005965	135.030999899
1590.0	0.0005928	135.078000069
1590.0	0.0005895	135.125
1590.0	0.000587	135.155999899
1590.0	0.0005855	135.203000069
1590.0	0.0005843	135.25
1590.0	0.000583	135.280999899
1590.0	0.000582	135.328000069
1590.0	0.0005813	135.375
1590.0	0.0005808	135.405999899
1590.0	0.0005803	135.453000069
1590.0	0.00058	135.483999968
1590.0	0.0005795	135.530999899
1590.0	0.00058	135.578000069
1590.0	0.00058	135.608999968
1590.0	0.0005803	135.655999899
1590.0	0.0005803	135.703000069
1590.0	0.00058	135.733999968
1590.0	0.00058	135.780999899
1590.0	0.0005793	135.812000036
1590.0	0.000579	135.858999968
1590.0	0.0005788	135.905999899
1590.0	0.0005788	135.937000036
1590.0	0.0005788	135.983999968
1590.0	0.000579	136.030999899
1590.0	0.000579	136.062000036
1590.0	0.0005793	136.108999968
1590.0	0.0005795	136.141000032
1590.0	0.0005793	136.187000036
1590.0	0.0005793	136.233999968
1590.0	0.0005795	136.280999899
1590.0	0.0005795	136.312000036
1590.0	0.0005793	136.358999968
1590.0	0.000579	136.391000032
1590.0	0.0005788	136.437000036
1590.0	0.0005783	136.483999968
1600.0	0.0005655	136.75
1600.0	0.0005608	136.796999931
1600.0	0.0005568	136.843999863
1600.0	0.0005538	136.875
1600.0	0.0005508	136.921999931
1600.0	0.0005483	136.968999863
1600.0	0.0005468	137.0
1600.0	0.0005455	137.046999931
1600.0	0.0005443	137.078000069
1600.0	0.0005438	137.125
1600.0	0.000543	137.171999931
1600.0	0.0005428	137.203000069
1600.0	0.0005428	137.25
1600.0	0.000543	137.296999931
1600.0	0.000543	137.328000069
1600.0	0.000543	137.375
1600.0	0.0005428	137.405999899
1600.0	0.0005428	137.453000069
1600.0	0.0005428	137.5
1600.0	0.0005428	137.530999899
1600.0	0.0005425	137.578000069
1600.0	0.000542	137.625
1600.0	0.000542	137.655999899
1600.0	0.000542	137.703000069
1600.0	0.000542	137.733999968
1600.0	0.000542	137.780999899
1600.0	0.0005418	137.828000069
1600.0	0.0005418	137.858999968
1600.0	0.0005418	137.905999899
1600.0	0.000542	137.953000069
1600.0	0.0005425	137.983999968
1600.0	0.0005425	138.030999899
1600.0	0.0005425	138.078000069
1600.0	0.0005425	138.108999968
1600.0	0.0005425	138.155999899
1600.0	0.000542	138.203000069
1600.0	0.0005418	138.233999968
1610.0	0.0005278	138.516000032
1610.0	0.0005225	138.562000036
1610.0	0.0005188	138.593999863
1610.0	0.0005153	138.641000032
1610.0	0.0005125	138.687000036
1610.0	0.0005103	138.718999863
1610.0	0.0005088	138.766000032
1610.0	0.0005075	138.812000036
1610.0	0.0005065	138.843999863
1610.0	0.0005063	138.891000032
1610.0	0.0005055	138.921999931
1610.0	0.0005058	138.968999863
1610.0	0.0005055	139.016000032
1610.0	0.0005055	139.046999931
1610.0	0.0005053	139.093999863
1610.0	0.000505	139.141000032
1610.0	0.000505	139.171999931
1610.0	0.0005045	139.218999863
1610.0	0.0005045	139.25
1610.0	0.000505	139.296999931
1610.0	0.0005053	139.343999863
1610.0	0.0005053	139.375
1610.0	0.0005053	139.421999931
1610.0	0.000505	139.468999863
1610.0	0.0005045	139.5
1610.0	0.0005045	139.546999931
1610.0	0.000505	139.578000069
1610.0	0.000505	139.625
1610.0	0.000505	139.671999931
1610.0	0.0005053	139.703000069
1610.0	0.0005055	139.75
1610.0	0.0005055	139.796999931
1610.0	0.0005055	139.828000069
1610.0	0.0005055	139.875
1610.0	0.0005055	139.921999931
1610.0	0.0005058	139.953000069
1610.0	0.0005058	140.0
1620.0	0.0004903	140.280999899
1620.0	0.000485	140.312000036
1620.0	0.0004803	140.358999968
1620.0	0.0004765	140.391000032
1620.0	0.0004738	140.437000036
1620.0	0.0004713	140.483999968
1620.0	0.000469	140.516000032
1620.0	0.000468	140.562000036
1620.0	0.000467	140.608999968
1620.0	0.0004668	140.641000032
1620.0	0.0004665	140.687000036
1620.0	0.0004665	140.733999968
1620.0	0.0004663	140.766000032
1620.0	0.0004658	140.812000036
1620.0	0.0004658	140.843999863
1620.0	0.0004663	140.891000032
1620.0	0.0004663	140.937000036
1620.0	0.0004665	140.968999863
1620.0	0.0004663	141.016000032
1620.0	0.0004663	141.062000036
1620.0	0.0004665	141.093999863
1620.0	0.0004668	141.141000032
1620.0	0.0004668	141.171999931
1620.0	0.000467	141.218999863
1620.0	0.000467	141.266000032
1620.0	0.0004665	141.296999931
1620.0	0.0004663	141.343999863
1620.0	0.0004663	141.391000032
1620.0	0.0004665	141.421999931
1620.0	0.0004665	141.468999863
1620.0	0.0004665	141.5
1620.0	0.0004665	141.546999931
1620.0	0.0004663	141.593999863
1620.0	0.0004665	141.625
1620.0	0.0004665	141.671999931
1620.0	0.0004668	141.718999863
1620.0	0.0004665	141.75
1630.0	0.0004513	142.030999899
1630.0	0.0004455	142.078000069
1630.0	0.0004413	142.108999968
1630.0	0.0004375	142.155999899
1630.0	0.0004343	142.203000069
1630.0	0.0004315	142.233999968
1630.0	0.0004295	142.280999899
1630.0	0.000428	142.328000069
1630.0	0.000427	142.358999968
1630.0	0.0004265	142.405999899
1630.0	0.0004258	142.437000036
1630.0	0.0004253	142.483999968
1630.0	0.0004253	142.530999899
1630.0	0.0004253	142.562000036
1630.0	0.0004253	142.608999968
1630.0	0.0004255	142.655999899
1630.0	0.0004255	142.687000036
1630.0	0.0004255	142.733999968
1630.0	0.0004255	142.766000032
1630.0	0.0004258	142.812000036
1630.0	0.0004255	142.858999968
1630.0	0.0004253	142.891000032
1630.0	0.0004245	142.937000036
1630.0	0.0004243	142.983999968
1630.0	0.0004238	143.016000032
1630.0	0.0004238	143.062000036
1630.0	0.0004238	143.093999863
1630.0	0.000424	143.141000032
1630.0	0.000424	143.187000036
1630.0	0.000424	143.218999863
1630.0	0.0004243	143.266000032
1630.0	0.0004243	143.312000036
1630.0	0.0004243	143.343999863
1630.0	0.0004243	143.391000032
1630.0	0.000424	143.437000036
1630.0	0.0004243	143.468999863
1630.0	0.0004243	143.516000032
1640.0	0.000408	143.796999931
1640.0	0.000402	143.843999863
1640.0	0.0003978	143.875
1640.0	0.000394	143.921999931
1640.0	0.0003913	143.953000069
1640.0	0.000389	144.0
1640.0	0.0003875	144.046999931
1640.0	0.0003863	144.078000069
1640.0	0.0003858	144.125
1640.0	0.0003853	144.171999931
1640.0	0.0003845	144.203000069
1640.0	0.0003843	144.25
1640.0	0.000384	144.280999899
1640.0	0.0003838	144.328000069
1640.0	0.0003838	144.375
1640.0	0.0003833	144.405999899
1640.0	0.000383	144.453000069
1640.0	0.0003828	144.5
1640.0	0.0003825	144.530999899
1640.0	0.0003825	144.578000069
1640.0	0.000382	144.625
1640.0	0.000382	144.655999899
1640.0	0.000382	144.703000069
1640.0	0.0003825	144.733999968
1640.0	0.0003828	144.780999899
1640.0	0.0003825	144.828000069
1640.0	0.0003825	144.858999968
1640.0	0.0003825	144.905999899
1640.0	0.0003828	144.937000036
1640.0	0.0003825	144.983999968
1640.0	0.0003825	145.030999899
1640.0	0.000382	145.062000036
1640.0	0.000382	145.108999968
1640.0	0.000382	145.155999899
1640.0	0.000382	145.187000036
1640.0	0.000382	145.233999968
1640.0	0.000382	145.280999899
1650.0	0.0003658	145.562000036
1650.0	0.0003608	145.593999863
1650.0	0.0003565	145.641000032
1650.0	0.000353	145.687000036
1650.0	0.0003503	145.718999863
1650.0	0.000348	145.766000032
1650.0	0.0003463	145.796999931
1650.0	0.000345	145.843999863
1650.0	0.0003438	145.891000032
1650.0	0.000343	145.921999931
1650.0	0.0003425	145.968999863
1650.0	0.0003418	146.016000032
1650.0	0.0003418	146.046999931
1650.0	0.0003418	146.093999863
1650.0	0.0003415	146.125
1650.0	0.0003413	146.171999931
1650.0	0.0003413	146.218999863
1650.0	0.0003413	146.25
1650.0	0.0003413	146.296999931
1650.0	0.0003413	146.343999863
1650.0	0.0003413	146.375
1650.0	0.0003413	146.421999931
1650.0	0.0003413	146.468999863
1650.0	0.0003413	146.5
1650.0	0.0003413	146.546999931
1650.0	0.0003413	146.578000069
1650.0	0.0003415	146.625
1650.0	0.0003418	146.671999931
1650.0	0.0003418	146.703000069
1650.0	0.0003415	146.75
1650.0	0.0003415	146.796999931
1650.0	0.0003413	146.828000069
1650.0	0.0003413	146.875
1650.0	0.0003413	146.905999899
1650.0	0.0003415	146.953000069
1650.0	0.0003415	147.0
1650.0	0.0003413	147.030999899
1660.0	0.000327	147.328000069
1660.0	0.000322	147.358999968
1660.0	0.000318	147.405999899
1660.0	0.000315	147.453000069
1660.0	0.0003125	147.5
1660.0	0.0003108	147.530999899
1660.0	0.0003095	147.578000069
1660.0	0.0003088	147.608999968
1660.0	0.0003075	147.655999899
1660.0	0.0003068	147.703000069
1660.0	0.0003068	147.733999968
1660.0	0.0003063	147.780999899
1660.0	0.0003055	147.828000069
1660.0	0.000305	147.858999968
1660.0	0.0003045	147.905999899
1660.0	0.000305	147.937000036
1660.0	0.0003053	147.983999968
1660.0	0.000305	148.030999899
1660.0	0.0003045	148.062000036
1660.0	0.0003045	148.108999968
1660.0	0.0003045	148.155999899
1660.0	0.000305	148.187000036
1660.0	0.0003053	148.233999968
1660.0	0.0003053	148.266000032
1660.0	0.0003053	148.312000036
1660.0	0.0003053	148.358999968
1660.0	0.0003053	148.391000032
1660.0	0.0003053	148.437000036
1660.0	0.0003055	148.483999968
1660.0	0.0003055	148.516000032
1660.0	0.0003055	148.562000036
1660.0	0.0003055	148.593999863
1660.0	0.0003058	148.641000032
1660.0	0.0003055	148.687000036
1660.0	0.0003055	148.718999863
1660.0	0.0003055	148.766000032
1660.0	0.0003058	148.812000036
1670.0	0.000293	149.093999863
1670.0	0.0002888	149.141000032
1670.0	0.000285	149.171999931
1670.0	0.000282	149.218999863
1670.0	0.00028	149.266000032
1670.0	0.0002783	149.296999931
1670.0	0.000277	149.343999863
1670.0	0.0002763	149.375
1670.0	0.0002755	149.421999931
1670.0	0.0002753	149.468999863
1670.0	0.0002745	149.516000032
1670.0	0.000274	149.546999931
1670.0	0.0002738	149.593999863
1670.0	0.000273	149.625
1670.0	0.000273	149.671999931
1670.0	0.000273	149.718999863
1670.0	0.000273	149.75
1670.0	0.0002728	149.796999931
1670.0	0.000273	149.843999863
1670.0	0.0002733	149.875
1670.0	0.0002733	149.921999931
1670.0	0.0002733	149.953000069
1670.0	0.0002733	150.0
1670.0	0.0002733	150.046999931
1670.0	0.0002733	150.078000069
1670.0	0.0002738	150.125
1670.0	0.0002733	150.171999931
1670.0	0.0002733	150.203000069
1670.0	0.0002733	150.25
1670.0	0.0002733	150.296999931
1670.0	0.0002733	150.328000069
1670.0	0.000274	150.375
1670.0	0.000274	150.405999899
1670.0	0.0002743	150.453000069
1670.0	0.0002745	150.5
1670.0	0.0002743	150.530999899
1670.0	0.0002743	150.578000069
1680.0	0.0002618	150.858999968
1680.0	0.000258	150.905999899
1680.0	0.0002553	150.953000069
1680.0	0.0002528	150.983999968
1680.0	0.0002513	151.030999899
1680.0	0.0002495	151.062000036
1680.0	0.0002488	151.108999968
1680.0	0.000248	151.155999899
1680.0	0.0002475	151.187000036
1680.0	0.0002475	151.233999968
1680.0	0.0002468	151.280999899
1680.0	0.0002465	151.312000036
1680.0	0.0002463	151.358999968
1680.0	0.0002463	151.391000032
1680.0	0.0002463	151.437000036
1680.0	0.0002465	151.483999968
1680.0	0.0002465	151.516000032
1680.0	0.0002463	151.562000036
1680.0	0.0002463	151.608999968
1680.0	0.0002458	151.641000032
1680.0	0.0002463	151.687000036
1680.0	0.0002458	151.718999863
1680.0	0.0002455	151.766000032
1680.0	0.0002455	151.812000036
1680.0	0.0002458	151.858999968
1680.0	0.0002463	151.891000032
1680.0	0.0002463	151.937000036
1680.0	0.0002463	151.968999863
1680.0	0.0002465	152.016000032
1680.0	0.0002465	152.062000036
1680.0	0.0002463	152.093999863
1680.0	0.0002465	152.141000032
1680.0	0.0002465	152.187000036
1680.0	0.0002468	152.218999863
1680.0	0.0002468	152.266000032
1680.0	0.000247	152.312000036
1680.0	0.0002468	152.343999863
1690.0	0.0002363	152.641000032
1690.0	0.0002325	152.671999931
1690.0	0.00023	152.718999863
1690.0	0.0002278	152.75
1690.0	0.0002263	152.796999931
1690.0	0.0002245	152.843999863
1690.0	0.0002233	152.875
1690.0	0.0002225	152.921999931
1690.0	0.0002213	152.968999863
1690.0	0.0002205	153.0
1690.0	0.0002203	153.046999931
1690.0	0.00022	153.078000069
1690.0	0.00022	153.125
1690.0	0.0002203	153.171999931
1690.0	0.0002203	153.203000069
1690.0	0.0002203	153.25
1690.0	0.0002203	153.296999931
1690.0	0.0002203	153.328000069
1690.0	0.00022	153.375
1690.0	0.00022	153.421999931
1690.0	0.0002195	153.453000069
1690.0	0.0002195	153.5
1690.0	0.00022	153.530999899
1690.0	0.00022	153.578000069
1690.0	0.00022	153.625
1690.0	0.0002195	153.655999899
1690.0	0.0002195	153.703000069
1690.0	0.00022	153.75
1690.0	0.00022	153.780999899
1690.0	0.00022	153.828000069
1690.0	0.00022	153.858999968
1690.0	0.0002203	153.905999899
1690.0	0.0002205	153.953000069
1690.0	0.0002203	153.983999968
1690.0	0.00022	154.030999899
1690.0	0.0002195	154.078000069
1690.0	0.0002195	154.108999968
1700.0	0.0002103	154.405999899
1700.0	0.000207	154.437000036
1700.0	0.0002045	154.483999968
1700.0	0.0002028	154.516000032
1700.0	0.0002013	154.562000036
1700.0	0.0002	154.608999968
1700.0	0.0001988	154.655999899
1700.0	0.0001983	154.687000036
1700.0	0.000198	154.733999968
1700.0	0.0001978	154.780999899
1700.0	0.0001975	154.812000036
1700.0	0.0001975	154.858999968
1700.0	0.000197	154.891000032
1700.0	0.000197	154.937000036
1700.0	0.000197	154.983999968
1700.0	0.0001968	155.016000032
1700.0	0.0001968	155.062000036
1700.0	0.0001968	155.108999968
1700.0	0.0001968	155.141000032
1700.0	0.0001968	155.187000036
1700.0	0.0001963	155.218999863
1700.0	0.0001958	155.266000032
1700.0	0.0001958	155.312000036
1700.0	0.0001958	155.358999968
1700.0	0.0001963	155.391000032
1700.0	0.0001965	155.437000036
1700.0	0.0001965	155.468999863
1700.0	0.0001965	155.516000032
1700.0	0.0001968	155.562000036
1700.0	0.0001968	155.593999863
1700.0	0.0001965	155.641000032
1700.0	0.0001963	155.687000036
1700.0	0.0001963	155.718999863
1700.0	0.0001958	155.766000032
1700.0	0.0001955	155.812000036
1700.0	0.0001955	155.843999863
1700.0	0.0001955	155.891000032
1710.0	0.0001875	156.171999931
1710.0	0.0001845	156.218999863
1710.0	0.0001825	156.266000032
1710.0	0.0001805	156.296999931
1710.0	0.0001793	156.343999863
1710.0	0.0001783	156.391000032
1710.0	0.0001775	156.421999931
1710.0	0.0001768	156.468999863
1710.0	0.0001765	156.516000032
1710.0	0.0001763	156.546999931
1710.0	0.0001758	156.593999863
1710.0	0.0001755	156.641000032
1710.0	0.0001753	156.671999931
1710.0	0.000175	156.718999863
1710.0	0.000175	156.766000032
1710.0	0.000175	156.796999931
1710.0	0.0001753	156.843999863
1710.0	0.0001753	156.875
1710.0	0.000175	156.921999931
1710.0	0.000175	156.968999863
1710.0	0.000175	157.0
1710.0	0.000175	157.046999931
1710.0	0.000175	157.093999863
1710.0	0.000175	157.125
1710.0	0.000175	157.171999931
1710.0	0.0001745	157.203000069
1710.0	0.0001745	157.25
1710.0	0.0001745	157.296999931
1710.0	0.0001745	157.328000069
1710.0	0.0001745	157.375
1710.0	0.0001745	157.421999931
1710.0	0.0001745	157.453000069
1710.0	0.0001743	157.5
1710.0	0.000174	157.530999899
1710.0	0.0001743	157.578000069
1710.0	0.000174	157.625
1720.0	0.0001658	157.905999899
1720.0	0.0001638	157.953000069
1720.0	0.000162	157.983999968
1720.0	0.0001608	158.030999899
1720.0	0.0001603	158.078000069
1720.0	0.0001595	158.108999968
1720.0	0.000159	158.155999899
1720.0	0.0001583	158.203000069
1720.0	0.000158	158.233999968
1720.0	0.000158	158.280999899
1720.0	0.0001578	158.312000036
1720.0	0.0001578	158.358999968
1720.0	0.000157	158.405999899
1720.0	0.000157	158.437000036
1720.0	0.0001575	158.483999968
1720.0	0.0001575	158.516000032
1720.0	0.0001575	158.562000036
1720.0	0.0001578	158.608999968
1720.0	0.0001575	158.641000032
1720.0	0.000157	158.687000036
1720.0	0.000157	158.733999968
1720.0	0.0001568	158.766000032
1720.0	0.0001568	158.812000036
1720.0	0.0001565	158.858999968
1720.0	0.0001565	158.891000032
1720.0	0.0001568	158.937000036
1720.0	0.0001568	158.968999863
1720.0	0.0001565	159.016000032
1720.0	0.0001565	159.062000036
1720.0	0.0001563	159.108999968
1720.0	0.0001563	159.141000032
1720.0	0.0001563	159.187000036
1720.0	0.0001563	159.218999863
1720.0	0.0001565	159.266000032
1720.0	0.0001565	159.312000036
1720.0	0.0001568	159.343999863
1720.0	0.000157	159.391000032
1730.0	0.0001505	159.687000036
1730.0	0.0001488	159.718999863
1730.0	0.000147	159.766000032
1730.0	0.0001463	159.812000036
1730.0	0.0001445	159.843999863
1730.0	0.0001438	159.891000032
1730.0	0.000143	159.921999931
1730.0	0.0001425	159.968999863
1730.0	0.0001418	160.016000032
1730.0	0.0001413	160.046999931
1730.0	0.0001408	160.093999863
1730.0	0.0001405	160.141000032
1730.0	0.0001405	160.171999931
1730.0	0.0001405	160.218999863
1730.0	0.0001408	160.25
1730.0	0.0001413	160.296999931
1730.0	0.0001413	160.343999863
1730.0	0.0001413	160.375
1730.0	0.0001413	160.421999931
1730.0	0.0001413	160.468999863
1730.0	0.0001415	160.5
1730.0	0.0001413	160.546999931
1730.0	0.0001413	160.578000069
1730.0	0.0001413	160.625
1730.0	0.0001408	160.671999931
1730.0	0.0001408	160.703000069
1730.0	0.0001408	160.75
1730.0	0.0001413	160.796999931
1730.0	0.0001413	160.828000069
1730.0	0.0001413	160.875
1730.0	0.0001413	160.921999931
1730.0	0.0001415	160.953000069
1730.0	0.0001415	161.0
1730.0	0.0001415	161.030999899
1730.0	0.0001415	161.078000069
1730.0	0.0001415	161.125
1730.0	0.0001415	161.155999899
1740.0	0.000137	161.453000069
1740.0	0.0001355	161.5
1740.0	0.000134	161.530999899
1740.0	0.0001328	161.578000069
1740.0	0.0001318	161.625
1740.0	0.0001308	161.655999899
1740.0	0.00013	161.703000069
1740.0	0.0001295	161.733999968
1740.0	0.0001288	161.780999899
1740.0	0.0001283	161.828000069
1740.0	0.000128	161.858999968
1740.0	0.0001283	161.905999899
1740.0	0.0001288	161.937000036
1740.0	0.0001288	161.983999968
1740.0	0.0001288	162.030999899
1740.0	0.0001288	162.078000069
1740.0	0.0001288	162.108999968
1740.0	0.0001288	162.155999899
1740.0	0.0001288	162.187000036
1740.0	0.0001283	162.233999968
1740.0	0.000128	162.280999899
1740.0	0.000128	162.312000036
1740.0	0.000128	162.358999968
1740.0	0.000128	162.405999899
1740.0	0.0001278	162.437000036
1740.0	0.000128	162.483999968
1740.0	0.0001278	162.530999899
1740.0	0.0001278	162.562000036
1740.0	0.0001278	162.608999968
1740.0	0.0001278	162.641000032
1740.0	0.000128	162.687000036
1740.0	0.000128	162.733999968
1740.0	0.000128	162.766000032
1740.0	0.000128	162.812000036
1740.0	0.000128	162.858999968
1740.0	0.000128	162.891000032
1740.0	0.0001283	162.937000036
1750.0	0.000123	163.233999968
1750.0	0.0001215	163.266000032
1750.0	0.0001203	163.312000036
1750.0	0.0001193	163.358999968
1750.0	0.0001188	163.391000032
1750.0	0.000118	163.437000036
1750.0	0.0001178	163.483999968
1750.0	0.0001175	163.516000032
1750.0	0.000117	163.562000036
1750.0	0.0001165	163.593999863
1750.0	0.0001163	163.641000032
1750.0	0.0001155	163.687000036
1750.0	0.0001158	163.718999863
1750.0	0.0001158	163.766000032
1750.0	0.0001158	163.812000036
1750.0	0.0001158	163.843999863
1750.0	0.0001158	163.891000032
1750.0	0.0001158	163.921999931
1750.0	0.0001158	163.968999863
1750.0	0.0001158	164.016000032
1750.0	0.0001163	164.046999931
1750.0	0.0001163	164.093999863
1750.0	0.0001163	164.141000032
1750.0	0.0001163	164.171999931
1750.0	0.0001163	164.218999863
1750.0	0.0001163	164.266000032
1750.0	0.0001158	164.296999931
1750.0	0.0001163	164.343999863
1750.0	0.0001163	164.391000032
1750.0	0.0001163	164.421999931
1750.0	0.0001163	164.468999863
1750.0	0.0001163	164.5
1750.0	0.0001165	164.546999931
1750.0	0.0001163	164.593999863
1750.0	0.0001163	164.625
1750.0	0.0001163	164.671999931
1750.0	0.0001163	164.718999863
1760.0	0.0001103	165.016000032
1760.0	0.000109	165.046999931
1760.0	0.000108	165.093999863
1760.0	0.000107	165.141000032
1760.0	0.0001063	165.171999931
1760.0	0.0001055	165.218999863
1760.0	0.0001053	165.266000032
1760.0	0.0001045	165.296999931
1760.0	0.0001045	165.343999863
1760.0	0.0001045	165.391000032
1760.0	0.0001043	165.421999931
1760.0	0.0001043	165.468999863
1760.0	0.000104	165.5
1760.0	0.000104	165.546999931
1760.0	0.0001038	165.593999863
1760.0	0.0001038	165.625
1760.0	0.0001038	165.671999931
1760.0	0.0001038	165.718999863
1760.0	0.0001038	165.75
1760.0	0.0001038	165.796999931
1760.0	0.0001038	165.828000069
1760.0	0.0001033	165.875
1760.0	0.0001033	165.921999931
1760.0	0.0001033	165.953000069
1760.0	0.0001038	166.0
1760.0	0.0001038	166.046999931
1760.0	0.000104	166.078000069
1760.0	0.000104	166.125
1760.0	0.000104	166.171999931
1760.0	0.000104	166.203000069
1760.0	0.0001043	166.25
1760.0	0.0001043	166.280999899
1760.0	0.0001038	166.328000069
1760.0	0.000104	166.375
1760.0	0.0001043	166.405999899
1760.0	0.0001043	166.453000069
1760.0	0.0001043	166.5
1770.0	9.88e-05	166.796999931
1770.0	9.7e-05	166.843999863
1770.0	9.63e-05	166.875
1770.0	9.53e-05	166.921999931
1770.0	9.43e-05	166.953000069
1770.0	9.38e-05	167.0
1770.0	9.33e-05	167.046999931
1770.0	9.33e-05	167.078000069
1770.0	9.3e-05	167.125
1770.0	9.3e-05	167.171999931
1770.0	9.3e-05	167.203000069
1770.0	9.28e-05	167.25
1770.0	9.28e-05	167.280999899
1770.0	9.28e-05	167.328000069
1770.0	9.25e-05	167.375
1770.0	9.28e-05	167.405999899
1770.0	9.3e-05	167.453000069
1770.0	9.33e-05	167.5
1770.0	9.38e-05	167.530999899
1770.0	9.33e-05	167.578000069
1770.0	9.33e-05	167.625
1770.0	9.3e-05	167.655999899
1770.0	9.28e-05	167.703000069
1770.0	9.28e-05	167.733999968
1770.0	9.28e-05	167.780999899
1770.0	9.25e-05	167.828000069
1770.0	9.25e-05	167.858999968
1770.0	9.25e-05	167.905999899
1770.0	9.25e-05	167.953000069
1770.0	9.25e-05	167.983999968
1770.0	9.28e-05	168.030999899
1770.0	9.28e-05	168.062000036
1770.0	9.3e-05	168.108999968
1770.0	9.28e-05	168.155999899
1770.0	9.28e-05	168.187000036
1770.0	9.28e-05	168.233999968
1770.0	9.28e-05	168.280999899
1780.0	8.78e-05	168.578000069
1780.0	8.63e-05	168.625
1780.0	8.5e-05	168.655999899
1780.0	8.43e-05	168.703000069
1780.0	8.38e-05	168.75
1780.0	8.38e-05	168.780999899
1780.0	8.33e-05	168.828000069
1780.0	8.33e-05	168.875
1780.0	8.28e-05	168.905999899
1780.0	8.25e-05	168.953000069
1780.0	8.25e-05	169.0
1780.0	8.25e-05	169.030999899
1780.0	8.2e-05	169.078000069
1780.0	8.18e-05	169.108999968
1780.0	8.18e-05	169.155999899
1780.0	8.18e-05	169.203000069
1780.0	8.18e-05	169.233999968
1780.0	8.18e-05	169.280999899
1780.0	8.15e-05	169.328000069
1780.0	8.13e-05	169.358999968
1780.0	8.13e-05	169.405999899
1780.0	8.15e-05	169.437000036
1780.0	8.13e-05	169.483999968
1780.0	8.13e-05	169.530999899
1780.0	8.15e-05	169.562000036
1780.0	8.18e-05	169.608999968
1780.0	8.18e-05	169.655999899
1780.0	8.18e-05	169.687000036
1780.0	8.18e-05	169.733999968
1780.0	8.2e-05	169.780999899
1780.0	8.2e-05	169.812000036
1780.0	8.18e-05	169.858999968
1780.0	8.18e-05	169.891000032
1780.0	8.18e-05	169.937000036
1780.0	8.25e-05	169.983999968
1780.0	8.28e-05	170.016000032
1780.0	8.28e-05	170.062000036
1790.0	7.8e-05	170.358999968
1790.0	7.68e-05	170.405999899
1790.0	7.58e-05	170.437000036
1790.0	7.53e-05	170.483999968
1790.0	7.45e-05	170.530999899
1790.0	7.43e-05	170.562000036
1790.0	7.4e-05	170.608999968
1790.0	7.38e-05	170.641000032
1790.0	7.33e-05	170.687000036
1790.0	7.3e-05	170.733999968
1790.0	7.28e-05	170.766000032
1790.0	7.2e-05	170.812000036
1790.0	7.18e-05	170.858999968
1790.0	7.18e-05	170.891000032
1790.0	7.18e-05	170.937000036
1790.0	7.18e-05	170.983999968
1790.0	7.18e-05	171.016000032
1790.0	7.18e-05	171.062000036
1790.0	7.18e-05	171.093999863
1790.0	7.18e-05	171.141000032
1790.0	7.15e-05	171.187000036
1790.0	7.18e-05	171.218999863
1790.0	7.18e-05	171.266000032
1790.0	7.18e-05	171.312000036
1790.0	7.18e-05	171.343999863
1790.0	7.2e-05	171.391000032
1790.0	7.2e-05	171.421999931
1790.0	7.2e-05	171.468999863
1790.0	7.2e-05	171.516000032
1790.0	7.25e-05	171.546999931
1790.0	7.25e-05	171.593999863
1790.0	7.28e-05	171.641000032
1790.0	7.28e-05	171.671999931
1790.0	7.25e-05	171.718999863
1790.0	7.2e-05	171.766000032
1790.0	7.18e-05	171.796999931
1790.0	7.15e-05	171.843999863
1800.0	6.78e-05	172.141000032
1800.0	6.65e-05	172.187000036
1800.0	6.58e-05	172.218999863
1800.0	6.53e-05	172.266000032
1800.0	6.45e-05	172.312000036
1800.0	6.43e-05	172.343999863
1800.0	6.43e-05	172.391000032
1800.0	6.4e-05	172.437000036
1800.0	6.38e-05	172.468999863
1800.0	6.33e-05	172.516000032
1800.0	6.33e-05	172.546999931
1800.0	6.3e-05	172.593999863
1800.0	6.3e-05	172.641000032
1800.0	6.3e-05	172.671999931
1800.0	6.3e-05	172.718999863
1800.0	6.33e-05	172.766000032
1800.0	6.33e-05	172.796999931
1800.0	6.33e-05	172.843999863
1800.0	6.3e-05	172.891000032
1800.0	6.3e-05	172.921999931
1800.0	6.3e-05	172.968999863
1800.0	6.3e-05	173.0
1800.0	6.3e-05	173.046999931
1800.0	6.28e-05	173.093999863
1800.0	6.28e-05	173.125
1800.0	6.25e-05	173.171999931
1800.0	6.25e-05	173.218999863
1800.0	6.2e-05	173.25
1800.0	6.2e-05	173.296999931
1800.0	6.2e-05	173.343999863
1800.0	6.25e-05	173.375
1800.0	6.2e-05	173.421999931
1800.0	6.2e-05	173.468999863
1800.0	6.2e-05	173.5
1800.0	6.2e-05	173.546999931
1800.0	6.2e-05	173.578000069
1800.0	6.25e-05	173.625
