Your edit line - do NOT delete this line
Wavelength [nm], Voltage [V], Elapsed time [s]
900.0	1.8e-05	1.01600003242
900.0	1.78e-05	1.06299996376
900.0	1.75e-05	1.09400010109
900.0	1.7e-05	1.14100003242
900.0	1.7e-05	1.18799996376
900.0	1.68e-05	1.21900010109
900.0	1.65e-05	1.26600003242
900.0	1.65e-05	1.29700016975
900.0	1.68e-05	1.34400010109
900.0	1.68e-05	1.39100003242
900.0	1.68e-05	1.42200016975
900.0	1.68e-05	1.46900010109
900.0	1.68e-05	1.51600003242
900.0	1.68e-05	1.54700016975
900.0	1.68e-05	1.59400010109
900.0	1.68e-05	1.625
900.0	1.68e-05	1.67200016975
900.0	1.7e-05	1.71900010109
900.0	1.7e-05	1.75
900.0	1.75e-05	1.79700016975
900.0	1.75e-05	1.84400010109
900.0	1.75e-05	1.875
900.0	1.75e-05	1.92200016975
900.0	1.75e-05	1.96900010109
900.0	1.75e-05	2.0
900.0	1.75e-05	2.04700016975
900.0	1.75e-05	2.07800006866
900.0	1.75e-05	2.125
900.0	1.75e-05	2.17200016975
900.0	1.7e-05	2.20300006866
900.0	1.75e-05	2.25
900.0	1.75e-05	2.29700016975
900.0	1.75e-05	2.32800006866
900.0	1.7e-05	2.375
900.0	1.68e-05	2.40600013733
900.0	1.65e-05	2.45300006866
900.0	1.65e-05	2.5
910.0	1.63e-05	2.79700016975
910.0	1.68e-05	2.84400010109
910.0	1.7e-05	2.89100003242
910.0	1.78e-05	2.92200016975
910.0	1.8e-05	2.96900010109
910.0	1.88e-05	3.01600003242
910.0	1.93e-05	3.04700016975
910.0	1.9e-05	3.09400010109
910.0	1.9e-05	3.125
910.0	1.88e-05	3.17200016975
910.0	1.88e-05	3.21900010109
910.0	1.83e-05	3.25
910.0	1.8e-05	3.29700016975
910.0	1.8e-05	3.34400010109
910.0	1.8e-05	3.375
910.0	1.8e-05	3.42200016975
910.0	1.8e-05	3.45300006866
910.0	1.8e-05	3.5
910.0	1.8e-05	3.54700016975
910.0	1.83e-05	3.59400010109
910.0	1.8e-05	3.625
910.0	1.8e-05	3.67200016975
910.0	1.8e-05	3.70300006866
910.0	1.83e-05	3.75
910.0	1.8e-05	3.79700016975
910.0	1.8e-05	3.82800006866
910.0	1.78e-05	3.875
910.0	1.75e-05	3.92200016975
910.0	1.75e-05	3.95300006866
910.0	1.75e-05	4.0
910.0	1.75e-05	4.04700016975
910.0	1.75e-05	4.07800006866
910.0	1.78e-05	4.125
910.0	1.8e-05	4.15600013733
910.0	1.8e-05	4.20300006866
910.0	1.8e-05	4.25
910.0	1.8e-05	4.28100013733
920.0	1.9e-05	4.59400010109
920.0	1.93e-05	4.625
920.0	1.93e-05	4.67200016975
920.0	1.95e-05	4.71900010109
920.0	2e-05	4.75
920.0	2.03e-05	4.79700016975
920.0	2.03e-05	4.82800006866
920.0	2.03e-05	4.875
920.0	2.03e-05	4.92200016975
920.0	2e-05	4.95300006866
920.0	1.95e-05	5.0
920.0	2e-05	5.04700016975
920.0	1.95e-05	5.07800006866
920.0	1.95e-05	5.125
920.0	1.93e-05	5.17200016975
920.0	1.9e-05	5.20300006866
920.0	1.93e-05	5.25
920.0	1.93e-05	5.28100013733
920.0	2e-05	5.32800006866
920.0	2.03e-05	5.375
920.0	2.05e-05	5.40600013733
920.0	2.03e-05	5.45300006866
920.0	2.03e-05	5.5
920.0	2e-05	5.53100013733
920.0	2e-05	5.57800006866
920.0	1.95e-05	5.61000013351
920.0	1.95e-05	5.65600013733
920.0	1.95e-05	5.70300006866
920.0	2e-05	5.73500013351
920.0	2.03e-05	5.78100013733
920.0	2.05e-05	5.82800006866
920.0	2.03e-05	5.86000013351
920.0	2.05e-05	5.90600013733
920.0	2.05e-05	5.93799996376
920.0	2.08e-05	5.98500013351
920.0	2.08e-05	6.03100013733
920.0	2.13e-05	6.06299996376
930.0	2.18e-05	6.375
930.0	2.18e-05	6.40600013733
930.0	2.18e-05	6.45300006866
930.0	2.18e-05	6.5
930.0	2.18e-05	6.53100013733
930.0	2.18e-05	6.57800006866
930.0	2.2e-05	6.625
930.0	2.25e-05	6.65600013733
930.0	2.25e-05	6.70300006866
930.0	2.25e-05	6.73500013351
930.0	2.25e-05	6.78100013733
930.0	2.25e-05	6.82800006866
930.0	2.2e-05	6.86000013351
930.0	2.18e-05	6.90600013733
930.0	2.18e-05	6.95300006866
930.0	2.18e-05	6.98500013351
930.0	2.18e-05	7.03100013733
930.0	2.2e-05	7.07800006866
930.0	2.2e-05	7.11000013351
930.0	2.25e-05	7.15600013733
930.0	2.25e-05	7.18799996376
930.0	2.25e-05	7.23500013351
930.0	2.28e-05	7.28100013733
930.0	2.25e-05	7.31299996376
930.0	2.28e-05	7.36000013351
930.0	2.25e-05	7.40600013733
930.0	2.25e-05	7.43799996376
930.0	2.28e-05	7.48500013351
930.0	2.25e-05	7.51600003242
930.0	2.25e-05	7.56299996376
930.0	2.25e-05	7.61000013351
930.0	2.25e-05	7.64100003242
930.0	2.2e-05	7.68799996376
930.0	2.2e-05	7.73500013351
930.0	2.2e-05	7.76600003242
930.0	2.18e-05	7.81299996376
930.0	2.2e-05	7.84400010109
940.0	2.25e-05	8.15600013733
940.0	2.28e-05	8.18799996376
940.0	2.3e-05	8.23500013351
940.0	2.3e-05	8.26600003242
940.0	2.33e-05	8.31299996376
940.0	2.38e-05	8.36000013351
940.0	2.38e-05	8.39100003242
940.0	2.4e-05	8.43799996376
940.0	2.43e-05	8.48500013351
940.0	2.43e-05	8.51600003242
940.0	2.4e-05	8.56299996376
940.0	2.4e-05	8.61000013351
940.0	2.38e-05	8.64100003242
940.0	2.4e-05	8.68799996376
940.0	2.43e-05	8.71900010109
940.0	2.43e-05	8.76600003242
940.0	2.43e-05	8.81299996376
940.0	2.4e-05	8.84400010109
940.0	2.43e-05	8.89100003242
940.0	2.43e-05	8.93799996376
940.0	2.43e-05	8.96900010109
940.0	2.45e-05	9.01600003242
940.0	2.45e-05	9.04700016975
940.0	2.45e-05	9.09400010109
940.0	2.45e-05	9.14100003242
940.0	2.45e-05	9.17200016975
940.0	2.43e-05	9.21900010109
940.0	2.43e-05	9.26600003242
940.0	2.43e-05	9.29700016975
940.0	2.45e-05	9.34400010109
940.0	2.45e-05	9.39100003242
940.0	2.4e-05	9.42200016975
940.0	2.4e-05	9.46900010109
940.0	2.4e-05	9.51600003242
940.0	2.4e-05	9.56299996376
940.0	2.4e-05	9.59400010109
940.0	2.4e-05	9.64100003242
950.0	2.5e-05	9.92200016975
950.0	2.55e-05	9.96900010109
950.0	2.55e-05	10.0
950.0	2.58e-05	10.0470001698
950.0	2.58e-05	10.0940001011
950.0	2.58e-05	10.125
950.0	2.63e-05	10.1720001698
950.0	2.63e-05	10.2190001011
950.0	2.63e-05	10.25
950.0	2.58e-05	10.2970001698
950.0	2.58e-05	10.3280000687
950.0	2.58e-05	10.375
950.0	2.55e-05	10.4220001698
950.0	2.58e-05	10.4530000687
950.0	2.58e-05	10.5
950.0	2.58e-05	10.5470001698
950.0	2.55e-05	10.5780000687
950.0	2.55e-05	10.625
950.0	2.55e-05	10.6720001698
950.0	2.53e-05	10.7030000687
950.0	2.53e-05	10.75
950.0	2.53e-05	10.7810001373
950.0	2.5e-05	10.8280000687
950.0	2.5e-05	10.875
950.0	2.5e-05	10.9060001373
950.0	2.5e-05	10.9530000687
950.0	2.45e-05	11.0
950.0	2.45e-05	11.0310001373
950.0	2.45e-05	11.0780000687
950.0	2.45e-05	11.1100001335
950.0	2.45e-05	11.1560001373
950.0	2.45e-05	11.2030000687
950.0	2.43e-05	11.2350001335
950.0	2.5e-05	11.2810001373
950.0	2.5e-05	11.3280000687
950.0	2.53e-05	11.3600001335
950.0	2.53e-05	11.4060001373
960.0	2.58e-05	11.6879999638
960.0	2.63e-05	11.7350001335
960.0	2.65e-05	11.7660000324
960.0	2.68e-05	11.8129999638
960.0	2.65e-05	11.8600001335
960.0	2.65e-05	11.8910000324
960.0	2.63e-05	11.9379999638
960.0	2.58e-05	11.9850001335
960.0	2.58e-05	12.0160000324
960.0	2.55e-05	12.0629999638
960.0	2.58e-05	12.0940001011
960.0	2.58e-05	12.1410000324
960.0	2.58e-05	12.1879999638
960.0	2.58e-05	12.2190001011
960.0	2.58e-05	12.2660000324
960.0	2.58e-05	12.3129999638
960.0	2.58e-05	12.3440001011
960.0	2.63e-05	12.3910000324
960.0	2.63e-05	12.4379999638
960.0	2.63e-05	12.4690001011
960.0	2.63e-05	12.5160000324
960.0	2.65e-05	12.5470001698
960.0	2.65e-05	12.5940001011
960.0	2.68e-05	12.6410000324
960.0	2.68e-05	12.6720001698
960.0	2.68e-05	12.7190001011
960.0	2.65e-05	12.7660000324
960.0	2.68e-05	12.7970001698
960.0	2.68e-05	12.8440001011
960.0	2.68e-05	12.875
960.0	2.65e-05	12.9220001698
960.0	2.63e-05	12.9690001011
960.0	2.58e-05	13.0160000324
960.0	2.58e-05	13.0470001698
960.0	2.58e-05	13.0940001011
960.0	2.58e-05	13.125
960.0	2.58e-05	13.1720001698
970.0	2.63e-05	13.4530000687
970.0	2.55e-05	13.5
970.0	2.58e-05	13.5470001698
970.0	2.63e-05	13.5780000687
970.0	2.63e-05	13.625
970.0	2.65e-05	13.6560001373
970.0	2.65e-05	13.7030000687
970.0	2.68e-05	13.75
970.0	2.7e-05	13.7810001373
970.0	2.75e-05	13.8280000687
970.0	2.75e-05	13.875
970.0	2.75e-05	13.9060001373
970.0	2.7e-05	13.9530000687
970.0	2.7e-05	13.9850001335
970.0	2.7e-05	14.0310001373
970.0	2.7e-05	14.0780000687
970.0	2.7e-05	14.1100001335
970.0	2.7e-05	14.1560001373
970.0	2.75e-05	14.2030000687
970.0	2.7e-05	14.2350001335
970.0	2.7e-05	14.2810001373
970.0	2.7e-05	14.3129999638
970.0	2.7e-05	14.3600001335
970.0	2.68e-05	14.4060001373
970.0	2.68e-05	14.4379999638
970.0	2.68e-05	14.4850001335
970.0	2.68e-05	14.5310001373
970.0	2.7e-05	14.5629999638
970.0	2.68e-05	14.6100001335
970.0	2.7e-05	14.6410000324
970.0	2.7e-05	14.6879999638
970.0	2.7e-05	14.7350001335
970.0	2.7e-05	14.7660000324
970.0	2.75e-05	14.8129999638
970.0	2.75e-05	14.8600001335
970.0	2.75e-05	14.8910000324
970.0	2.78e-05	14.9379999638
980.0	2.78e-05	15.2190001011
980.0	2.8e-05	15.2660000324
980.0	2.83e-05	15.2970001698
980.0	2.88e-05	15.3440001011
980.0	2.9e-05	15.3910000324
980.0	2.9e-05	15.4220001698
980.0	2.88e-05	15.4690001011
980.0	2.88e-05	15.5
980.0	2.83e-05	15.5470001698
980.0	2.83e-05	15.5940001011
980.0	2.83e-05	15.625
980.0	2.83e-05	15.6720001698
980.0	2.83e-05	15.7190001011
980.0	2.83e-05	15.75
980.0	2.88e-05	15.7970001698
980.0	2.88e-05	15.8280000687
980.0	2.88e-05	15.875
980.0	2.88e-05	15.9220001698
980.0	2.83e-05	15.9530000687
980.0	2.83e-05	16.0
980.0	2.88e-05	16.0470001698
980.0	2.88e-05	16.0780000687
980.0	2.88e-05	16.125
980.0	2.83e-05	16.1560001373
980.0	2.83e-05	16.2030000687
980.0	2.83e-05	16.25
980.0	2.83e-05	16.2810001373
980.0	2.83e-05	16.3280000687
980.0	2.83e-05	16.375
980.0	2.88e-05	16.4060001373
980.0	2.9e-05	16.4530000687
980.0	2.9e-05	16.5
980.0	2.9e-05	16.5310001373
980.0	2.9e-05	16.5780000687
980.0	2.9e-05	16.6100001335
980.0	2.9e-05	16.6560001373
980.0	2.88e-05	16.7030000687
990.0	2.93e-05	16.9850001335
990.0	2.95e-05	17.0160000324
990.0	3e-05	17.0629999638
990.0	3.03e-05	17.1100001335
990.0	3.03e-05	17.1410000324
990.0	3.03e-05	17.1879999638
990.0	3.05e-05	17.2350001335
990.0	3.13e-05	17.2660000324
990.0	3.13e-05	17.3129999638
990.0	3.13e-05	17.3440001011
990.0	3.08e-05	17.3910000324
990.0	3.08e-05	17.4379999638
990.0	3.13e-05	17.4850001335
990.0	3.13e-05	17.5160000324
990.0	3.08e-05	17.5629999638
990.0	3.08e-05	17.5940001011
990.0	3.08e-05	17.6410000324
990.0	3.13e-05	17.6879999638
990.0	3.13e-05	17.7190001011
990.0	3.13e-05	17.7660000324
990.0	3.13e-05	17.8129999638
990.0	3.13e-05	17.8440001011
990.0	3.13e-05	17.8910000324
990.0	3.13e-05	17.9379999638
990.0	3.13e-05	17.9690001011
990.0	3.08e-05	18.0160000324
990.0	3.05e-05	18.0470001698
990.0	3.03e-05	18.0940001011
990.0	3.05e-05	18.1410000324
990.0	3.08e-05	18.1720001698
990.0	3.05e-05	18.2190001011
990.0	3.08e-05	18.2660000324
990.0	3.13e-05	18.2970001698
990.0	3.15e-05	18.3440001011
990.0	3.18e-05	18.3910000324
990.0	3.15e-05	18.4220001698
990.0	3.13e-05	18.4690001011
1000.0	3.18e-05	18.75
1000.0	3.18e-05	18.7810001373
1000.0	3.2e-05	18.8280000687
1000.0	3.25e-05	18.875
1000.0	3.28e-05	18.9060001373
1000.0	3.28e-05	18.9530000687
1000.0	3.28e-05	19.0
1000.0	3.28e-05	19.0310001373
1000.0	3.28e-05	19.0780000687
1000.0	3.28e-05	19.125
1000.0	3.28e-05	19.1560001373
1000.0	3.3e-05	19.2030000687
1000.0	3.3e-05	19.2350001335
1000.0	3.3e-05	19.2810001373
1000.0	3.3e-05	19.3280000687
1000.0	3.3e-05	19.3600001335
1000.0	3.3e-05	19.4060001373
1000.0	3.3e-05	19.4530000687
1000.0	3.3e-05	19.4850001335
1000.0	3.3e-05	19.5310001373
1000.0	3.3e-05	19.5629999638
1000.0	3.33e-05	19.6100001335
1000.0	3.3e-05	19.6560001373
1000.0	3.3e-05	19.6879999638
1000.0	3.3e-05	19.7350001335
1000.0	3.3e-05	19.7810001373
1000.0	3.33e-05	19.8129999638
1000.0	3.33e-05	19.8600001335
1000.0	3.3e-05	19.8910000324
1000.0	3.3e-05	19.9379999638
1000.0	3.3e-05	19.9850001335
1000.0	3.3e-05	20.0160000324
1000.0	3.3e-05	20.0629999638
1000.0	3.3e-05	20.1100001335
1000.0	3.3e-05	20.1410000324
1000.0	3.33e-05	20.1879999638
1000.0	3.33e-05	20.2190001011
1010.0	3.4e-05	20.5
1010.0	3.45e-05	20.5470001698
1010.0	3.5e-05	20.5940001011
1010.0	3.53e-05	20.625
1010.0	3.55e-05	20.6720001698
1010.0	3.58e-05	20.7030000687
1010.0	3.58e-05	20.75
1010.0	3.55e-05	20.7970001698
1010.0	3.55e-05	20.8440001011
1010.0	3.58e-05	20.875
1010.0	3.63e-05	20.9220001698
1010.0	3.63e-05	20.9690001011
1010.0	3.63e-05	21.0
1010.0	3.58e-05	21.0470001698
1010.0	3.55e-05	21.0780000687
1010.0	3.55e-05	21.125
1010.0	3.55e-05	21.1720001698
1010.0	3.55e-05	21.2030000687
1010.0	3.53e-05	21.25
1010.0	3.53e-05	21.2970001698
1010.0	3.5e-05	21.3280000687
1010.0	3.5e-05	21.375
1010.0	3.45e-05	21.4060001373
1010.0	3.5e-05	21.4530000687
1010.0	3.5e-05	21.5
1010.0	3.5e-05	21.5310001373
1010.0	3.5e-05	21.5780000687
1010.0	3.5e-05	21.625
1010.0	3.45e-05	21.6560001373
1010.0	3.45e-05	21.7030000687
1010.0	3.45e-05	21.7350001335
1010.0	3.45e-05	21.7810001373
1010.0	3.43e-05	21.8280000687
1010.0	3.45e-05	21.8600001335
1010.0	3.45e-05	21.9060001373
1010.0	3.45e-05	21.9530000687
1010.0	3.5e-05	21.9850001335
1020.0	3.53e-05	22.2660000324
1020.0	3.55e-05	22.3129999638
1020.0	3.55e-05	22.3440001011
1020.0	3.55e-05	22.3910000324
1020.0	3.5e-05	22.4379999638
1020.0	3.5e-05	22.4690001011
1020.0	3.5e-05	22.5160000324
1020.0	3.5e-05	22.5629999638
1020.0	3.53e-05	22.5940001011
1020.0	3.53e-05	22.6410000324
1020.0	3.53e-05	22.6720001698
1020.0	3.55e-05	22.7190001011
1020.0	3.55e-05	22.7660000324
1020.0	3.55e-05	22.7970001698
1020.0	3.55e-05	22.8440001011
1020.0	3.53e-05	22.8910000324
1020.0	3.55e-05	22.9220001698
1020.0	3.55e-05	22.9690001011
1020.0	3.58e-05	23.0
1020.0	3.63e-05	23.0470001698
1020.0	3.63e-05	23.0940001011
1020.0	3.63e-05	23.125
1020.0	3.63e-05	23.1720001698
1020.0	3.63e-05	23.2190001011
1020.0	3.65e-05	23.25
1020.0	3.63e-05	23.2970001698
1020.0	3.65e-05	23.3280000687
1020.0	3.65e-05	23.375
1020.0	3.65e-05	23.4220001698
1020.0	3.63e-05	23.4530000687
1020.0	3.58e-05	23.5
1020.0	3.58e-05	23.5470001698
1020.0	3.58e-05	23.5780000687
1020.0	3.58e-05	23.625
1020.0	3.55e-05	23.6560001373
1020.0	3.53e-05	23.7030000687
1020.0	3.53e-05	23.75
1030.0	3.63e-05	24.0310001373
1030.0	3.65e-05	24.0629999638
1030.0	3.68e-05	24.1100001335
1030.0	3.68e-05	24.1410000324
1030.0	3.7e-05	24.1879999638
1030.0	3.68e-05	24.2350001335
1030.0	3.65e-05	24.2660000324
1030.0	3.65e-05	24.3129999638
1030.0	3.65e-05	24.3600001335
1030.0	3.7e-05	24.3910000324
1030.0	3.7e-05	24.4379999638
1030.0	3.7e-05	24.4690001011
1030.0	3.7e-05	24.5160000324
1030.0	3.68e-05	24.5629999638
1030.0	3.68e-05	24.5940001011
1030.0	3.68e-05	24.6410000324
1030.0	3.68e-05	24.6879999638
1030.0	3.7e-05	24.7190001011
1030.0	3.7e-05	24.7660000324
1030.0	3.68e-05	24.8129999638
1030.0	3.65e-05	24.8440001011
1030.0	3.68e-05	24.8910000324
1030.0	3.68e-05	24.9220001698
1030.0	3.68e-05	24.9690001011
1030.0	3.68e-05	25.0160000324
1030.0	3.65e-05	25.0470001698
1030.0	3.63e-05	25.0940001011
1030.0	3.63e-05	25.1410000324
1030.0	3.65e-05	25.1720001698
1030.0	3.68e-05	25.2190001011
1030.0	3.7e-05	25.25
1030.0	3.7e-05	25.2970001698
1030.0	3.7e-05	25.3440001011
1030.0	3.7e-05	25.375
1030.0	3.7e-05	25.4220001698
1030.0	3.68e-05	25.4690001011
1030.0	3.68e-05	25.5
1040.0	3.7e-05	25.7810001373
1040.0	3.75e-05	25.8280000687
1040.0	3.75e-05	25.875
1040.0	3.8e-05	25.9060001373
1040.0	3.83e-05	25.9530000687
1040.0	3.83e-05	26.0
1040.0	3.88e-05	26.0310001373
1040.0	3.88e-05	26.0780000687
1040.0	3.88e-05	26.1100001335
1040.0	3.83e-05	26.1560001373
1040.0	3.88e-05	26.2030000687
1040.0	3.88e-05	26.2350001335
1040.0	3.9e-05	26.2810001373
1040.0	3.93e-05	26.3280000687
1040.0	3.93e-05	26.3600001335
1040.0	3.95e-05	26.4060001373
1040.0	3.95e-05	26.4379999638
1040.0	4e-05	26.4850001335
1040.0	4e-05	26.5310001373
1040.0	4e-05	26.5629999638
1040.0	4e-05	26.6100001335
1040.0	4e-05	26.6560001373
1040.0	4e-05	26.6879999638
1040.0	3.95e-05	26.7350001335
1040.0	3.93e-05	26.7660000324
1040.0	3.93e-05	26.8129999638
1040.0	3.95e-05	26.8600001335
1040.0	3.95e-05	26.9060001373
1040.0	4e-05	26.9379999638
1040.0	4e-05	26.9850001335
1040.0	4.03e-05	27.0160000324
1040.0	4.03e-05	27.0629999638
1040.0	4e-05	27.1100001335
1040.0	4e-05	27.1410000324
1040.0	4.03e-05	27.1879999638
1040.0	4.03e-05	27.2350001335
1040.0	4.03e-05	27.2660000324
1050.0	4.03e-05	27.5470001698
1050.0	4.05e-05	27.5940001011
1050.0	4.08e-05	27.625
1050.0	4.13e-05	27.6720001698
1050.0	4.13e-05	27.7190001011
1050.0	4.13e-05	27.75
1050.0	4.15e-05	27.7970001698
1050.0	4.18e-05	27.8440001011
1050.0	4.15e-05	27.875
1050.0	4.18e-05	27.9220001698
1050.0	4.15e-05	27.9530000687
1050.0	4.18e-05	28.0
1050.0	4.18e-05	28.0470001698
1050.0	4.18e-05	28.0780000687
1050.0	4.2e-05	28.125
1050.0	4.25e-05	28.1720001698
1050.0	4.25e-05	28.2030000687
1050.0	4.2e-05	28.25
1050.0	4.2e-05	28.2810001373
1050.0	4.2e-05	28.3280000687
1050.0	4.18e-05	28.375
1050.0	4.18e-05	28.4060001373
1050.0	4.18e-05	28.4530000687
1050.0	4.2e-05	28.5
1050.0	4.2e-05	28.5310001373
1050.0	4.18e-05	28.5780000687
1050.0	4.18e-05	28.6100001335
1050.0	4.18e-05	28.6560001373
1050.0	4.18e-05	28.7030000687
1050.0	4.2e-05	28.75
1050.0	4.2e-05	28.7810001373
1050.0	4.18e-05	28.8280000687
1050.0	4.25e-05	28.875
1050.0	4.25e-05	28.9060001373
1050.0	4.25e-05	28.9530000687
1050.0	4.28e-05	28.9850001335
1050.0	4.28e-05	29.0310001373
1060.0	4.28e-05	29.3129999638
1060.0	4.3e-05	29.3600001335
1060.0	4.3e-05	29.3910000324
1060.0	4.3e-05	29.4379999638
1060.0	4.33e-05	29.4690001011
1060.0	4.33e-05	29.5160000324
1060.0	4.33e-05	29.5629999638
1060.0	4.3e-05	29.5940001011
1060.0	4.33e-05	29.6410000324
1060.0	4.4e-05	29.6879999638
1060.0	4.4e-05	29.7190001011
1060.0	4.43e-05	29.7660000324
1060.0	4.43e-05	29.7970001698
1060.0	4.43e-05	29.8440001011
1060.0	4.45e-05	29.8910000324
1060.0	4.43e-05	29.9220001698
1060.0	4.43e-05	29.9690001011
1060.0	4.4e-05	30.0160000324
1060.0	4.4e-05	30.0470001698
1060.0	4.38e-05	30.0940001011
1060.0	4.4e-05	30.125
1060.0	4.4e-05	30.1720001698
1060.0	4.38e-05	30.2190001011
1060.0	4.38e-05	30.25
1060.0	4.38e-05	30.2970001698
1060.0	4.38e-05	30.3440001011
1060.0	4.33e-05	30.375
1060.0	4.3e-05	30.4220001698
1060.0	4.33e-05	30.4690001011
1060.0	4.38e-05	30.5
1060.0	4.38e-05	30.5470001698
1060.0	4.38e-05	30.5780000687
1060.0	4.38e-05	30.625
1060.0	4.38e-05	30.6720001698
1060.0	4.38e-05	30.7030000687
1060.0	4.33e-05	30.75
1060.0	4.33e-05	30.7970001698
1070.0	4.43e-05	31.0629999638
1070.0	4.45e-05	31.1100001335
1070.0	4.5e-05	31.1560001373
1070.0	4.53e-05	31.1879999638
1070.0	4.53e-05	31.2350001335
1070.0	4.55e-05	31.2810001373
1070.0	4.58e-05	31.3129999638
1070.0	4.58e-05	31.3600001335
1070.0	4.58e-05	31.3910000324
1070.0	4.58e-05	31.4379999638
1070.0	4.58e-05	31.4850001335
1070.0	4.63e-05	31.5160000324
1070.0	4.63e-05	31.5629999638
1070.0	4.65e-05	31.6100001335
1070.0	4.63e-05	31.6410000324
1070.0	4.63e-05	31.6879999638
1070.0	4.63e-05	31.7190001011
1070.0	4.63e-05	31.7660000324
1070.0	4.58e-05	31.8129999638
1070.0	4.58e-05	31.8440001011
1070.0	4.63e-05	31.8910000324
1070.0	4.65e-05	31.9379999638
1070.0	4.68e-05	31.9690001011
1070.0	4.68e-05	32.0160000324
1070.0	4.7e-05	32.0470001698
1070.0	4.7e-05	32.0940001011
1070.0	4.7e-05	32.1410000324
1070.0	4.75e-05	32.1720001698
1070.0	4.7e-05	32.2190001011
1070.0	4.7e-05	32.2660000324
1070.0	4.7e-05	32.2970001698
1070.0	4.68e-05	32.3440001011
1070.0	4.68e-05	32.3910000324
1070.0	4.68e-05	32.4220001698
1070.0	4.68e-05	32.4690001011
1070.0	4.68e-05	32.5160000324
1070.0	4.68e-05	32.5470001698
1080.0	4.78e-05	32.8280000687
1080.0	4.83e-05	32.875
1080.0	4.88e-05	32.9060001373
1080.0	4.93e-05	32.9530000687
1080.0	4.95e-05	33.0
1080.0	5e-05	33.0310001373
1080.0	5e-05	33.0780000687
1080.0	5e-05	33.125
1080.0	5.05e-05	33.1560001373
1080.0	5.08e-05	33.2030000687
1080.0	5.13e-05	33.25
1080.0	5.15e-05	33.2810001373
1080.0	5.15e-05	33.3280000687
1080.0	5.15e-05	33.3600001335
1080.0	5.13e-05	33.4060001373
1080.0	5.15e-05	33.4530000687
1080.0	5.18e-05	33.4850001335
1080.0	5.18e-05	33.5310001373
1080.0	5.15e-05	33.5780000687
1080.0	5.15e-05	33.6100001335
1080.0	5.13e-05	33.6560001373
1080.0	5.13e-05	33.6879999638
1080.0	5.08e-05	33.7350001335
1080.0	5.08e-05	33.7810001373
1080.0	5.13e-05	33.8129999638
1080.0	5.13e-05	33.8600001335
1080.0	5.08e-05	33.8910000324
1080.0	5.13e-05	33.9379999638
1080.0	5.13e-05	33.9850001335
1080.0	5.13e-05	34.0160000324
1080.0	5.13e-05	34.0629999638
1080.0	5.13e-05	34.1100001335
1080.0	5.15e-05	34.1410000324
1080.0	5.15e-05	34.1879999638
1080.0	5.13e-05	34.2350001335
1080.0	5.13e-05	34.2660000324
1080.0	5.15e-05	34.3129999638
1090.0	5.2e-05	34.5780000687
1090.0	5.28e-05	34.625
1090.0	5.33e-05	34.6720001698
1090.0	5.38e-05	34.7030000687
1090.0	5.4e-05	34.75
1090.0	5.4e-05	34.7970001698
1090.0	5.43e-05	34.8280000687
1090.0	5.45e-05	34.875
1090.0	5.5e-05	34.9060001373
1090.0	5.53e-05	34.9530000687
1090.0	5.55e-05	35.0
1090.0	5.55e-05	35.0310001373
1090.0	5.5e-05	35.0780000687
1090.0	5.5e-05	35.125
1090.0	5.5e-05	35.1560001373
1090.0	5.45e-05	35.2030000687
1090.0	5.45e-05	35.25
1090.0	5.5e-05	35.2810001373
1090.0	5.5e-05	35.3280000687
1090.0	5.5e-05	35.3600001335
1090.0	5.53e-05	35.4060001373
1090.0	5.5e-05	35.4530000687
1090.0	5.5e-05	35.4850001335
1090.0	5.53e-05	35.5310001373
1090.0	5.53e-05	35.5780000687
1090.0	5.53e-05	35.6100001335
1090.0	5.5e-05	35.6560001373
1090.0	5.45e-05	35.7030000687
1090.0	5.43e-05	35.7350001335
1090.0	5.4e-05	35.7810001373
1090.0	5.38e-05	35.8280000687
1090.0	5.38e-05	35.8600001335
1090.0	5.38e-05	35.9060001373
1090.0	5.4e-05	35.9379999638
1090.0	5.43e-05	35.9850001335
1090.0	5.45e-05	36.0310001373
1090.0	5.5e-05	36.0629999638
1100.0	5.58e-05	36.3440001011
1100.0	5.63e-05	36.3910000324
1100.0	5.68e-05	36.4220001698
1100.0	5.7e-05	36.4690001011
1100.0	5.78e-05	36.5
1100.0	5.83e-05	36.5470001698
1100.0	5.88e-05	36.5940001011
1100.0	5.93e-05	36.625
1100.0	5.93e-05	36.6720001698
1100.0	5.95e-05	36.7190001011
1100.0	6e-05	36.75
1100.0	6e-05	36.7970001698
1100.0	6e-05	36.8280000687
1100.0	6.03e-05	36.875
1100.0	6.03e-05	36.9220001698
1100.0	6e-05	36.9530000687
1100.0	6e-05	37.0
1100.0	6e-05	37.0470001698
1100.0	6e-05	37.0780000687
1100.0	6e-05	37.125
1100.0	6e-05	37.1720001698
1100.0	6.03e-05	37.2030000687
1100.0	6.03e-05	37.25
1100.0	6.05e-05	37.2810001373
1100.0	6.05e-05	37.3280000687
1100.0	6.05e-05	37.375
1100.0	6.05e-05	37.4060001373
1100.0	6.05e-05	37.4530000687
1100.0	6.05e-05	37.5
1100.0	6.05e-05	37.5310001373
1100.0	6.05e-05	37.5780000687
1100.0	6.03e-05	37.6100001335
1100.0	6.03e-05	37.6560001373
1100.0	6e-05	37.7030000687
1100.0	6e-05	37.7350001335
1100.0	6.03e-05	37.7810001373
1100.0	6e-05	37.8280000687
1110.0	6.25e-05	38.0940001011
1110.0	6.38e-05	38.1410000324
1110.0	6.43e-05	38.1720001698
1110.0	6.5e-05	38.2190001011
1110.0	6.55e-05	38.25
1110.0	6.58e-05	38.2970001698
1110.0	6.68e-05	38.3440001011
1110.0	6.7e-05	38.375
1110.0	6.78e-05	38.4220001698
1110.0	6.8e-05	38.4690001011
1110.0	6.83e-05	38.5
1110.0	6.8e-05	38.5470001698
1110.0	6.83e-05	38.5940001011
1110.0	6.83e-05	38.625
1110.0	6.88e-05	38.6720001698
1110.0	6.88e-05	38.7190001011
1110.0	6.88e-05	38.75
1110.0	6.88e-05	38.7970001698
1110.0	6.9e-05	38.8280000687
1110.0	6.9e-05	38.875
1110.0	6.88e-05	38.9220001698
1110.0	6.88e-05	38.9530000687
1110.0	6.88e-05	39.0
1110.0	6.88e-05	39.0470001698
1110.0	6.88e-05	39.0780000687
1110.0	6.83e-05	39.125
1110.0	6.83e-05	39.1720001698
1110.0	6.8e-05	39.2030000687
1110.0	6.78e-05	39.25
1110.0	6.78e-05	39.2810001373
1110.0	6.78e-05	39.3280000687
1110.0	6.78e-05	39.375
1110.0	6.75e-05	39.4060001373
1110.0	6.75e-05	39.4530000687
1110.0	6.75e-05	39.5
1110.0	6.75e-05	39.5310001373
1110.0	6.75e-05	39.5780000687
1120.0	7.08e-05	39.8440001011
1120.0	7.2e-05	39.8910000324
1120.0	7.3e-05	39.9220001698
1120.0	7.4e-05	39.9690001011
1120.0	7.43e-05	40.0
1120.0	7.5e-05	40.0470001698
1120.0	7.55e-05	40.0940001011
1120.0	7.63e-05	40.125
1120.0	7.63e-05	40.1720001698
1120.0	7.65e-05	40.2190001011
1120.0	7.68e-05	40.25
1120.0	7.68e-05	40.2970001698
1120.0	7.68e-05	40.3280000687
1120.0	7.68e-05	40.375
1120.0	7.65e-05	40.4220001698
1120.0	7.68e-05	40.4530000687
1120.0	7.68e-05	40.5
1120.0	7.7e-05	40.5470001698
1120.0	7.7e-05	40.5780000687
1120.0	7.75e-05	40.625
1120.0	7.75e-05	40.6560001373
1120.0	7.75e-05	40.7030000687
1120.0	7.78e-05	40.75
1120.0	7.8e-05	40.7810001373
1120.0	7.8e-05	40.8280000687
1120.0	7.83e-05	40.875
1120.0	7.83e-05	40.9060001373
1120.0	7.83e-05	40.9530000687
1120.0	7.83e-05	41.0
1120.0	7.8e-05	41.0310001373
1120.0	7.8e-05	41.0780000687
1120.0	7.8e-05	41.1100001335
1120.0	7.8e-05	41.1560001373
1120.0	7.8e-05	41.2030000687
1120.0	7.8e-05	41.2350001335
1120.0	7.83e-05	41.2810001373
1120.0	7.83e-05	41.3280000687
1130.0	8.33e-05	41.5940001011
1130.0	8.5e-05	41.625
1130.0	8.65e-05	41.6720001698
1130.0	8.78e-05	41.7190001011
1130.0	8.88e-05	41.75
1130.0	9e-05	41.7970001698
1130.0	9.08e-05	41.8280000687
1130.0	9.15e-05	41.875
1130.0	9.2e-05	41.9220001698
1130.0	9.28e-05	41.9530000687
1130.0	9.3e-05	42.0
1130.0	9.3e-05	42.0470001698
1130.0	9.33e-05	42.0780000687
1130.0	9.3e-05	42.125
1130.0	9.3e-05	42.1560001373
1130.0	9.28e-05	42.2030000687
1130.0	9.3e-05	42.25
1130.0	9.3e-05	42.2810001373
1130.0	9.33e-05	42.3280000687
1130.0	9.33e-05	42.375
1130.0	9.38e-05	42.4060001373
1130.0	9.38e-05	42.4530000687
1130.0	9.33e-05	42.5
1130.0	9.3e-05	42.5310001373
1130.0	9.3e-05	42.5780000687
1130.0	9.33e-05	42.625
1130.0	9.33e-05	42.6560001373
1130.0	9.3e-05	42.7030000687
1130.0	9.3e-05	42.7350001335
1130.0	9.3e-05	42.7810001373
1130.0	9.3e-05	42.8280000687
1130.0	9.33e-05	42.8600001335
1130.0	9.33e-05	42.9060001373
1130.0	9.3e-05	42.9530000687
1130.0	9.3e-05	42.9850001335
1130.0	9.3e-05	43.0310001373
1130.0	9.28e-05	43.0780000687
1140.0	9.88e-05	43.3440001011
1140.0	0.0001008	43.375
1140.0	0.0001033	43.4220001698
1140.0	0.000105	43.4530000687
1140.0	0.0001065	43.5
1140.0	0.0001075	43.5470001698
1140.0	0.0001083	43.5780000687
1140.0	0.0001093	43.625
1140.0	0.00011	43.6720001698
1140.0	0.0001103	43.7030000687
1140.0	0.0001105	43.75
1140.0	0.0001105	43.7970001698
1140.0	0.0001105	43.8280000687
1140.0	0.0001105	43.875
1140.0	0.0001108	43.9060001373
1140.0	0.0001108	43.9530000687
1140.0	0.0001108	44.0
1140.0	0.0001108	44.0310001373
1140.0	0.0001113	44.0780000687
1140.0	0.0001113	44.125
1140.0	0.0001113	44.1560001373
1140.0	0.0001115	44.2030000687
1140.0	0.0001115	44.2350001335
1140.0	0.0001113	44.2810001373
1140.0	0.0001113	44.3280000687
1140.0	0.0001113	44.3600001335
1140.0	0.0001113	44.4060001373
1140.0	0.0001113	44.4530000687
1140.0	0.0001113	44.4850001335
1140.0	0.0001115	44.5310001373
1140.0	0.0001118	44.5629999638
1140.0	0.0001118	44.6100001335
1140.0	0.0001115	44.6560001373
1140.0	0.0001115	44.6879999638
1140.0	0.0001113	44.7350001335
1140.0	0.0001113	44.7810001373
1140.0	0.0001113	44.8129999638
1150.0	0.0001205	45.0940001011
1150.0	0.0001243	45.125
1150.0	0.0001278	45.1720001698
1150.0	0.00013	45.2030000687
1150.0	0.0001318	45.25
1150.0	0.000133	45.2970001698
1150.0	0.0001343	45.3280000687
1150.0	0.000135	45.375
1150.0	0.0001355	45.4220001698
1150.0	0.0001363	45.4530000687
1150.0	0.0001363	45.5
1150.0	0.0001365	45.5310001373
1150.0	0.000137	45.5780000687
1150.0	0.0001375	45.625
1150.0	0.000137	45.6560001373
1150.0	0.0001375	45.7030000687
1150.0	0.0001378	45.75
1150.0	0.000138	45.7810001373
1150.0	0.000138	45.8280000687
1150.0	0.0001383	45.875
1150.0	0.0001383	45.9060001373
1150.0	0.0001378	45.9530000687
1150.0	0.0001375	46.0
1150.0	0.0001375	46.0310001373
1150.0	0.0001375	46.0780000687
1150.0	0.0001378	46.125
1150.0	0.0001378	46.1560001373
1150.0	0.000138	46.2030000687
1150.0	0.0001378	46.2350001335
1150.0	0.0001375	46.2810001373
1150.0	0.0001375	46.3280000687
1150.0	0.0001375	46.3600001335
1150.0	0.0001375	46.4060001373
1150.0	0.0001375	46.4530000687
1150.0	0.0001375	46.4850001335
1150.0	0.0001375	46.5310001373
1150.0	0.0001378	46.5780000687
1160.0	0.0001478	46.8440001011
1160.0	0.0001518	46.875
1160.0	0.0001555	46.9220001698
1160.0	0.0001588	46.9530000687
1160.0	0.0001615	47.0
1160.0	0.0001633	47.0470001698
1160.0	0.0001645	47.0780000687
1160.0	0.0001655	47.125
1160.0	0.0001665	47.1720001698
1160.0	0.0001668	47.2030000687
1160.0	0.000167	47.25
1160.0	0.0001675	47.2810001373
1160.0	0.0001675	47.3280000687
1160.0	0.0001675	47.375
1160.0	0.000167	47.4060001373
1160.0	0.000167	47.4530000687
1160.0	0.000167	47.5
1160.0	0.0001668	47.5310001373
1160.0	0.000167	47.5780000687
1160.0	0.000167	47.625
1160.0	0.0001668	47.6560001373
1160.0	0.000167	47.7030000687
1160.0	0.000167	47.7350001335
1160.0	0.0001675	47.7810001373
1160.0	0.0001675	47.8280000687
1160.0	0.0001678	47.8600001335
1160.0	0.0001678	47.9060001373
1160.0	0.0001678	47.9530000687
1160.0	0.0001678	47.9850001335
1160.0	0.000168	48.0310001373
1160.0	0.000168	48.0629999638
1160.0	0.0001678	48.1100001335
1160.0	0.0001678	48.1560001373
1160.0	0.0001675	48.1879999638
1160.0	0.000167	48.2350001335
1160.0	0.0001668	48.2810001373
1160.0	0.0001668	48.3129999638
1170.0	0.0001805	48.5940001011
1170.0	0.0001855	48.625
1170.0	0.0001895	48.6720001698
1170.0	0.000193	48.7030000687
1170.0	0.0001955	48.75
1170.0	0.0001978	48.7970001698
1170.0	0.0001993	48.8280000687
1170.0	0.0002005	48.875
1170.0	0.0002015	48.9220001698
1170.0	0.000202	48.9530000687
1170.0	0.0002025	49.0
1170.0	0.0002028	49.0310001373
1170.0	0.0002033	49.0780000687
1170.0	0.0002038	49.125
1170.0	0.0002038	49.1560001373
1170.0	0.000204	49.2030000687
1170.0	0.000204	49.25
1170.0	0.000204	49.2810001373
1170.0	0.0002043	49.3280000687
1170.0	0.0002045	49.375
1170.0	0.0002043	49.4060001373
1170.0	0.0002045	49.4530000687
1170.0	0.0002045	49.4850001335
1170.0	0.0002043	49.5310001373
1170.0	0.000204	49.5780000687
1170.0	0.0002038	49.6100001335
1170.0	0.0002038	49.6560001373
1170.0	0.0002038	49.7030000687
1170.0	0.000204	49.7350001335
1170.0	0.0002038	49.7810001373
1170.0	0.0002038	49.8129999638
1170.0	0.000204	49.8600001335
1170.0	0.000204	49.9060001373
1170.0	0.0002043	49.9379999638
1170.0	0.0002043	49.9850001335
1170.0	0.000204	50.0310001373
1170.0	0.0002038	50.0629999638
1180.0	0.0002175	50.3280000687
1180.0	0.0002228	50.375
1180.0	0.0002268	50.4220001698
1180.0	0.0002303	50.4530000687
1180.0	0.0002333	50.5
1180.0	0.0002353	50.5470001698
1180.0	0.0002368	50.5780000687
1180.0	0.0002383	50.625
1180.0	0.0002393	50.6720001698
1180.0	0.00024	50.7030000687
1180.0	0.0002403	50.75
1180.0	0.0002405	50.7810001373
1180.0	0.0002413	50.8280000687
1180.0	0.0002413	50.875
1180.0	0.0002413	50.9060001373
1180.0	0.0002408	50.9530000687
1180.0	0.0002408	51.0
1180.0	0.0002413	51.0310001373
1180.0	0.0002413	51.0780000687
1180.0	0.0002413	51.1100001335
1180.0	0.0002408	51.1560001373
1180.0	0.0002413	51.2030000687
1180.0	0.0002413	51.2350001335
1180.0	0.0002415	51.2810001373
1180.0	0.0002418	51.3280000687
1180.0	0.0002418	51.3600001335
1180.0	0.000242	51.4060001373
1180.0	0.000242	51.4530000687
1180.0	0.000242	51.4850001335
1180.0	0.0002425	51.5310001373
1180.0	0.0002425	51.5629999638
1180.0	0.000242	51.6100001335
1180.0	0.0002425	51.6560001373
1180.0	0.0002425	51.7030000687
1180.0	0.000242	51.7350001335
1180.0	0.0002425	51.7810001373
1180.0	0.0002425	51.8129999638
1190.0	0.0002568	52.0940001011
1190.0	0.000262	52.125
1190.0	0.0002663	52.1720001698
1190.0	0.0002693	52.2190001011
1190.0	0.000272	52.25
1190.0	0.0002743	52.2970001698
1190.0	0.0002763	52.3440001011
1190.0	0.0002775	52.375
1190.0	0.0002783	52.4220001698
1190.0	0.0002793	52.4530000687
1190.0	0.0002795	52.5
1190.0	0.0002805	52.5470001698
1190.0	0.0002813	52.5780000687
1190.0	0.0002813	52.625
1190.0	0.0002813	52.6720001698
1190.0	0.0002815	52.7030000687
1190.0	0.0002815	52.75
1190.0	0.0002815	52.7810001373
1190.0	0.0002815	52.8280000687
1190.0	0.0002818	52.875
1190.0	0.0002815	52.9060001373
1190.0	0.0002813	52.9530000687
1190.0	0.0002813	53.0
1190.0	0.0002813	53.0310001373
1190.0	0.0002813	53.0780000687
1190.0	0.0002815	53.1100001335
1190.0	0.0002815	53.1560001373
1190.0	0.0002815	53.2030000687
1190.0	0.0002815	53.2350001335
1190.0	0.0002815	53.2810001373
1190.0	0.0002815	53.3280000687
1190.0	0.0002818	53.3600001335
1190.0	0.0002818	53.4060001373
1190.0	0.000282	53.4530000687
1190.0	0.0002825	53.4850001335
1190.0	0.000282	53.5310001373
1190.0	0.000282	53.5629999638
1200.0	0.0002953	53.8440001011
1200.0	0.0003008	53.875
1200.0	0.0003055	53.9220001698
1200.0	0.000309	53.9690001011
1200.0	0.0003118	54.0
1200.0	0.000314	54.0470001698
1200.0	0.0003155	54.0780000687
1200.0	0.0003168	54.125
1200.0	0.0003175	54.1720001698
1200.0	0.0003188	54.2030000687
1200.0	0.0003193	54.25
1200.0	0.0003193	54.2970001698
1200.0	0.0003193	54.3280000687
1200.0	0.0003193	54.375
1200.0	0.000319	54.4220001698
1200.0	0.0003188	54.4530000687
1200.0	0.0003188	54.5
1200.0	0.0003193	54.5310001373
1200.0	0.0003193	54.5780000687
1200.0	0.0003195	54.625
1200.0	0.0003195	54.6560001373
1200.0	0.0003195	54.7030000687
1200.0	0.0003193	54.75
1200.0	0.0003195	54.7810001373
1200.0	0.0003195	54.8280000687
1200.0	0.0003195	54.8600001335
1200.0	0.0003193	54.9060001373
1200.0	0.0003193	54.9530000687
1200.0	0.0003193	54.9850001335
1200.0	0.0003193	55.0310001373
1200.0	0.0003193	55.0780000687
1200.0	0.0003193	55.1100001335
1200.0	0.0003193	55.1560001373
1200.0	0.0003195	55.1879999638
1200.0	0.0003195	55.2350001335
1200.0	0.0003193	55.2810001373
1200.0	0.0003193	55.3129999638
1210.0	0.000332	55.5780000687
1210.0	0.000337	55.625
1210.0	0.0003413	55.6720001698
1210.0	0.0003445	55.7030000687
1210.0	0.0003478	55.75
1210.0	0.0003503	55.7970001698
1210.0	0.000352	55.8280000687
1210.0	0.0003533	55.875
1210.0	0.0003543	55.9060001373
1210.0	0.0003545	55.9530000687
1210.0	0.0003545	56.0
1210.0	0.000355	56.0310001373
1210.0	0.000355	56.0780000687
1210.0	0.0003553	56.125
1210.0	0.0003555	56.1560001373
1210.0	0.0003555	56.2030000687
1210.0	0.0003555	56.25
1210.0	0.0003558	56.2810001373
1210.0	0.0003563	56.3280000687
1210.0	0.0003565	56.3600001335
1210.0	0.0003568	56.4060001373
1210.0	0.0003568	56.4530000687
1210.0	0.0003568	56.4850001335
1210.0	0.0003565	56.5310001373
1210.0	0.0003565	56.5780000687
1210.0	0.0003568	56.6100001335
1210.0	0.0003568	56.6560001373
1210.0	0.0003568	56.6879999638
1210.0	0.0003565	56.7350001335
1210.0	0.0003565	56.7810001373
1210.0	0.0003568	56.8129999638
1210.0	0.0003568	56.8600001335
1210.0	0.0003568	56.9060001373
1210.0	0.000357	56.9379999638
1210.0	0.0003568	56.9850001335
1210.0	0.000357	57.0160000324
1210.0	0.000357	57.0629999638
1220.0	0.0003688	57.3280000687
1220.0	0.000373	57.375
1220.0	0.0003765	57.4060001373
1220.0	0.000379	57.4530000687
1220.0	0.0003815	57.5
1220.0	0.0003838	57.5310001373
1220.0	0.0003853	57.5780000687
1220.0	0.0003865	57.625
1220.0	0.0003875	57.6560001373
1220.0	0.000388	57.7030000687
1220.0	0.0003883	57.7350001335
1220.0	0.0003888	57.7810001373
1220.0	0.0003888	57.8280000687
1220.0	0.0003888	57.8600001335
1220.0	0.0003883	57.9060001373
1220.0	0.0003883	57.9530000687
1220.0	0.0003883	57.9850001335
1220.0	0.0003888	58.0310001373
1220.0	0.000389	58.0780000687
1220.0	0.000389	58.1100001335
1220.0	0.0003893	58.1560001373
1220.0	0.0003895	58.1879999638
1220.0	0.00039	58.2350001335
1220.0	0.0003895	58.2810001373
1220.0	0.0003893	58.3129999638
1220.0	0.0003888	58.3600001335
1220.0	0.0003888	58.3910000324
1220.0	0.0003888	58.4379999638
1220.0	0.0003888	58.4850001335
1220.0	0.000389	58.5160000324
1220.0	0.0003893	58.5629999638
1220.0	0.0003895	58.6100001335
1220.0	0.0003895	58.6410000324
1220.0	0.0003895	58.6879999638
1220.0	0.0003893	58.7350001335
1220.0	0.000389	58.7660000324
1220.0	0.0003888	58.8129999638
1230.0	0.000399	59.0780000687
1230.0	0.000403	59.125
1230.0	0.0004063	59.1560001373
1230.0	0.0004088	59.2030000687
1230.0	0.0004108	59.25
1230.0	0.0004128	59.2810001373
1230.0	0.0004143	59.3280000687
1230.0	0.0004153	59.375
1230.0	0.0004158	59.4060001373
1230.0	0.0004163	59.4530000687
1230.0	0.0004163	59.4850001335
1230.0	0.0004158	59.5310001373
1230.0	0.0004155	59.5780000687
1230.0	0.000415	59.6100001335
1230.0	0.000415	59.6560001373
1230.0	0.000415	59.7030000687
1230.0	0.000415	59.7350001335
1230.0	0.0004153	59.7810001373
1230.0	0.0004153	59.8129999638
1230.0	0.0004155	59.8600001335
1230.0	0.0004155	59.9060001373
1230.0	0.0004155	59.9379999638
1230.0	0.0004155	59.9850001335
1230.0	0.0004155	60.0310001373
1230.0	0.0004155	60.0629999638
1230.0	0.0004158	60.1100001335
1230.0	0.0004158	60.1410000324
1230.0	0.0004163	60.1879999638
1230.0	0.0004163	60.2350001335
1230.0	0.0004163	60.2660000324
1230.0	0.0004163	60.3129999638
1230.0	0.0004163	60.3600001335
1230.0	0.0004163	60.3910000324
1230.0	0.0004163	60.4379999638
1230.0	0.0004163	60.4850001335
1230.0	0.0004158	60.5160000324
1230.0	0.0004158	60.5629999638
1240.0	0.0004243	60.8280000687
1240.0	0.000427	60.875
1240.0	0.0004295	60.9060001373
1240.0	0.0004315	60.9530000687
1240.0	0.0004333	60.9850001335
1240.0	0.0004345	61.0310001373
1240.0	0.0004355	61.0780000687
1240.0	0.0004365	61.125
1240.0	0.000437	61.1560001373
1240.0	0.0004378	61.2030000687
1240.0	0.0004383	61.2350001335
1240.0	0.0004388	61.2810001373
1240.0	0.0004388	61.3280000687
1240.0	0.0004388	61.3600001335
1240.0	0.0004388	61.4060001373
1240.0	0.0004388	61.4530000687
1240.0	0.0004388	61.4850001335
1240.0	0.000439	61.5310001373
1240.0	0.000439	61.5629999638
1240.0	0.000439	61.6100001335
1240.0	0.0004393	61.6560001373
1240.0	0.000439	61.6879999638
1240.0	0.000439	61.7350001335
1240.0	0.0004393	61.7810001373
1240.0	0.0004393	61.8129999638
1240.0	0.0004395	61.8600001335
1240.0	0.0004395	61.8910000324
1240.0	0.0004395	61.9379999638
1240.0	0.0004393	61.9850001335
1240.0	0.0004393	62.0160000324
1240.0	0.0004393	62.0629999638
1240.0	0.0004393	62.1100001335
1240.0	0.0004393	62.1410000324
1240.0	0.000439	62.1879999638
1240.0	0.0004393	62.2190001011
1240.0	0.0004393	62.2660000324
1240.0	0.000439	62.3129999638
1250.0	0.000445	62.5780000687
1250.0	0.000447	62.625
1250.0	0.0004488	62.6560001373
1250.0	0.0004503	62.7030000687
1250.0	0.0004515	62.75
1250.0	0.0004525	62.7810001373
1250.0	0.000453	62.8280000687
1250.0	0.0004533	62.875
1250.0	0.0004538	62.9060001373
1250.0	0.0004543	62.9530000687
1250.0	0.0004543	63.0
1250.0	0.0004543	63.0310001373
1250.0	0.000454	63.0780000687
1250.0	0.0004538	63.125
1250.0	0.0004538	63.1560001373
1250.0	0.0004538	63.2030000687
1250.0	0.0004538	63.2350001335
1250.0	0.0004538	63.2810001373
1250.0	0.0004538	63.3280000687
1250.0	0.0004533	63.3600001335
1250.0	0.000453	63.4060001373
1250.0	0.0004533	63.4530000687
1250.0	0.0004538	63.4850001335
1250.0	0.0004538	63.5310001373
1250.0	0.000454	63.5629999638
1250.0	0.0004543	63.6100001335
1250.0	0.0004545	63.6560001373
1250.0	0.0004545	63.6879999638
1250.0	0.0004543	63.7350001335
1250.0	0.0004543	63.7810001373
1250.0	0.0004543	63.8129999638
1250.0	0.000454	63.8600001335
1250.0	0.0004538	63.8910000324
1250.0	0.0004533	63.9379999638
1250.0	0.000453	63.9850001335
1250.0	0.0004533	64.0160000324
1250.0	0.0004533	64.0629999638
1260.0	0.0004575	64.3280000687
1260.0	0.0004595	64.375
1260.0	0.0004608	64.4060001373
1260.0	0.0004618	64.4530000687
1260.0	0.000463	64.5
1260.0	0.000464	64.5310001373
1260.0	0.0004643	64.5780000687
1260.0	0.0004645	64.625
1260.0	0.000465	64.6560001373
1260.0	0.0004653	64.7030000687
1260.0	0.0004658	64.7350001335
1260.0	0.0004655	64.7810001373
1260.0	0.0004655	64.8280000687
1260.0	0.0004655	64.8600001335
1260.0	0.0004655	64.9060001373
1260.0	0.0004655	64.9530000687
1260.0	0.0004655	64.9850001335
1260.0	0.0004658	65.0310001373
1260.0	0.0004655	65.0629999638
1260.0	0.0004655	65.1100001335
1260.0	0.0004655	65.1560001373
1260.0	0.0004655	65.1879999638
1260.0	0.0004655	65.2350001335
1260.0	0.0004658	65.2810001373
1260.0	0.0004658	65.3129999638
1260.0	0.0004663	65.3600001335
1260.0	0.0004663	65.3910000324
1260.0	0.0004665	65.4379999638
1260.0	0.0004668	65.4850001335
1260.0	0.000467	65.5160000324
1260.0	0.000467	65.5629999638
1260.0	0.000467	65.6100001335
1260.0	0.0004675	65.6410000324
1260.0	0.0004675	65.6879999638
1260.0	0.0004675	65.7190001011
1260.0	0.000467	65.7660000324
1260.0	0.0004675	65.8129999638
1270.0	0.0004695	66.0780000687
1270.0	0.0004713	66.1100001335
1270.0	0.0004718	66.1560001373
1270.0	0.0004725	66.2030000687
1270.0	0.0004725	66.2350001335
1270.0	0.0004728	66.2810001373
1270.0	0.000473	66.3280000687
1270.0	0.0004733	66.3600001335
1270.0	0.0004738	66.4060001373
1270.0	0.0004733	66.4379999638
1270.0	0.0004738	66.4850001335
1270.0	0.0004738	66.5310001373
1270.0	0.0004733	66.5629999638
1270.0	0.0004733	66.6100001335
1270.0	0.000473	66.6560001373
1270.0	0.0004728	66.6879999638
1270.0	0.0004728	66.7350001335
1270.0	0.000473	66.7660000324
1270.0	0.0004733	66.8129999638
1270.0	0.0004738	66.8600001335
1270.0	0.0004738	66.9060001373
1270.0	0.0004733	66.9379999638
1270.0	0.0004733	66.9850001335
1270.0	0.000473	67.0160000324
1270.0	0.0004728	67.0629999638
1270.0	0.0004728	67.1100001335
1270.0	0.000473	67.1410000324
1270.0	0.000473	67.1879999638
1270.0	0.000473	67.2350001335
1270.0	0.000473	67.2660000324
1270.0	0.000473	67.3129999638
1270.0	0.0004728	67.3600001335
1270.0	0.000473	67.3910000324
1270.0	0.0004738	67.4379999638
1270.0	0.0004738	67.4690001011
1270.0	0.0004738	67.5160000324
1270.0	0.0004733	67.5629999638
1280.0	0.000474	67.8280000687
1280.0	0.000475	67.8600001335
1280.0	0.0004758	67.9060001373
1280.0	0.0004763	67.9530000687
1280.0	0.0004765	67.9850001335
1280.0	0.0004768	68.0310001373
1280.0	0.0004768	68.0780000687
1280.0	0.0004768	68.1100001335
1280.0	0.000477	68.1560001373
1280.0	0.0004778	68.1879999638
1280.0	0.0004783	68.2350001335
1280.0	0.0004788	68.2810001373
1280.0	0.0004793	68.3129999638
1280.0	0.0004793	68.3600001335
1280.0	0.0004788	68.4060001373
1280.0	0.0004788	68.4379999638
1280.0	0.0004788	68.4850001335
1280.0	0.0004788	68.5160000324
1280.0	0.0004783	68.5629999638
1280.0	0.0004783	68.6100001335
1280.0	0.0004788	68.6410000324
1280.0	0.0004783	68.6879999638
1280.0	0.0004788	68.7350001335
1280.0	0.0004788	68.7660000324
1280.0	0.0004788	68.8129999638
1280.0	0.0004783	68.8440001011
1280.0	0.0004783	68.8910000324
1280.0	0.0004788	68.9379999638
1280.0	0.000479	68.9690001011
1280.0	0.0004793	69.0160000324
1280.0	0.0004793	69.0629999638
1280.0	0.0004793	69.0940001011
1280.0	0.0004793	69.1410000324
1280.0	0.0004793	69.1879999638
1280.0	0.0004793	69.2190001011
1280.0	0.000479	69.2660000324
1280.0	0.0004788	69.2970001698
1290.0	0.0004808	69.5780000687
1290.0	0.0004808	69.6100001335
1290.0	0.0004813	69.6560001373
1290.0	0.0004818	69.6879999638
1290.0	0.0004818	69.7350001335
1290.0	0.0004818	69.7810001373
1290.0	0.0004818	69.8129999638
1290.0	0.0004818	69.8600001335
1290.0	0.0004818	69.8910000324
1290.0	0.0004818	69.9379999638
1290.0	0.0004818	69.9850001335
1290.0	0.0004818	70.0160000324
1290.0	0.000482	70.0629999638
1290.0	0.0004825	70.1100001335
1290.0	0.0004828	70.1410000324
1290.0	0.0004825	70.1879999638
1290.0	0.0004828	70.2350001335
1290.0	0.0004828	70.2660000324
1290.0	0.0004828	70.3129999638
1290.0	0.0004828	70.3440001011
1290.0	0.0004825	70.3910000324
1290.0	0.0004825	70.4379999638
1290.0	0.0004825	70.4690001011
1290.0	0.0004828	70.5160000324
1290.0	0.0004828	70.5629999638
1290.0	0.000483	70.5940001011
1290.0	0.0004828	70.6410000324
1290.0	0.0004828	70.6720001698
1290.0	0.0004828	70.7190001011
1290.0	0.0004828	70.7660000324
1290.0	0.0004828	70.7970001698
1290.0	0.0004828	70.8440001011
1290.0	0.0004825	70.8910000324
1290.0	0.0004825	70.9220001698
1290.0	0.000482	70.9690001011
1290.0	0.0004818	71.0
1290.0	0.000482	71.0470001698
1300.0	0.0004815	71.3129999638
1300.0	0.0004813	71.3600001335
1300.0	0.0004805	71.3910000324
1300.0	0.0004805	71.4379999638
1300.0	0.0004805	71.4850001335
1300.0	0.0004805	71.5160000324
1300.0	0.0004808	71.5629999638
1300.0	0.0004813	71.6100001335
1300.0	0.0004813	71.6410000324
1300.0	0.0004813	71.6879999638
1300.0	0.0004813	71.7190001011
1300.0	0.0004808	71.7660000324
1300.0	0.0004808	71.8129999638
1300.0	0.0004808	71.8440001011
1300.0	0.0004808	71.8910000324
1300.0	0.0004813	71.9379999638
1300.0	0.0004813	71.9690001011
1300.0	0.0004813	72.0160000324
1300.0	0.0004808	72.0629999638
1300.0	0.0004808	72.0940001011
1300.0	0.0004803	72.1410000324
1300.0	0.00048	72.1720001698
1300.0	0.0004793	72.2190001011
1300.0	0.0004795	72.2660000324
1300.0	0.00048	72.2970001698
1300.0	0.0004803	72.3440001011
1300.0	0.0004805	72.3910000324
1300.0	0.0004803	72.4220001698
1300.0	0.0004805	72.4690001011
1300.0	0.00048	72.5
1300.0	0.0004795	72.5470001698
1300.0	0.0004795	72.5940001011
1300.0	0.0004795	72.625
1300.0	0.0004793	72.6720001698
1300.0	0.0004793	72.7190001011
1300.0	0.0004793	72.75
1300.0	0.0004793	72.7970001698
1310.0	0.0004783	73.0629999638
1310.0	0.0004778	73.1100001335
1310.0	0.0004775	73.1410000324
1310.0	0.0004768	73.1879999638
1310.0	0.0004768	73.2350001335
1310.0	0.000477	73.2660000324
1310.0	0.0004775	73.3129999638
1310.0	0.0004775	73.3600001335
1310.0	0.0004778	73.3910000324
1310.0	0.0004778	73.4379999638
1310.0	0.0004778	73.4690001011
1310.0	0.000478	73.5160000324
1310.0	0.000478	73.5629999638
1310.0	0.000478	73.5940001011
1310.0	0.000478	73.6410000324
1310.0	0.000478	73.6879999638
1310.0	0.0004778	73.7190001011
1310.0	0.000478	73.7660000324
1310.0	0.000478	73.7970001698
1310.0	0.000478	73.8440001011
1310.0	0.000478	73.8910000324
1310.0	0.0004783	73.9220001698
1310.0	0.000478	73.9690001011
1310.0	0.0004778	74.0160000324
1310.0	0.000478	74.0470001698
1310.0	0.000478	74.0940001011
1310.0	0.0004783	74.1410000324
1310.0	0.0004783	74.1720001698
1310.0	0.0004788	74.2190001011
1310.0	0.0004783	74.25
1310.0	0.000478	74.2970001698
1310.0	0.000478	74.3440001011
1310.0	0.000478	74.375
1310.0	0.0004788	74.4220001698
1310.0	0.0004788	74.4690001011
1310.0	0.0004788	74.5
1310.0	0.0004788	74.5470001698
1320.0	0.0004758	74.8129999638
1320.0	0.0004753	74.8600001335
1320.0	0.000474	74.8910000324
1320.0	0.0004738	74.9379999638
1320.0	0.000473	74.9690001011
1320.0	0.0004725	75.0160000324
1320.0	0.0004715	75.0629999638
1320.0	0.0004708	75.0940001011
1320.0	0.0004705	75.1410000324
1320.0	0.0004703	75.1879999638
1320.0	0.00047	75.2190001011
1320.0	0.0004695	75.2660000324
1320.0	0.00047	75.3129999638
1320.0	0.00047	75.3440001011
1320.0	0.00047	75.3910000324
1320.0	0.00047	75.4379999638
1320.0	0.0004695	75.4690001011
1320.0	0.0004695	75.5160000324
1320.0	0.0004695	75.5470001698
1320.0	0.00047	75.5940001011
1320.0	0.0004705	75.6410000324
1320.0	0.0004703	75.6720001698
1320.0	0.0004703	75.7190001011
1320.0	0.0004705	75.7660000324
1320.0	0.0004705	75.7970001698
1320.0	0.0004705	75.8440001011
1320.0	0.0004703	75.8910000324
1320.0	0.0004703	75.9220001698
1320.0	0.0004703	75.9690001011
1320.0	0.00047	76.0
1320.0	0.0004705	76.0470001698
1320.0	0.0004705	76.0940001011
1320.0	0.0004705	76.125
1320.0	0.0004705	76.1720001698
1320.0	0.0004705	76.2190001011
1320.0	0.00047	76.25
1320.0	0.0004695	76.2970001698
1330.0	0.0004658	76.5629999638
1330.0	0.000464	76.6100001335
1330.0	0.0004625	76.6410000324
1330.0	0.0004613	76.6879999638
1330.0	0.00046	76.7190001011
1330.0	0.0004593	76.7660000324
1330.0	0.0004588	76.8129999638
1330.0	0.0004583	76.8440001011
1330.0	0.0004575	76.8910000324
1330.0	0.000457	76.9379999638
1330.0	0.0004568	76.9690001011
1330.0	0.0004568	77.0160000324
1330.0	0.0004568	77.0470001698
1330.0	0.0004568	77.0940001011
1330.0	0.0004568	77.1410000324
1330.0	0.0004565	77.1720001698
1330.0	0.0004565	77.2190001011
1330.0	0.0004565	77.2660000324
1330.0	0.0004565	77.2970001698
1330.0	0.0004568	77.3440001011
1330.0	0.0004568	77.375
1330.0	0.000457	77.4220001698
1330.0	0.0004575	77.4690001011
1330.0	0.0004578	77.5
1330.0	0.0004578	77.5470001698
1330.0	0.0004578	77.5940001011
1330.0	0.0004578	77.6410000324
1330.0	0.000458	77.6720001698
1330.0	0.000458	77.7190001011
1330.0	0.000458	77.7660000324
1330.0	0.000458	77.7970001698
1330.0	0.000458	77.8440001011
1330.0	0.0004583	77.8910000324
1330.0	0.0004583	77.9220001698
1330.0	0.0004583	77.9690001011
1330.0	0.0004583	78.0
1330.0	0.0004583	78.0470001698
1340.0	0.000453	78.3129999638
1340.0	0.0004513	78.3600001335
1340.0	0.0004493	78.4060001373
1340.0	0.0004478	78.4530000687
1340.0	0.0004465	78.4850001335
1340.0	0.0004455	78.5310001373
1340.0	0.0004445	78.5629999638
1340.0	0.0004443	78.6100001335
1340.0	0.0004438	78.6560001373
1340.0	0.0004433	78.6879999638
1340.0	0.0004428	78.7350001335
1340.0	0.0004425	78.7810001373
1340.0	0.0004425	78.8129999638
1340.0	0.0004425	78.8600001335
1340.0	0.0004425	78.8910000324
1340.0	0.000442	78.9379999638
1340.0	0.000442	78.9850001335
1340.0	0.000442	79.0160000324
1340.0	0.000442	79.0629999638
1340.0	0.000442	79.1100001335
1340.0	0.000442	79.1410000324
1340.0	0.0004425	79.1879999638
1340.0	0.0004428	79.2190001011
1340.0	0.0004428	79.2660000324
1340.0	0.0004428	79.3129999638
1340.0	0.0004425	79.3440001011
1340.0	0.000442	79.3910000324
1340.0	0.0004418	79.4379999638
1340.0	0.0004415	79.4690001011
1340.0	0.0004413	79.5160000324
1340.0	0.0004415	79.5629999638
1340.0	0.0004418	79.5940001011
1340.0	0.0004418	79.6410000324
1340.0	0.0004418	79.6720001698
1340.0	0.0004418	79.7190001011
1340.0	0.0004418	79.7660000324
1340.0	0.0004418	79.7970001698
1350.0	0.0004338	80.0629999638
1350.0	0.0004313	80.1100001335
1350.0	0.0004288	80.1560001373
1350.0	0.0004268	80.1879999638
1350.0	0.0004253	80.2350001335
1350.0	0.0004243	80.2810001373
1350.0	0.0004238	80.3129999638
1350.0	0.000423	80.3600001335
1350.0	0.0004225	80.3910000324
1350.0	0.0004225	80.4379999638
1350.0	0.0004218	80.4850001335
1350.0	0.0004218	80.5160000324
1350.0	0.0004215	80.5629999638
1350.0	0.0004215	80.6100001335
1350.0	0.0004215	80.6410000324
1350.0	0.0004213	80.6879999638
1350.0	0.0004215	80.7190001011
1350.0	0.0004215	80.7660000324
1350.0	0.0004213	80.8129999638
1350.0	0.0004213	80.8440001011
1350.0	0.0004213	80.8910000324
1350.0	0.0004218	80.9379999638
1350.0	0.0004218	80.9690001011
1350.0	0.0004218	81.0160000324
1350.0	0.0004218	81.0470001698
1350.0	0.0004218	81.0940001011
1350.0	0.0004218	81.1410000324
1350.0	0.0004218	81.1720001698
1350.0	0.000422	81.2190001011
1350.0	0.0004218	81.2660000324
1350.0	0.0004218	81.2970001698
1350.0	0.000422	81.3440001011
1350.0	0.000422	81.375
1350.0	0.000422	81.4220001698
1350.0	0.0004218	81.4690001011
1350.0	0.000422	81.5
1350.0	0.0004225	81.5470001698
1360.0	0.0004155	81.8129999638
1360.0	0.0004133	81.8600001335
1360.0	0.0004105	81.9060001373
1360.0	0.000409	81.9379999638
1360.0	0.0004075	81.9850001335
1360.0	0.0004068	82.0160000324
1360.0	0.0004058	82.0629999638
1360.0	0.0004053	82.1100001335
1360.0	0.0004053	82.1410000324
1360.0	0.000405	82.1879999638
1360.0	0.0004045	82.2350001335
1360.0	0.0004045	82.2660000324
1360.0	0.0004043	82.3129999638
1360.0	0.0004043	82.3600001335
1360.0	0.0004043	82.3910000324
1360.0	0.0004043	82.4379999638
1360.0	0.0004043	82.4690001011
1360.0	0.0004043	82.5160000324
1360.0	0.0004043	82.5629999638
1360.0	0.0004043	82.5940001011
1360.0	0.000404	82.6410000324
1360.0	0.0004038	82.6879999638
1360.0	0.0004038	82.7190001011
1360.0	0.0004033	82.7660000324
1360.0	0.0004033	82.7970001698
1360.0	0.0004033	82.8440001011
1360.0	0.0004033	82.8910000324
1360.0	0.0004025	82.9220001698
1360.0	0.000402	82.9690001011
1360.0	0.000402	83.0160000324
1360.0	0.0004025	83.0470001698
1360.0	0.000403	83.0940001011
1360.0	0.000403	83.125
1360.0	0.0004033	83.1720001698
1360.0	0.0004033	83.2190001011
1360.0	0.000403	83.25
1360.0	0.0004028	83.2970001698
1370.0	0.0003955	83.5629999638
1370.0	0.0003925	83.6100001335
1370.0	0.0003903	83.6410000324
1370.0	0.000388	83.6879999638
1370.0	0.0003865	83.7350001335
1370.0	0.0003855	83.7660000324
1370.0	0.0003845	83.8129999638
1370.0	0.0003843	83.8440001011
1370.0	0.000384	83.8910000324
1370.0	0.000384	83.9379999638
1370.0	0.0003838	83.9690001011
1370.0	0.0003838	84.0160000324
1370.0	0.0003838	84.0629999638
1370.0	0.0003838	84.0940001011
1370.0	0.0003838	84.1410000324
1370.0	0.0003838	84.1720001698
1370.0	0.0003833	84.2190001011
1370.0	0.0003833	84.2660000324
1370.0	0.0003833	84.2970001698
1370.0	0.000383	84.3440001011
1370.0	0.000383	84.3910000324
1370.0	0.0003828	84.4220001698
1370.0	0.0003825	84.4690001011
1370.0	0.0003825	84.5160000324
1370.0	0.0003828	84.5470001698
1370.0	0.0003825	84.5940001011
1370.0	0.000382	84.625
1370.0	0.000382	84.6720001698
1370.0	0.000382	84.7190001011
1370.0	0.000382	84.75
1370.0	0.0003825	84.7970001698
1370.0	0.000383	84.8440001011
1370.0	0.0003833	84.875
1370.0	0.000383	84.9220001698
1370.0	0.0003833	84.9530000687
1370.0	0.0003833	85.0
1370.0	0.0003833	85.0470001698
1380.0	0.0003768	85.3129999638
1380.0	0.0003745	85.3440001011
1380.0	0.0003728	85.3910000324
1380.0	0.0003708	85.4379999638
1380.0	0.0003695	85.4690001011
1380.0	0.0003688	85.5160000324
1380.0	0.0003678	85.5629999638
1380.0	0.0003668	85.5940001011
1380.0	0.0003663	85.6410000324
1380.0	0.0003658	85.6879999638
1380.0	0.0003655	85.7190001011
1380.0	0.0003658	85.7660000324
1380.0	0.0003663	85.8129999638
1380.0	0.0003665	85.8440001011
1380.0	0.0003668	85.8910000324
1380.0	0.0003668	85.9220001698
1380.0	0.0003668	85.9690001011
1380.0	0.0003668	86.0160000324
1380.0	0.0003668	86.0470001698
1380.0	0.0003665	86.0940001011
1380.0	0.0003665	86.1410000324
1380.0	0.0003668	86.1720001698
1380.0	0.000367	86.2190001011
1380.0	0.000367	86.2660000324
1380.0	0.000367	86.2970001698
1380.0	0.000367	86.3440001011
1380.0	0.0003675	86.375
1380.0	0.0003675	86.4220001698
1380.0	0.000367	86.4690001011
1380.0	0.0003668	86.5
1380.0	0.0003668	86.5470001698
1380.0	0.0003668	86.5940001011
1380.0	0.0003668	86.625
1380.0	0.000367	86.6720001698
1380.0	0.0003675	86.7030000687
1380.0	0.0003675	86.75
1380.0	0.0003675	86.7970001698
1390.0	0.0003608	87.0629999638
1390.0	0.0003588	87.0940001011
1390.0	0.0003568	87.1410000324
1390.0	0.000355	87.1879999638
1390.0	0.0003533	87.2190001011
1390.0	0.0003525	87.2660000324
1390.0	0.0003518	87.3129999638
1390.0	0.0003513	87.3440001011
1390.0	0.0003508	87.3910000324
1390.0	0.0003505	87.4220001698
1390.0	0.0003503	87.4690001011
1390.0	0.00035	87.5160000324
1390.0	0.0003495	87.5470001698
1390.0	0.0003495	87.5940001011
1390.0	0.0003495	87.6410000324
1390.0	0.0003495	87.6720001698
1390.0	0.0003495	87.7190001011
1390.0	0.0003495	87.75
1390.0	0.0003493	87.7970001698
1390.0	0.0003493	87.8440001011
1390.0	0.0003493	87.875
1390.0	0.0003493	87.9220001698
1390.0	0.000349	87.9690001011
1390.0	0.0003493	88.0
1390.0	0.0003495	88.0470001698
1390.0	0.0003495	88.0780000687
1390.0	0.000349	88.125
1390.0	0.000349	88.1720001698
1390.0	0.0003493	88.2030000687
1390.0	0.0003493	88.25
1390.0	0.0003495	88.2970001698
1390.0	0.00035	88.3280000687
1390.0	0.0003495	88.375
1390.0	0.0003493	88.4220001698
1390.0	0.0003495	88.4530000687
1390.0	0.00035	88.5
1390.0	0.0003505	88.5310001373
1400.0	0.0003458	88.7970001698
1400.0	0.0003443	88.8440001011
1400.0	0.000343	88.8910000324
1400.0	0.0003418	88.9220001698
1400.0	0.0003408	88.9690001011
1400.0	0.00034	89.0160000324
1400.0	0.0003393	89.0470001698
1400.0	0.0003395	89.0940001011
1400.0	0.0003393	89.1410000324
1400.0	0.000339	89.1720001698
1400.0	0.0003388	89.2190001011
1400.0	0.0003388	89.25
1400.0	0.0003388	89.2970001698
1400.0	0.000339	89.3440001011
1400.0	0.0003393	89.375
1400.0	0.0003393	89.4220001698
1400.0	0.0003393	89.4690001011
1400.0	0.00034	89.5
1400.0	0.0003403	89.5470001698
1400.0	0.0003403	89.5780000687
1400.0	0.0003403	89.625
1400.0	0.0003403	89.6720001698
1400.0	0.0003405	89.7030000687
1400.0	0.0003403	89.75
1400.0	0.0003403	89.7970001698
1400.0	0.00034	89.8280000687
1400.0	0.0003395	89.875
1400.0	0.0003395	89.9060001373
1400.0	0.00034	89.9530000687
1400.0	0.00034	90.0
1400.0	0.00034	90.0310001373
1400.0	0.00034	90.0780000687
1400.0	0.00034	90.125
1400.0	0.0003395	90.1560001373
1400.0	0.0003395	90.2030000687
1400.0	0.0003393	90.2350001335
1400.0	0.0003393	90.2810001373
1410.0	0.0003363	90.5470001698
1410.0	0.0003345	90.5940001011
1410.0	0.0003333	90.6410000324
1410.0	0.0003325	90.6720001698
1410.0	0.000332	90.7190001011
1410.0	0.0003315	90.7660000324
1410.0	0.0003308	90.7970001698
1410.0	0.0003308	90.8440001011
1410.0	0.0003308	90.875
1410.0	0.0003313	90.9220001698
1410.0	0.0003313	90.9690001011
1410.0	0.0003315	91.0
1410.0	0.0003315	91.0470001698
1410.0	0.0003313	91.0940001011
1410.0	0.0003308	91.125
1410.0	0.0003305	91.1720001698
1410.0	0.0003303	91.2190001011
1410.0	0.00033	91.25
1410.0	0.00033	91.2970001698
1410.0	0.0003295	91.3280000687
1410.0	0.0003295	91.375
1410.0	0.0003293	91.4220001698
1410.0	0.000329	91.4530000687
1410.0	0.000329	91.5
1410.0	0.0003293	91.5470001698
1410.0	0.0003295	91.5780000687
1410.0	0.0003303	91.625
1410.0	0.0003303	91.6720001698
1410.0	0.0003303	91.7030000687
1410.0	0.0003303	91.75
1410.0	0.0003295	91.7970001698
1410.0	0.0003293	91.8280000687
1410.0	0.000329	91.875
1410.0	0.000329	91.9060001373
1410.0	0.0003288	91.9530000687
1410.0	0.000329	92.0
1420.0	0.0003268	92.2660000324
1420.0	0.0003268	92.2970001698
1420.0	0.0003265	92.3440001011
1420.0	0.0003265	92.3910000324
1420.0	0.0003265	92.4220001698
1420.0	0.0003265	92.4690001011
1420.0	0.0003268	92.5160000324
1420.0	0.0003265	92.5470001698
1420.0	0.0003263	92.5940001011
1420.0	0.0003263	92.625
1420.0	0.0003258	92.6720001698
1420.0	0.0003258	92.7190001011
1420.0	0.0003258	92.75
1420.0	0.0003258	92.7970001698
1420.0	0.0003258	92.8440001011
1420.0	0.0003258	92.875
1420.0	0.0003263	92.9220001698
1420.0	0.0003263	92.9530000687
1420.0	0.0003265	93.0
1420.0	0.0003268	93.0470001698
1420.0	0.0003268	93.0780000687
1420.0	0.0003268	93.125
1420.0	0.000327	93.1720001698
1420.0	0.000327	93.2030000687
1420.0	0.0003268	93.25
1420.0	0.0003268	93.2970001698
1420.0	0.0003268	93.3280000687
1420.0	0.0003265	93.375
1420.0	0.0003265	93.4060001373
1420.0	0.0003263	93.4530000687
1420.0	0.0003258	93.5
1420.0	0.0003258	93.5310001373
1420.0	0.0003258	93.5780000687
1420.0	0.0003263	93.625
1420.0	0.0003268	93.6560001373
1420.0	0.000327	93.7030000687
1420.0	0.000327	93.7350001335
1430.0	0.0003278	94.0160000324
1430.0	0.000328	94.0470001698
1430.0	0.000328	94.0940001011
1430.0	0.0003278	94.125
1430.0	0.0003278	94.1720001698
1430.0	0.0003278	94.2190001011
1430.0	0.0003278	94.25
1430.0	0.0003278	94.2970001698
1430.0	0.000328	94.3440001011
1430.0	0.000328	94.375
1430.0	0.0003278	94.4220001698
1430.0	0.0003275	94.4530000687
1430.0	0.0003275	94.5
1430.0	0.0003275	94.5470001698
1430.0	0.000327	94.5780000687
1430.0	0.000327	94.625
1430.0	0.0003268	94.6720001698
1430.0	0.0003268	94.7030000687
1430.0	0.0003268	94.75
1430.0	0.0003268	94.7810001373
1430.0	0.0003268	94.8280000687
1430.0	0.0003268	94.875
1430.0	0.0003268	94.9060001373
1430.0	0.0003268	94.9530000687
1430.0	0.0003268	95.0
1430.0	0.0003268	95.0310001373
1430.0	0.000327	95.0780000687
1430.0	0.0003275	95.125
1430.0	0.0003278	95.1560001373
1430.0	0.0003278	95.2030000687
1430.0	0.0003275	95.25
1430.0	0.0003268	95.2810001373
1430.0	0.0003268	95.3280000687
1430.0	0.0003268	95.375
1430.0	0.0003268	95.4060001373
1430.0	0.0003268	95.4530000687
1430.0	0.0003268	95.4850001335
1440.0	0.000327	95.75
1440.0	0.0003278	95.7970001698
1440.0	0.000328	95.8440001011
1440.0	0.0003288	95.875
1440.0	0.000329	95.9220001698
1440.0	0.0003295	95.9690001011
1440.0	0.0003305	96.0
1440.0	0.0003305	96.0470001698
1440.0	0.0003305	96.0940001011
1440.0	0.0003305	96.125
1440.0	0.0003305	96.1720001698
1440.0	0.0003313	96.2030000687
1440.0	0.0003313	96.25
1440.0	0.0003313	96.2970001698
1440.0	0.0003313	96.3280000687
1440.0	0.0003313	96.375
1440.0	0.0003313	96.4220001698
1440.0	0.0003313	96.4530000687
1440.0	0.0003313	96.5
1440.0	0.0003313	96.5310001373
1440.0	0.0003313	96.5780000687
1440.0	0.0003313	96.625
1440.0	0.0003308	96.6560001373
1440.0	0.0003308	96.7030000687
1440.0	0.0003308	96.75
1440.0	0.0003313	96.7810001373
1440.0	0.0003315	96.8280000687
1440.0	0.0003315	96.8600001335
1440.0	0.0003313	96.9060001373
1440.0	0.0003315	96.9530000687
1440.0	0.0003315	96.9850001335
1440.0	0.0003315	97.0310001373
1440.0	0.0003313	97.0780000687
1440.0	0.0003313	97.1100001335
1440.0	0.0003315	97.1560001373
1440.0	0.0003318	97.2030000687
1440.0	0.000332	97.2350001335
1450.0	0.000335	97.5
1450.0	0.0003363	97.5470001698
1450.0	0.0003375	97.5940001011
1450.0	0.0003378	97.625
1450.0	0.0003383	97.6720001698
1450.0	0.000339	97.7190001011
1450.0	0.0003393	97.75
1450.0	0.0003395	97.7970001698
1450.0	0.00034	97.8440001011
1450.0	0.0003393	97.875
1450.0	0.00034	97.9220001698
1450.0	0.00034	97.9530000687
1450.0	0.0003403	98.0
1450.0	0.0003405	98.0470001698
1450.0	0.0003408	98.0780000687
1450.0	0.0003408	98.125
1450.0	0.0003408	98.1720001698
1450.0	0.0003408	98.2030000687
1450.0	0.0003405	98.25
1450.0	0.0003403	98.2810001373
1450.0	0.00034	98.3280000687
1450.0	0.0003403	98.375
1450.0	0.0003395	98.4060001373
1450.0	0.0003395	98.4530000687
1450.0	0.00034	98.5
1450.0	0.0003403	98.5310001373
1450.0	0.0003405	98.5780000687
1450.0	0.0003405	98.6100001335
1450.0	0.0003408	98.6560001373
1450.0	0.0003408	98.7030000687
1450.0	0.0003405	98.7350001335
1450.0	0.0003405	98.7810001373
1450.0	0.0003405	98.8280000687
1450.0	0.0003403	98.8600001335
1450.0	0.00034	98.9060001373
1450.0	0.0003403	98.9530000687
1460.0	0.0003428	99.2190001011
1460.0	0.000344	99.25
1460.0	0.0003445	99.2970001698
1460.0	0.0003455	99.3280000687
1460.0	0.0003463	99.375
1460.0	0.000347	99.4220001698
1460.0	0.0003478	99.4530000687
1460.0	0.000348	99.5
1460.0	0.0003483	99.5470001698
1460.0	0.0003488	99.5780000687
1460.0	0.0003488	99.625
1460.0	0.0003483	99.6720001698
1460.0	0.0003488	99.7030000687
1460.0	0.0003488	99.75
1460.0	0.0003488	99.7810001373
1460.0	0.000349	99.8280000687
1460.0	0.0003488	99.875
1460.0	0.0003488	99.9060001373
1460.0	0.000349	99.9530000687
1460.0	0.0003493	100.0
1460.0	0.000349	100.031000137
1460.0	0.000349	100.078000069
1460.0	0.0003493	100.110000134
1460.0	0.0003493	100.156000137
1460.0	0.0003495	100.203000069
1460.0	0.0003495	100.25
1460.0	0.0003495	100.281000137
1460.0	0.0003495	100.328000069
1460.0	0.00035	100.360000134
1460.0	0.0003495	100.406000137
1460.0	0.0003495	100.453000069
1460.0	0.0003493	100.485000134
1460.0	0.0003493	100.531000137
1460.0	0.000349	100.578000069
1460.0	0.0003493	100.610000134
1460.0	0.0003493	100.656000137
1460.0	0.0003493	100.687999964
1470.0	0.0003528	100.969000101
1470.0	0.0003538	101.0
1470.0	0.0003545	101.04700017
1470.0	0.0003558	101.078000069
1470.0	0.0003565	101.125
1470.0	0.0003565	101.17200017
1470.0	0.0003568	101.203000069
1470.0	0.000357	101.25
1470.0	0.0003575	101.29700017
1470.0	0.0003578	101.328000069
1470.0	0.000358	101.375
1470.0	0.000358	101.406000137
1470.0	0.000358	101.453000069
1470.0	0.000358	101.5
1470.0	0.000358	101.531000137
1470.0	0.0003583	101.578000069
1470.0	0.0003583	101.625
1470.0	0.0003583	101.656000137
1470.0	0.0003588	101.703000069
1470.0	0.0003593	101.75
1470.0	0.0003593	101.781000137
1470.0	0.0003593	101.828000069
1470.0	0.0003593	101.860000134
1470.0	0.000359	101.906000137
1470.0	0.000359	101.953000069
1470.0	0.0003588	101.985000134
1470.0	0.000359	102.031000137
1470.0	0.000359	102.078000069
1470.0	0.000359	102.110000134
1470.0	0.000359	102.156000137
1470.0	0.000359	102.187999964
1470.0	0.000359	102.235000134
1470.0	0.0003593	102.281000137
1470.0	0.000359	102.312999964
1470.0	0.000359	102.360000134
1470.0	0.000359	102.406000137
1470.0	0.000359	102.437999964
1480.0	0.0003613	102.719000101
1480.0	0.000362	102.75
1480.0	0.0003628	102.79700017
1480.0	0.0003638	102.844000101
1480.0	0.0003643	102.875
1480.0	0.0003645	102.92200017
1480.0	0.000365	102.969000101
1480.0	0.000365	103.0
1480.0	0.000365	103.04700017
1480.0	0.000365	103.078000069
1480.0	0.0003645	103.125
1480.0	0.000365	103.17200017
1480.0	0.000365	103.203000069
1480.0	0.0003645	103.25
1480.0	0.0003645	103.29700017
1480.0	0.000365	103.328000069
1480.0	0.000365	103.375
1480.0	0.000365	103.406000137
1480.0	0.0003653	103.453000069
1480.0	0.000365	103.5
1480.0	0.000365	103.531000137
1480.0	0.0003645	103.578000069
1480.0	0.0003645	103.625
1480.0	0.0003645	103.656000137
1480.0	0.0003645	103.703000069
1480.0	0.0003643	103.75
1480.0	0.000364	103.781000137
1480.0	0.0003643	103.828000069
1480.0	0.000364	103.860000134
1480.0	0.000364	103.906000137
1480.0	0.0003638	103.953000069
1480.0	0.0003638	103.985000134
1480.0	0.0003643	104.031000137
1480.0	0.0003645	104.078000069
1480.0	0.000365	104.110000134
1480.0	0.0003645	104.156000137
1480.0	0.0003643	104.187999964
1490.0	0.0003663	104.469000101
1490.0	0.0003668	104.5
1490.0	0.0003675	104.54700017
1490.0	0.0003678	104.594000101
1490.0	0.0003678	104.625
1490.0	0.0003675	104.67200017
1490.0	0.0003668	104.719000101
1490.0	0.0003668	104.75
1490.0	0.000367	104.79700017
1490.0	0.000367	104.828000069
1490.0	0.000367	104.875
1490.0	0.0003668	104.92200017
1490.0	0.0003668	104.953000069
1490.0	0.0003668	105.0
1490.0	0.000367	105.04700017
1490.0	0.0003675	105.078000069
1490.0	0.0003675	105.125
1490.0	0.0003678	105.156000137
1490.0	0.0003678	105.203000069
1490.0	0.000368	105.25
1490.0	0.000368	105.281000137
1490.0	0.000368	105.328000069
1490.0	0.000368	105.375
1490.0	0.0003678	105.406000137
1490.0	0.000368	105.453000069
1490.0	0.000368	105.5
1490.0	0.000368	105.531000137
1490.0	0.000368	105.578000069
1490.0	0.000368	105.610000134
1490.0	0.0003678	105.656000137
1490.0	0.0003678	105.703000069
1490.0	0.0003675	105.735000134
1490.0	0.0003675	105.781000137
1490.0	0.0003678	105.828000069
1490.0	0.000368	105.860000134
1490.0	0.0003683	105.906000137
1490.0	0.000369	105.937999964
1500.0	0.00037	106.219000101
1500.0	0.0003703	106.25
1500.0	0.0003703	106.29700017
1500.0	0.00037	106.344000101
1500.0	0.00037	106.375
1500.0	0.00037	106.42200017
1500.0	0.00037	106.469000101
1500.0	0.00037	106.5
1500.0	0.0003703	106.54700017
1500.0	0.0003703	106.578000069
1500.0	0.0003703	106.625
1500.0	0.0003703	106.67200017
1500.0	0.0003708	106.703000069
1500.0	0.0003713	106.75
1500.0	0.0003713	106.79700017
1500.0	0.0003713	106.828000069
1500.0	0.0003713	106.875
1500.0	0.0003715	106.906000137
1500.0	0.0003715	106.953000069
1500.0	0.0003715	107.0
1500.0	0.0003715	107.031000137
1500.0	0.0003713	107.078000069
1500.0	0.0003718	107.125
1500.0	0.000372	107.156000137
1500.0	0.0003718	107.203000069
1500.0	0.0003715	107.235000134
1500.0	0.0003718	107.281000137
1500.0	0.0003718	107.328000069
1500.0	0.0003718	107.360000134
1500.0	0.0003718	107.406000137
1500.0	0.0003718	107.453000069
1500.0	0.0003715	107.485000134
1500.0	0.0003713	107.531000137
1500.0	0.0003715	107.578000069
1500.0	0.0003713	107.610000134
1500.0	0.0003713	107.656000137
1500.0	0.0003713	107.687999964
1510.0	0.0003718	107.969000101
1510.0	0.0003718	108.016000032
1510.0	0.000372	108.04700017
1510.0	0.000372	108.094000101
1510.0	0.0003725	108.141000032
1510.0	0.0003725	108.17200017
1510.0	0.000372	108.219000101
1510.0	0.000372	108.266000032
1510.0	0.0003725	108.29700017
1510.0	0.0003725	108.344000101
1510.0	0.0003725	108.391000032
1510.0	0.0003725	108.42200017
1510.0	0.0003728	108.469000101
1510.0	0.0003725	108.5
1510.0	0.0003725	108.54700017
1510.0	0.000372	108.594000101
1510.0	0.000372	108.625
1510.0	0.000372	108.67200017
1510.0	0.0003718	108.719000101
1510.0	0.0003718	108.75
1510.0	0.0003715	108.79700017
1510.0	0.0003718	108.828000069
1510.0	0.000372	108.875
1510.0	0.000372	108.92200017
1510.0	0.0003725	108.969000101
1510.0	0.000372	109.0
1510.0	0.0003718	109.04700017
1510.0	0.0003718	109.078000069
1510.0	0.0003718	109.125
1510.0	0.0003718	109.17200017
1510.0	0.0003715	109.203000069
1510.0	0.0003713	109.25
1510.0	0.0003715	109.29700017
1510.0	0.0003715	109.328000069
1510.0	0.0003713	109.375
1510.0	0.0003713	109.42200017
1520.0	0.0003705	109.687999964
1520.0	0.0003705	109.735000134
1520.0	0.0003708	109.766000032
1520.0	0.0003713	109.812999964
1520.0	0.0003713	109.860000134
1520.0	0.0003715	109.891000032
1520.0	0.0003715	109.937999964
1520.0	0.0003713	109.985000134
1520.0	0.0003713	110.016000032
1520.0	0.0003713	110.062999964
1520.0	0.0003713	110.094000101
1520.0	0.0003715	110.141000032
1520.0	0.0003715	110.187999964
1520.0	0.0003715	110.219000101
1520.0	0.0003718	110.266000032
1520.0	0.0003718	110.312999964
1520.0	0.0003715	110.344000101
1520.0	0.0003708	110.391000032
1520.0	0.0003708	110.42200017
1520.0	0.0003708	110.469000101
1520.0	0.0003708	110.516000032
1520.0	0.0003705	110.54700017
1520.0	0.0003703	110.594000101
1520.0	0.0003705	110.641000032
1520.0	0.0003708	110.67200017
1520.0	0.0003708	110.719000101
1520.0	0.0003713	110.75
1520.0	0.0003713	110.79700017
1520.0	0.0003718	110.844000101
1520.0	0.0003715	110.875
1520.0	0.0003713	110.92200017
1520.0	0.0003713	110.969000101
1520.0	0.0003713	111.0
1520.0	0.0003713	111.04700017
1520.0	0.0003715	111.094000101
1520.0	0.0003713	111.125
1520.0	0.0003715	111.17200017
1530.0	0.0003705	111.453000069
1530.0	0.0003703	111.485000134
1530.0	0.0003703	111.531000137
1530.0	0.0003705	111.578000069
1530.0	0.0003705	111.610000134
1530.0	0.0003705	111.656000137
1530.0	0.0003708	111.687999964
1530.0	0.0003708	111.735000134
1530.0	0.0003713	111.781000137
1530.0	0.0003708	111.812999964
1530.0	0.0003713	111.860000134
1530.0	0.0003705	111.906000137
1530.0	0.0003705	111.937999964
1530.0	0.0003703	111.985000134
1530.0	0.0003703	112.016000032
1530.0	0.0003703	112.062999964
1530.0	0.0003703	112.110000134
1530.0	0.0003705	112.141000032
1530.0	0.0003705	112.187999964
1530.0	0.0003703	112.235000134
1530.0	0.0003703	112.266000032
1530.0	0.0003703	112.312999964
1530.0	0.00037	112.344000101
1530.0	0.0003695	112.391000032
1530.0	0.00037	112.437999964
1530.0	0.0003703	112.469000101
1530.0	0.0003705	112.516000032
1530.0	0.0003703	112.562999964
1530.0	0.0003703	112.594000101
1530.0	0.0003703	112.641000032
1530.0	0.0003705	112.67200017
1530.0	0.0003705	112.719000101
1530.0	0.0003708	112.766000032
1530.0	0.0003705	112.79700017
1530.0	0.0003705	112.844000101
1530.0	0.0003713	112.891000032
1530.0	0.0003715	112.92200017
1540.0	0.0003705	113.203000069
1540.0	0.0003703	113.25
1540.0	0.00037	113.281000137
1540.0	0.00037	113.328000069
1540.0	0.0003693	113.375
1540.0	0.000369	113.406000137
1540.0	0.0003683	113.453000069
1540.0	0.0003683	113.5
1540.0	0.0003683	113.531000137
1540.0	0.0003683	113.578000069
1540.0	0.000368	113.610000134
1540.0	0.0003683	113.656000137
1540.0	0.0003683	113.703000069
1540.0	0.0003683	113.735000134
1540.0	0.0003683	113.781000137
1540.0	0.000368	113.828000069
1540.0	0.000368	113.860000134
1540.0	0.000368	113.906000137
1540.0	0.000368	113.937999964
1540.0	0.0003683	113.985000134
1540.0	0.0003688	114.031000137
1540.0	0.0003688	114.062999964
1540.0	0.0003683	114.110000134
1540.0	0.0003683	114.156000137
1540.0	0.000368	114.187999964
1540.0	0.0003678	114.235000134
1540.0	0.0003678	114.266000032
1540.0	0.0003678	114.312999964
1540.0	0.0003675	114.360000134
1540.0	0.0003678	114.391000032
1540.0	0.0003678	114.437999964
1540.0	0.0003678	114.485000134
1540.0	0.000368	114.516000032
1540.0	0.000368	114.562999964
1540.0	0.0003678	114.594000101
1540.0	0.0003675	114.641000032
1540.0	0.000367	114.687999964
1550.0	0.0003653	114.953000069
1550.0	0.0003643	115.0
1550.0	0.0003633	115.04700017
1550.0	0.0003628	115.078000069
1550.0	0.0003625	115.125
1550.0	0.0003625	115.17200017
1550.0	0.000362	115.203000069
1550.0	0.0003618	115.25
1550.0	0.0003618	115.281000137
1550.0	0.0003615	115.328000069
1550.0	0.0003615	115.375
1550.0	0.0003613	115.406000137
1550.0	0.0003608	115.453000069
1550.0	0.0003608	115.5
1550.0	0.0003605	115.531000137
1550.0	0.0003605	115.578000069
1550.0	0.0003605	115.610000134
1550.0	0.0003605	115.656000137
1550.0	0.0003605	115.703000069
1550.0	0.0003605	115.735000134
1550.0	0.0003608	115.781000137
1550.0	0.0003613	115.828000069
1550.0	0.0003618	115.860000134
1550.0	0.000362	115.906000137
1550.0	0.000362	115.937999964
1550.0	0.000362	115.985000134
1550.0	0.0003618	116.031000137
1550.0	0.0003618	116.062999964
1550.0	0.0003615	116.110000134
1550.0	0.0003615	116.156000137
1550.0	0.0003615	116.187999964
1550.0	0.0003613	116.235000134
1550.0	0.0003613	116.266000032
1550.0	0.0003608	116.312999964
1550.0	0.0003605	116.360000134
1550.0	0.0003605	116.391000032
1550.0	0.0003605	116.437999964
1560.0	0.000358	116.719000101
1560.0	0.0003568	116.75
1560.0	0.0003555	116.79700017
1560.0	0.000354	116.844000101
1560.0	0.000353	116.875
1560.0	0.0003525	116.92200017
1560.0	0.000352	116.969000101
1560.0	0.0003518	117.0
1560.0	0.0003518	117.04700017
1560.0	0.0003518	117.094000101
1560.0	0.0003518	117.125
1560.0	0.0003518	117.17200017
1560.0	0.000352	117.203000069
1560.0	0.000352	117.25
1560.0	0.0003518	117.29700017
1560.0	0.0003518	117.328000069
1560.0	0.0003518	117.375
1560.0	0.000352	117.42200017
1560.0	0.000352	117.453000069
1560.0	0.0003518	117.5
1560.0	0.0003518	117.531000137
1560.0	0.000352	117.578000069
1560.0	0.000352	117.625
1560.0	0.0003518	117.656000137
1560.0	0.0003515	117.703000069
1560.0	0.0003513	117.75
1560.0	0.0003513	117.781000137
1560.0	0.0003508	117.828000069
1560.0	0.0003508	117.860000134
1560.0	0.0003508	117.906000137
1560.0	0.0003513	117.953000069
1560.0	0.0003515	117.985000134
1560.0	0.0003518	118.031000137
1560.0	0.000352	118.078000069
1560.0	0.000352	118.110000134
1560.0	0.0003518	118.156000137
1560.0	0.0003518	118.203000069
1570.0	0.0003468	118.469000101
1570.0	0.0003453	118.516000032
1570.0	0.000344	118.54700017
1570.0	0.000343	118.594000101
1570.0	0.0003425	118.641000032
1570.0	0.0003418	118.67200017
1570.0	0.0003418	118.719000101
1570.0	0.0003415	118.766000032
1570.0	0.0003413	118.79700017
1570.0	0.0003413	118.844000101
1570.0	0.0003405	118.875
1570.0	0.0003405	118.92200017
1570.0	0.0003405	118.969000101
1570.0	0.0003403	119.0
1570.0	0.0003405	119.04700017
1570.0	0.0003405	119.094000101
1570.0	0.0003408	119.125
1570.0	0.0003405	119.17200017
1570.0	0.0003405	119.203000069
1570.0	0.0003405	119.25
1570.0	0.0003405	119.29700017
1570.0	0.0003405	119.328000069
1570.0	0.0003403	119.375
1570.0	0.0003403	119.42200017
1570.0	0.0003403	119.453000069
1570.0	0.0003395	119.5
1570.0	0.00034	119.531000137
1570.0	0.0003403	119.578000069
1570.0	0.00034	119.625
1570.0	0.00034	119.656000137
1570.0	0.0003395	119.703000069
1570.0	0.0003393	119.75
1570.0	0.0003393	119.781000137
1570.0	0.0003393	119.828000069
1570.0	0.0003393	119.875
1570.0	0.0003393	119.906000137
1570.0	0.0003395	119.953000069
1580.0	0.0003355	120.219000101
1580.0	0.0003338	120.266000032
1580.0	0.0003318	120.312999964
1580.0	0.0003303	120.344000101
1580.0	0.0003293	120.391000032
1580.0	0.0003288	120.42200017
1580.0	0.0003283	120.469000101
1580.0	0.0003275	120.516000032
1580.0	0.0003268	120.54700017
1580.0	0.0003265	120.594000101
1580.0	0.0003263	120.641000032
1580.0	0.0003258	120.67200017
1580.0	0.0003255	120.719000101
1580.0	0.0003258	120.766000032
1580.0	0.0003263	120.79700017
1580.0	0.0003263	120.844000101
1580.0	0.0003263	120.875
1580.0	0.0003263	120.92200017
1580.0	0.0003263	120.969000101
1580.0	0.0003263	121.0
1580.0	0.0003265	121.04700017
1580.0	0.0003263	121.094000101
1580.0	0.0003263	121.125
1580.0	0.0003258	121.17200017
1580.0	0.0003258	121.203000069
1580.0	0.0003263	121.25
1580.0	0.0003263	121.29700017
1580.0	0.0003268	121.328000069
1580.0	0.000327	121.375
1580.0	0.000327	121.42200017
1580.0	0.000327	121.453000069
1580.0	0.0003268	121.5
1580.0	0.0003268	121.531000137
1580.0	0.0003268	121.578000069
1580.0	0.0003263	121.625
1580.0	0.0003263	121.656000137
1580.0	0.0003258	121.703000069
1590.0	0.0003205	121.985000134
1590.0	0.0003183	122.016000032
1590.0	0.0003163	122.062999964
1590.0	0.0003145	122.094000101
1590.0	0.000313	122.141000032
1590.0	0.0003125	122.187999964
1590.0	0.0003115	122.219000101
1590.0	0.0003108	122.266000032
1590.0	0.0003103	122.312999964
1590.0	0.00031	122.344000101
1590.0	0.0003095	122.391000032
1590.0	0.0003093	122.437999964
1590.0	0.0003093	122.469000101
1590.0	0.0003093	122.516000032
1590.0	0.0003093	122.54700017
1590.0	0.0003093	122.594000101
1590.0	0.0003093	122.641000032
1590.0	0.000309	122.67200017
1590.0	0.000309	122.719000101
1590.0	0.000309	122.766000032
1590.0	0.000309	122.79700017
1590.0	0.000309	122.844000101
1590.0	0.000309	122.891000032
1590.0	0.000309	122.92200017
1590.0	0.000309	122.969000101
1590.0	0.0003093	123.016000032
1590.0	0.0003095	123.04700017
1590.0	0.0003093	123.094000101
1590.0	0.0003093	123.125
1590.0	0.000309	123.17200017
1590.0	0.0003088	123.219000101
1590.0	0.0003088	123.25
1590.0	0.0003088	123.29700017
1590.0	0.0003088	123.344000101
1590.0	0.0003088	123.375
1590.0	0.0003088	123.42200017
1590.0	0.0003088	123.469000101
1600.0	0.0003008	123.735000134
1600.0	0.000298	123.781000137
1600.0	0.0002958	123.812999964
1600.0	0.0002938	123.860000134
1600.0	0.000292	123.906000137
1600.0	0.0002913	123.937999964
1600.0	0.0002903	123.985000134
1600.0	0.0002895	124.016000032
1600.0	0.0002893	124.062999964
1600.0	0.0002888	124.110000134
1600.0	0.0002883	124.141000032
1600.0	0.000288	124.187999964
1600.0	0.000288	124.235000134
1600.0	0.000288	124.266000032
1600.0	0.0002878	124.312999964
1600.0	0.0002875	124.360000134
1600.0	0.0002875	124.391000032
1600.0	0.0002878	124.437999964
1600.0	0.0002878	124.469000101
1600.0	0.0002878	124.516000032
1600.0	0.0002878	124.562999964
1600.0	0.000288	124.594000101
1600.0	0.0002883	124.641000032
1600.0	0.0002888	124.687999964
1600.0	0.0002888	124.719000101
1600.0	0.0002888	124.766000032
1600.0	0.0002888	124.79700017
1600.0	0.0002888	124.844000101
1600.0	0.0002883	124.891000032
1600.0	0.000288	124.92200017
1600.0	0.000288	124.969000101
1600.0	0.000288	125.016000032
1600.0	0.000288	125.04700017
1600.0	0.0002878	125.094000101
1600.0	0.0002875	125.141000032
1600.0	0.0002875	125.17200017
1600.0	0.000287	125.219000101
1610.0	0.000278	125.5
1610.0	0.0002753	125.531000137
1610.0	0.000273	125.578000069
1610.0	0.0002713	125.625
1610.0	0.00027	125.656000137
1610.0	0.0002683	125.703000069
1610.0	0.000268	125.735000134
1610.0	0.0002675	125.781000137
1610.0	0.0002675	125.828000069
1610.0	0.000267	125.860000134
1610.0	0.0002668	125.906000137
1610.0	0.0002668	125.953000069
1610.0	0.0002665	125.985000134
1610.0	0.0002663	126.031000137
1610.0	0.0002663	126.062999964
1610.0	0.0002663	126.110000134
1610.0	0.0002658	126.156000137
1610.0	0.0002658	126.187999964
1610.0	0.0002658	126.235000134
1610.0	0.0002663	126.281000137
1610.0	0.0002663	126.312999964
1610.0	0.0002663	126.360000134
1610.0	0.0002663	126.391000032
1610.0	0.0002663	126.437999964
1610.0	0.0002658	126.485000134
1610.0	0.0002663	126.516000032
1610.0	0.0002658	126.562999964
1610.0	0.0002663	126.610000134
1610.0	0.0002663	126.641000032
1610.0	0.0002663	126.687999964
1610.0	0.0002663	126.719000101
1610.0	0.0002663	126.766000032
1610.0	0.0002663	126.812999964
1610.0	0.0002663	126.844000101
1610.0	0.0002663	126.891000032
1610.0	0.0002665	126.937999964
1610.0	0.000267	126.969000101
1620.0	0.0002583	127.25
1620.0	0.0002553	127.29700017
1620.0	0.000253	127.328000069
1620.0	0.0002508	127.375
1620.0	0.000249	127.42200017
1620.0	0.0002478	127.453000069
1620.0	0.0002468	127.5
1620.0	0.0002463	127.54700017
1620.0	0.0002455	127.578000069
1620.0	0.0002453	127.625
1620.0	0.000245	127.656000137
1620.0	0.0002445	127.703000069
1620.0	0.0002443	127.75
1620.0	0.0002443	127.781000137
1620.0	0.0002445	127.828000069
1620.0	0.000245	127.875
1620.0	0.0002453	127.906000137
1620.0	0.0002453	127.953000069
1620.0	0.0002455	127.985000134
1620.0	0.0002455	128.031000137
1620.0	0.0002453	128.078000069
1620.0	0.0002455	128.110000134
1620.0	0.0002455	128.156000137
1620.0	0.0002455	128.203000069
1620.0	0.0002453	128.235000134
1620.0	0.0002455	128.281000137
1620.0	0.0002453	128.328000069
1620.0	0.0002453	128.360000134
1620.0	0.0002453	128.406000137
1620.0	0.0002445	128.453000069
1620.0	0.0002445	128.485000134
1620.0	0.0002445	128.531000137
1620.0	0.0002445	128.578000069
1620.0	0.0002443	128.610000134
1620.0	0.0002445	128.656000137
1620.0	0.0002445	128.687999964
1620.0	0.000245	128.735000134
1630.0	0.0002353	129.016000032
1630.0	0.0002325	129.062999964
1630.0	0.00023	129.094000101
1630.0	0.000228	129.141000032
1630.0	0.0002268	129.187999964
1630.0	0.0002253	129.219000101
1630.0	0.0002245	129.266000032
1630.0	0.0002238	129.312999964
1630.0	0.000223	129.344000101
1630.0	0.0002225	129.391000032
1630.0	0.000222	129.42200017
1630.0	0.000222	129.469000101
1630.0	0.0002218	129.516000032
1630.0	0.0002213	129.54700017
1630.0	0.0002215	129.594000101
1630.0	0.0002215	129.641000032
1630.0	0.0002215	129.67200017
1630.0	0.0002215	129.719000101
1630.0	0.0002218	129.75
1630.0	0.0002215	129.79700017
1630.0	0.0002215	129.844000101
1630.0	0.0002215	129.875
1630.0	0.0002215	129.92200017
1630.0	0.0002215	129.969000101
1630.0	0.0002215	130.0
1630.0	0.0002215	130.04700017
1630.0	0.0002213	130.078000069
1630.0	0.0002213	130.125
1630.0	0.0002215	130.17200017
1630.0	0.0002218	130.203000069
1630.0	0.0002218	130.25
1630.0	0.0002215	130.29700017
1630.0	0.0002215	130.328000069
1630.0	0.0002213	130.375
1630.0	0.0002205	130.42200017
1630.0	0.0002205	130.453000069
1630.0	0.0002205	130.5
1640.0	0.0002115	130.781000137
1640.0	0.0002083	130.828000069
1640.0	0.0002063	130.860000134
1640.0	0.0002043	130.906000137
1640.0	0.000203	130.937999964
1640.0	0.0002018	130.985000134
1640.0	0.0002008	131.031000137
1640.0	0.0002003	131.062999964
1640.0	0.0002	131.110000134
1640.0	0.0001995	131.156000137
1640.0	0.000199	131.187999964
1640.0	0.0001988	131.235000134
1640.0	0.000198	131.266000032
1640.0	0.0001978	131.312999964
1640.0	0.0001975	131.360000134
1640.0	0.0001975	131.391000032
1640.0	0.0001975	131.437999964
1640.0	0.0001975	131.485000134
1640.0	0.0001975	131.516000032
1640.0	0.0001975	131.562999964
1640.0	0.0001975	131.594000101
1640.0	0.0001975	131.641000032
1640.0	0.000197	131.687999964
1640.0	0.0001968	131.719000101
1640.0	0.000197	131.766000032
1640.0	0.0001975	131.812999964
1640.0	0.0001978	131.844000101
1640.0	0.000198	131.891000032
1640.0	0.0001983	131.937999964
1640.0	0.0001983	131.969000101
1640.0	0.0001988	132.016000032
1640.0	0.000199	132.04700017
1640.0	0.0001983	132.094000101
1640.0	0.000198	132.141000032
1640.0	0.0001978	132.187999964
1640.0	0.0001978	132.219000101
1640.0	0.000198	132.266000032
1650.0	0.00019	132.54700017
1650.0	0.0001868	132.594000101
1650.0	0.0001845	132.625
1650.0	0.0001828	132.67200017
1650.0	0.0001815	132.703000069
1650.0	0.0001805	132.75
1650.0	0.0001795	132.79700017
1650.0	0.0001793	132.828000069
1650.0	0.0001788	132.875
1650.0	0.0001783	132.92200017
1650.0	0.0001783	132.953000069
1650.0	0.000178	133.0
1650.0	0.0001778	133.04700017
1650.0	0.0001778	133.078000069
1650.0	0.0001775	133.125
1650.0	0.0001775	133.156000137
1650.0	0.000177	133.203000069
1650.0	0.0001768	133.25
1650.0	0.0001765	133.281000137
1650.0	0.0001765	133.328000069
1650.0	0.0001768	133.375
1650.0	0.000177	133.406000137
1650.0	0.000177	133.453000069
1650.0	0.0001775	133.485000134
1650.0	0.0001778	133.531000137
1650.0	0.0001778	133.578000069
1650.0	0.0001778	133.610000134
1650.0	0.0001778	133.656000137
1650.0	0.000177	133.703000069
1650.0	0.0001775	133.735000134
1650.0	0.0001775	133.781000137
1650.0	0.000177	133.828000069
1650.0	0.000177	133.860000134
1650.0	0.0001775	133.906000137
1650.0	0.0001775	133.937999964
1650.0	0.0001778	133.985000134
1650.0	0.0001778	134.031000137
1660.0	0.0001703	134.312999964
1660.0	0.0001678	134.344000101
1660.0	0.0001655	134.391000032
1660.0	0.0001643	134.437999964
1660.0	0.0001628	134.469000101
1660.0	0.0001618	134.516000032
1660.0	0.0001605	134.562999964
1660.0	0.0001603	134.594000101
1660.0	0.00016	134.641000032
1660.0	0.0001595	134.67200017
1660.0	0.0001595	134.719000101
1660.0	0.0001593	134.766000032
1660.0	0.000159	134.79700017
1660.0	0.000159	134.844000101
1660.0	0.000159	134.891000032
1660.0	0.000159	134.92200017
1660.0	0.000159	134.969000101
1660.0	0.000159	135.0
1660.0	0.0001593	135.04700017
1660.0	0.0001593	135.094000101
1660.0	0.0001595	135.125
1660.0	0.0001595	135.17200017
1660.0	0.0001595	135.219000101
1660.0	0.0001595	135.25
1660.0	0.0001595	135.29700017
1660.0	0.0001595	135.328000069
1660.0	0.0001595	135.375
1660.0	0.0001595	135.42200017
1660.0	0.0001593	135.469000101
1660.0	0.0001593	135.5
1660.0	0.0001595	135.54700017
1660.0	0.00016	135.578000069
1660.0	0.0001603	135.625
1660.0	0.0001603	135.67200017
1660.0	0.0001595	135.703000069
1660.0	0.0001595	135.75
1660.0	0.0001595	135.79700017
1670.0	0.000154	136.078000069
1670.0	0.0001518	136.125
1670.0	0.0001493	136.17200017
1670.0	0.0001475	136.203000069
1670.0	0.0001463	136.25
1670.0	0.0001453	136.29700017
1670.0	0.0001445	136.328000069
1670.0	0.0001443	136.375
1670.0	0.0001438	136.42200017
1670.0	0.0001438	136.453000069
1670.0	0.000143	136.5
1670.0	0.0001428	136.531000137
1670.0	0.0001428	136.578000069
1670.0	0.0001425	136.625
1670.0	0.0001425	136.656000137
1670.0	0.0001425	136.703000069
1670.0	0.0001425	136.75
1670.0	0.0001428	136.781000137
1670.0	0.0001428	136.828000069
1670.0	0.0001428	136.875
1670.0	0.0001425	136.906000137
1670.0	0.0001425	136.953000069
1670.0	0.000142	136.985000134
1670.0	0.000142	137.031000137
1670.0	0.0001418	137.078000069
1670.0	0.0001415	137.110000134
1670.0	0.0001415	137.156000137
1670.0	0.0001415	137.203000069
1670.0	0.0001418	137.235000134
1670.0	0.0001415	137.281000137
1670.0	0.0001413	137.312999964
1670.0	0.0001413	137.360000134
1670.0	0.0001413	137.406000137
1670.0	0.0001413	137.437999964
1670.0	0.0001413	137.485000134
1670.0	0.0001413	137.531000137
1680.0	0.0001353	137.812999964
1680.0	0.0001333	137.860000134
1680.0	0.0001318	137.891000032
1680.0	0.0001305	137.937999964
1680.0	0.0001295	137.969000101
1680.0	0.0001288	138.016000032
1680.0	0.0001283	138.062999964
1680.0	0.0001278	138.094000101
1680.0	0.0001275	138.141000032
1680.0	0.000127	138.187999964
1680.0	0.0001268	138.219000101
1680.0	0.0001268	138.266000032
1680.0	0.0001265	138.29700017
1680.0	0.0001265	138.344000101
1680.0	0.0001265	138.391000032
1680.0	0.0001265	138.42200017
1680.0	0.0001268	138.469000101
1680.0	0.0001265	138.516000032
1680.0	0.0001265	138.54700017
1680.0	0.0001265	138.594000101
1680.0	0.0001265	138.641000032
1680.0	0.0001268	138.67200017
1680.0	0.0001268	138.719000101
1680.0	0.0001268	138.75
1680.0	0.0001263	138.79700017
1680.0	0.0001263	138.844000101
1680.0	0.0001263	138.875
1680.0	0.0001263	138.92200017
1680.0	0.0001263	138.969000101
1680.0	0.0001265	139.0
1680.0	0.0001265	139.04700017
1680.0	0.0001265	139.078000069
1680.0	0.0001265	139.125
1680.0	0.0001263	139.17200017
1680.0	0.0001265	139.203000069
1680.0	0.0001268	139.25
1680.0	0.0001268	139.29700017
1690.0	0.0001208	139.578000069
1690.0	0.0001193	139.625
1690.0	0.000118	139.656000137
1690.0	0.0001168	139.703000069
1690.0	0.0001158	139.75
1690.0	0.0001153	139.781000137
1690.0	0.000115	139.828000069
1690.0	0.0001145	139.860000134
1690.0	0.0001143	139.906000137
1690.0	0.000114	139.953000069
1690.0	0.000114	139.985000134
1690.0	0.000114	140.031000137
1690.0	0.0001138	140.078000069
1690.0	0.000114	140.110000134
1690.0	0.0001138	140.156000137
1690.0	0.0001133	140.203000069
1690.0	0.0001133	140.235000134
1690.0	0.0001133	140.281000137
1690.0	0.0001133	140.328000069
1690.0	0.000113	140.360000134
1690.0	0.0001133	140.406000137
1690.0	0.0001133	140.437999964
1690.0	0.0001138	140.485000134
1690.0	0.0001138	140.531000137
1690.0	0.0001138	140.562999964
1690.0	0.000114	140.610000134
1690.0	0.000114	140.656000137
1690.0	0.0001138	140.687999964
1690.0	0.0001138	140.735000134
1690.0	0.0001133	140.766000032
1690.0	0.0001138	140.812999964
1690.0	0.0001138	140.860000134
1690.0	0.000114	140.891000032
1690.0	0.000114	140.937999964
1690.0	0.0001138	140.985000134
1690.0	0.0001138	141.016000032
1690.0	0.0001138	141.062999964
1700.0	0.0001088	141.344000101
1700.0	0.0001075	141.391000032
1700.0	0.0001065	141.437999964
1700.0	0.0001055	141.469000101
1700.0	0.000105	141.516000032
1700.0	0.0001043	141.54700017
1700.0	0.000104	141.594000101
1700.0	0.000104	141.641000032
1700.0	0.0001038	141.67200017
1700.0	0.0001033	141.719000101
1700.0	0.000103	141.766000032
1700.0	0.0001028	141.79700017
1700.0	0.0001028	141.844000101
1700.0	0.0001028	141.875
1700.0	0.0001028	141.92200017
1700.0	0.000103	141.969000101
1700.0	0.000103	142.0
1700.0	0.0001028	142.04700017
1700.0	0.0001028	142.094000101
1700.0	0.0001028	142.125
1700.0	0.000103	142.17200017
1700.0	0.000103	142.203000069
1700.0	0.0001028	142.25
1700.0	0.0001028	142.29700017
1700.0	0.0001025	142.344000101
1700.0	0.000102	142.375
1700.0	0.000102	142.42200017
1700.0	0.000102	142.469000101
1700.0	0.000102	142.5
1700.0	0.000102	142.54700017
1700.0	0.0001025	142.578000069
1700.0	0.0001028	142.625
1700.0	0.0001025	142.67200017
1700.0	0.0001028	142.703000069
1700.0	0.0001025	142.75
1700.0	0.000102	142.79700017
1700.0	0.000102	142.828000069
1710.0	9.83e-05	143.125
1710.0	9.7e-05	143.17200017
1710.0	9.58e-05	143.203000069
1710.0	9.5e-05	143.25
1710.0	9.4e-05	143.281000137
1710.0	9.33e-05	143.328000069
1710.0	9.3e-05	143.375
1710.0	9.3e-05	143.406000137
1710.0	9.28e-05	143.453000069
1710.0	9.25e-05	143.5
1710.0	9.25e-05	143.531000137
1710.0	9.25e-05	143.578000069
1710.0	9.18e-05	143.610000134
1710.0	9.18e-05	143.656000137
1710.0	9.18e-05	143.703000069
1710.0	9.15e-05	143.735000134
1710.0	9.18e-05	143.781000137
1710.0	9.18e-05	143.828000069
1710.0	9.2e-05	143.860000134
1710.0	9.2e-05	143.906000137
1710.0	9.2e-05	143.937999964
1710.0	9.2e-05	143.985000134
1710.0	9.2e-05	144.031000137
1710.0	9.18e-05	144.062999964
1710.0	9.15e-05	144.110000134
1710.0	9.18e-05	144.156000137
1710.0	9.18e-05	144.187999964
1710.0	9.18e-05	144.235000134
1710.0	9.15e-05	144.266000032
1710.0	9.15e-05	144.312999964
1710.0	9.15e-05	144.360000134
1710.0	9.13e-05	144.391000032
1710.0	9.08e-05	144.437999964
1710.0	9.08e-05	144.485000134
1710.0	9.08e-05	144.516000032
1710.0	9.08e-05	144.562999964
1710.0	9.08e-05	144.594000101
1720.0	8.78e-05	144.891000032
1720.0	8.65e-05	144.92200017
1720.0	8.53e-05	144.969000101
1720.0	8.45e-05	145.016000032
1720.0	8.4e-05	145.04700017
1720.0	8.33e-05	145.094000101
1720.0	8.28e-05	145.141000032
1720.0	8.25e-05	145.17200017
1720.0	8.25e-05	145.219000101
1720.0	8.2e-05	145.266000032
1720.0	8.2e-05	145.29700017
1720.0	8.25e-05	145.344000101
1720.0	8.25e-05	145.375
1720.0	8.25e-05	145.42200017
1720.0	8.25e-05	145.469000101
1720.0	8.2e-05	145.5
1720.0	8.25e-05	145.54700017
1720.0	8.2e-05	145.594000101
1720.0	8.2e-05	145.625
1720.0	8.2e-05	145.67200017
1720.0	8.18e-05	145.703000069
1720.0	8.18e-05	145.75
1720.0	8.2e-05	145.79700017
1720.0	8.25e-05	145.828000069
1720.0	8.28e-05	145.875
1720.0	8.28e-05	145.92200017
1720.0	8.25e-05	145.953000069
1720.0	8.25e-05	146.0
1720.0	8.2e-05	146.031000137
1720.0	8.18e-05	146.078000069
1720.0	8.18e-05	146.125
1720.0	8.18e-05	146.156000137
1720.0	8.18e-05	146.203000069
1720.0	8.2e-05	146.25
1720.0	8.18e-05	146.281000137
1720.0	8.18e-05	146.328000069
1720.0	8.15e-05	146.375
1730.0	7.78e-05	146.656000137
1730.0	7.68e-05	146.703000069
1730.0	7.58e-05	146.735000134
1730.0	7.53e-05	146.781000137
1730.0	7.5e-05	146.812999964
1730.0	7.45e-05	146.860000134
1730.0	7.45e-05	146.906000137
1730.0	7.45e-05	146.937999964
1730.0	7.43e-05	146.985000134
1730.0	7.43e-05	147.031000137
1730.0	7.43e-05	147.062999964
1730.0	7.43e-05	147.110000134
1730.0	7.43e-05	147.141000032
1730.0	7.43e-05	147.187999964
1730.0	7.43e-05	147.235000134
1730.0	7.43e-05	147.266000032
1730.0	7.43e-05	147.312999964
1730.0	7.4e-05	147.360000134
1730.0	7.43e-05	147.391000032
1730.0	7.45e-05	147.437999964
1730.0	7.5e-05	147.469000101
1730.0	7.55e-05	147.516000032
1730.0	7.55e-05	147.562999964
1730.0	7.55e-05	147.594000101
1730.0	7.55e-05	147.641000032
1730.0	7.53e-05	147.687999964
1730.0	7.53e-05	147.719000101
1730.0	7.53e-05	147.766000032
1730.0	7.5e-05	147.812999964
1730.0	7.5e-05	147.844000101
1730.0	7.5e-05	147.891000032
1730.0	7.5e-05	147.937999964
1730.0	7.5e-05	147.969000101
1730.0	7.5e-05	148.016000032
1730.0	7.5e-05	148.062999964
1730.0	7.5e-05	148.094000101
1730.0	7.45e-05	148.141000032
1740.0	7.25e-05	148.42200017
1740.0	7.15e-05	148.469000101
1740.0	7.08e-05	148.5
1740.0	7.05e-05	148.54700017
1740.0	7e-05	148.594000101
1740.0	6.93e-05	148.625
1740.0	6.93e-05	148.67200017
1740.0	6.93e-05	148.719000101
1740.0	6.93e-05	148.75
1740.0	6.95e-05	148.79700017
1740.0	7e-05	148.828000069
1740.0	6.95e-05	148.875
1740.0	6.95e-05	148.92200017
1740.0	6.93e-05	148.953000069
1740.0	6.88e-05	149.0
1740.0	6.83e-05	149.04700017
1740.0	6.83e-05	149.078000069
1740.0	6.88e-05	149.125
1740.0	6.9e-05	149.17200017
1740.0	6.93e-05	149.203000069
1740.0	6.93e-05	149.25
1740.0	6.93e-05	149.281000137
1740.0	6.93e-05	149.328000069
1740.0	7e-05	149.375
1740.0	7e-05	149.406000137
1740.0	7e-05	149.453000069
1740.0	7e-05	149.5
1740.0	7e-05	149.531000137
1740.0	7.03e-05	149.578000069
1740.0	7.03e-05	149.610000134
1740.0	7e-05	149.656000137
1740.0	6.95e-05	149.703000069
1740.0	6.95e-05	149.735000134
1740.0	6.95e-05	149.781000137
1740.0	6.93e-05	149.828000069
1740.0	6.93e-05	149.860000134
1740.0	6.93e-05	149.906000137
1750.0	6.63e-05	150.187999964
1750.0	6.53e-05	150.235000134
1750.0	6.5e-05	150.266000032
1750.0	6.45e-05	150.312999964
1750.0	6.45e-05	150.360000134
1750.0	6.43e-05	150.391000032
1750.0	6.43e-05	150.437999964
1750.0	6.4e-05	150.485000134
1750.0	6.4e-05	150.516000032
1750.0	6.4e-05	150.562999964
1750.0	6.38e-05	150.594000101
1750.0	6.38e-05	150.641000032
1750.0	6.38e-05	150.687999964
1750.0	6.33e-05	150.719000101
1750.0	6.33e-05	150.766000032
1750.0	6.3e-05	150.812999964
1750.0	6.3e-05	150.844000101
1750.0	6.33e-05	150.891000032
1750.0	6.3e-05	150.937999964
1750.0	6.3e-05	150.969000101
1750.0	6.3e-05	151.016000032
1750.0	6.28e-05	151.062999964
1750.0	6.3e-05	151.110000134
1750.0	6.28e-05	151.141000032
1750.0	6.3e-05	151.187999964
1750.0	6.3e-05	151.219000101
1750.0	6.3e-05	151.266000032
1750.0	6.3e-05	151.312999964
1750.0	6.33e-05	151.344000101
1750.0	6.3e-05	151.391000032
1750.0	6.3e-05	151.437999964
1750.0	6.28e-05	151.469000101
1750.0	6.28e-05	151.516000032
1750.0	6.28e-05	151.54700017
1750.0	6.28e-05	151.594000101
1750.0	6.25e-05	151.641000032
1760.0	6.03e-05	151.92200017
1760.0	5.93e-05	151.969000101
1760.0	5.88e-05	152.0
1760.0	5.8e-05	152.04700017
1760.0	5.78e-05	152.078000069
1760.0	5.75e-05	152.125
1760.0	5.7e-05	152.17200017
1760.0	5.7e-05	152.203000069
1760.0	5.7e-05	152.25
1760.0	5.7e-05	152.29700017
1760.0	5.68e-05	152.328000069
1760.0	5.65e-05	152.375
1760.0	5.68e-05	152.406000137
1760.0	5.68e-05	152.453000069
1760.0	5.68e-05	152.5
1760.0	5.68e-05	152.531000137
1760.0	5.65e-05	152.578000069
1760.0	5.65e-05	152.625
1760.0	5.65e-05	152.656000137
1760.0	5.65e-05	152.703000069
1760.0	5.65e-05	152.735000134
1760.0	5.65e-05	152.781000137
1760.0	5.65e-05	152.828000069
1760.0	5.63e-05	152.860000134
1760.0	5.65e-05	152.906000137
1760.0	5.65e-05	152.953000069
1760.0	5.63e-05	152.985000134
1760.0	5.58e-05	153.031000137
1760.0	5.55e-05	153.078000069
1760.0	5.58e-05	153.110000134
1760.0	5.55e-05	153.156000137
1760.0	5.58e-05	153.187999964
1760.0	5.58e-05	153.235000134
1760.0	5.58e-05	153.281000137
1760.0	5.63e-05	153.312999964
1760.0	5.65e-05	153.360000134
1760.0	5.65e-05	153.406000137
1770.0	5.43e-05	153.687999964
1770.0	5.33e-05	153.735000134
1770.0	5.3e-05	153.766000032
1770.0	5.25e-05	153.812999964
1770.0	5.18e-05	153.844000101
1770.0	5.13e-05	153.891000032
1770.0	5.08e-05	153.937999964
1770.0	5.08e-05	153.969000101
1770.0	5.08e-05	154.016000032
1770.0	5.05e-05	154.062999964
1770.0	5.05e-05	154.094000101
1770.0	5.03e-05	154.141000032
1770.0	5.05e-05	154.17200017
1770.0	5.05e-05	154.219000101
1770.0	5.05e-05	154.266000032
1770.0	5.05e-05	154.29700017
1770.0	5.08e-05	154.344000101
1770.0	5.05e-05	154.391000032
1770.0	5.08e-05	154.42200017
1770.0	5.08e-05	154.469000101
1770.0	5.05e-05	154.5
1770.0	5.03e-05	154.54700017
1770.0	5.03e-05	154.594000101
1770.0	5e-05	154.625
1770.0	5e-05	154.67200017
1770.0	5.03e-05	154.719000101
1770.0	5.05e-05	154.75
1770.0	5.08e-05	154.79700017
1770.0	5.05e-05	154.844000101
1770.0	5.08e-05	154.875
1770.0	5.08e-05	154.92200017
1770.0	5.05e-05	154.953000069
1770.0	5.03e-05	155.0
1770.0	5.03e-05	155.04700017
1770.0	5e-05	155.078000069
1770.0	5e-05	155.125
1770.0	5.03e-05	155.17200017
1780.0	4.83e-05	155.453000069
1780.0	4.78e-05	155.5
1780.0	4.75e-05	155.531000137
1780.0	4.68e-05	155.578000069
1780.0	4.63e-05	155.610000134
1780.0	4.63e-05	155.656000137
1780.0	4.63e-05	155.703000069
1780.0	4.58e-05	155.735000134
1780.0	4.58e-05	155.781000137
1780.0	4.55e-05	155.828000069
1780.0	4.53e-05	155.860000134
1780.0	4.53e-05	155.906000137
1780.0	4.55e-05	155.953000069
1780.0	4.58e-05	155.985000134
1780.0	4.58e-05	156.031000137
1780.0	4.63e-05	156.062999964
1780.0	4.63e-05	156.110000134
1780.0	4.63e-05	156.156000137
1780.0	4.58e-05	156.187999964
1780.0	4.55e-05	156.235000134
1780.0	4.53e-05	156.266000032
1780.0	4.53e-05	156.312999964
1780.0	4.5e-05	156.360000134
1780.0	4.45e-05	156.391000032
1780.0	4.45e-05	156.437999964
1780.0	4.45e-05	156.485000134
1780.0	4.5e-05	156.516000032
1780.0	4.5e-05	156.562999964
1780.0	4.55e-05	156.610000134
1780.0	4.58e-05	156.641000032
1780.0	4.63e-05	156.687999964
1780.0	4.63e-05	156.719000101
1780.0	4.63e-05	156.766000032
1780.0	4.63e-05	156.812999964
1780.0	4.63e-05	156.844000101
1780.0	4.65e-05	156.891000032
1780.0	4.65e-05	156.937999964
1790.0	4.55e-05	157.219000101
1790.0	4.45e-05	157.266000032
1790.0	4.4e-05	157.29700017
1790.0	4.38e-05	157.344000101
1790.0	4.38e-05	157.391000032
1790.0	4.38e-05	157.42200017
1790.0	4.38e-05	157.469000101
1790.0	4.33e-05	157.516000032
1790.0	4.28e-05	157.54700017
1790.0	4.25e-05	157.594000101
1790.0	4.25e-05	157.641000032
1790.0	4.25e-05	157.67200017
1790.0	4.28e-05	157.719000101
1790.0	4.28e-05	157.75
1790.0	4.3e-05	157.79700017
1790.0	4.3e-05	157.844000101
1790.0	4.28e-05	157.875
1790.0	4.28e-05	157.92200017
1790.0	4.25e-05	157.969000101
1790.0	4.25e-05	158.0
1790.0	4.25e-05	158.04700017
1790.0	4.25e-05	158.078000069
1790.0	4.2e-05	158.125
1790.0	4.2e-05	158.17200017
1790.0	4.2e-05	158.203000069
1790.0	4.2e-05	158.25
1790.0	4.2e-05	158.29700017
1790.0	4.18e-05	158.328000069
1790.0	4.18e-05	158.375
1790.0	4.2e-05	158.406000137
1790.0	4.2e-05	158.453000069
1790.0	4.25e-05	158.5
1790.0	4.25e-05	158.531000137
1790.0	4.25e-05	158.578000069
1790.0	4.25e-05	158.625
1790.0	4.25e-05	158.656000137
1790.0	4.25e-05	158.703000069
1800.0	4.08e-05	159.0
1800.0	4.03e-05	159.031000137
1800.0	3.93e-05	159.078000069
1800.0	3.88e-05	159.110000134
1800.0	3.8e-05	159.156000137
1800.0	3.78e-05	159.203000069
1800.0	3.75e-05	159.235000134
1800.0	3.75e-05	159.281000137
1800.0	3.7e-05	159.328000069
1800.0	3.7e-05	159.360000134
1800.0	3.7e-05	159.406000137
1800.0	3.68e-05	159.437999964
1800.0	3.68e-05	159.485000134
1800.0	3.65e-05	159.531000137
1800.0	3.65e-05	159.562999964
1800.0	3.68e-05	159.610000134
1800.0	3.68e-05	159.656000137
1800.0	3.7e-05	159.687999964
1800.0	3.7e-05	159.735000134
1800.0	3.7e-05	159.766000032
1800.0	3.7e-05	159.812999964
1800.0	3.75e-05	159.860000134
1800.0	3.75e-05	159.906000137
1800.0	3.75e-05	159.937999964
1800.0	3.7e-05	159.985000134
1800.0	3.68e-05	160.016000032
1800.0	3.65e-05	160.062999964
1800.0	3.65e-05	160.110000134
1800.0	3.65e-05	160.141000032
1800.0	3.65e-05	160.187999964
1800.0	3.63e-05	160.235000134
1800.0	3.63e-05	160.266000032
1800.0	3.65e-05	160.312999964
1800.0	3.65e-05	160.360000134
1800.0	3.65e-05	160.391000032
1800.0	3.65e-05	160.437999964
1800.0	3.63e-05	160.469000101
