Your edit line - do NOT delete this line
Wavelength [nm], Voltage [V], Elapsed time [s]
900.0	0.0001375	14.0939998627
900.0	0.0001345	14.1410000324
900.0	0.000132	14.1870000362
900.0	0.0001308	14.2189998627
900.0	0.00013	14.2660000324
900.0	0.0001288	14.3120000362
900.0	0.000128	14.3439998627
900.0	0.0001278	14.3910000324
900.0	0.000127	14.4219999313
900.0	0.000127	14.4689998627
900.0	0.0001268	14.5160000324
900.0	0.0001268	14.5469999313
900.0	0.0001268	14.5939998627
900.0	0.0001268	14.6410000324
900.0	0.0001265	14.6719999313
900.0	0.0001265	14.7189998627
900.0	0.0001263	14.75
900.0	0.0001263	14.7969999313
900.0	0.0001263	14.8439998627
900.0	0.0001258	14.875
900.0	0.0001258	14.9219999313
900.0	0.0001263	14.9689998627
900.0	0.0001263	15.0
900.0	0.0001263	15.0469999313
900.0	0.0001258	15.0780000687
900.0	0.0001258	15.125
900.0	0.0001258	15.1719999313
900.0	0.0001258	15.2189998627
900.0	0.0001263	15.25
900.0	0.0001265	15.2969999313
900.0	0.0001265	15.3280000687
900.0	0.0001268	15.375
900.0	0.000127	15.4219999313
900.0	0.000127	15.4530000687
900.0	0.000127	15.5
900.0	0.0001268	15.5469999313
900.0	0.000127	15.5939998627
910.0	0.0001328	15.8910000324
910.0	0.0001343	15.9370000362
910.0	0.0001358	15.9839999676
910.0	0.000137	16.0160000324
910.0	0.000138	16.0620000362
910.0	0.0001383	16.1089999676
910.0	0.0001388	16.1410000324
910.0	0.0001393	16.1870000362
910.0	0.0001395	16.2339999676
910.0	0.0001403	16.2660000324
910.0	0.0001408	16.3120000362
910.0	0.0001405	16.3439998627
910.0	0.0001408	16.3910000324
910.0	0.0001408	16.4370000362
910.0	0.0001413	16.4689998627
910.0	0.0001413	16.5160000324
910.0	0.0001413	16.5620000362
910.0	0.0001408	16.5939998627
910.0	0.0001408	16.6410000324
910.0	0.0001403	16.6870000362
910.0	0.0001403	16.7189998627
910.0	0.0001403	16.7660000324
910.0	0.00014	16.7969999313
910.0	0.00014	16.8439998627
910.0	0.0001403	16.8910000324
910.0	0.00014	16.9219999313
910.0	0.00014	16.9689998627
910.0	0.00014	17.0
910.0	0.00014	17.0469999313
910.0	0.0001403	17.0939998627
910.0	0.0001403	17.125
910.0	0.0001405	17.1719999313
910.0	0.0001408	17.2189998627
910.0	0.0001405	17.25
910.0	0.0001408	17.2969999313
910.0	0.0001405	17.3439998627
910.0	0.0001405	17.375
920.0	0.0001465	17.6870000362
920.0	0.0001483	17.7339999676
920.0	0.00015	17.7660000324
920.0	0.0001513	17.8120000362
920.0	0.000152	17.8439998627
920.0	0.0001525	17.8910000324
920.0	0.0001528	17.9370000362
920.0	0.0001538	17.9689998627
920.0	0.0001543	18.0160000324
920.0	0.000155	18.0620000362
920.0	0.0001555	18.0939998627
920.0	0.0001555	18.1410000324
920.0	0.0001563	18.1719999313
920.0	0.0001558	18.2189998627
920.0	0.0001558	18.2660000324
920.0	0.0001558	18.2969999313
920.0	0.0001555	18.3439998627
920.0	0.0001553	18.3910000324
920.0	0.0001555	18.4219999313
920.0	0.0001553	18.4689998627
920.0	0.0001553	18.5
920.0	0.0001553	18.5469999313
920.0	0.000155	18.5939998627
920.0	0.000155	18.625
920.0	0.000155	18.6719999313
920.0	0.000155	18.7189998627
920.0	0.000155	18.75
920.0	0.0001553	18.7969999313
920.0	0.0001553	18.8280000687
920.0	0.0001553	18.875
920.0	0.0001553	18.9219999313
920.0	0.000155	18.9530000687
920.0	0.000155	19.0
920.0	0.000155	19.0469999313
920.0	0.0001545	19.0939998627
920.0	0.0001545	19.125
920.0	0.0001545	19.1719999313
930.0	0.0001628	19.4689998627
930.0	0.0001645	19.5160000324
930.0	0.0001665	19.5620000362
930.0	0.0001678	19.5939998627
930.0	0.000169	19.6410000324
930.0	0.0001703	19.6719999313
930.0	0.0001713	19.7189998627
930.0	0.0001715	19.7660000324
930.0	0.0001718	19.7969999313
930.0	0.000172	19.8439998627
930.0	0.000172	19.8910000324
930.0	0.000172	19.9219999313
930.0	0.0001718	19.9689998627
930.0	0.0001718	20.0160000324
930.0	0.0001718	20.0469999313
930.0	0.000172	20.0939998627
930.0	0.0001725	20.1410000324
930.0	0.0001725	20.1719999313
930.0	0.0001725	20.2189998627
930.0	0.0001728	20.25
930.0	0.0001728	20.2969999313
930.0	0.0001728	20.3439998627
930.0	0.0001728	20.375
930.0	0.0001725	20.4219999313
930.0	0.0001728	20.4689998627
930.0	0.0001725	20.5
930.0	0.0001728	20.5469999313
930.0	0.0001728	20.5780000687
930.0	0.0001725	20.625
930.0	0.0001725	20.6719999313
930.0	0.0001728	20.7189998627
930.0	0.0001728	20.75
930.0	0.000173	20.7969999313
930.0	0.000173	20.8439998627
930.0	0.0001733	20.875
930.0	0.0001738	20.9219999313
940.0	0.0001813	21.2189998627
940.0	0.0001838	21.2660000324
940.0	0.0001853	21.3120000362
940.0	0.0001868	21.3439998627
940.0	0.0001878	21.3910000324
940.0	0.0001888	21.4219999313
940.0	0.0001895	21.4689998627
940.0	0.00019	21.5160000324
940.0	0.0001903	21.5469999313
940.0	0.0001905	21.5939998627
940.0	0.0001905	21.625
940.0	0.0001905	21.6719999313
940.0	0.0001905	21.7189998627
940.0	0.0001905	21.75
940.0	0.0001905	21.7969999313
940.0	0.0001903	21.8439998627
940.0	0.00019	21.875
940.0	0.0001903	21.9219999313
940.0	0.00019	21.9689998627
940.0	0.0001903	22.0
940.0	0.0001905	22.0469999313
940.0	0.0001913	22.0780000687
940.0	0.0001913	22.125
940.0	0.0001915	22.1719999313
940.0	0.0001915	22.2030000687
940.0	0.0001918	22.25
940.0	0.0001915	22.2969999313
940.0	0.0001913	22.3280000687
940.0	0.0001913	22.375
940.0	0.0001913	22.4219999313
940.0	0.0001908	22.4530000687
940.0	0.0001913	22.5
940.0	0.0001908	22.5469999313
940.0	0.0001908	22.5780000687
940.0	0.0001908	22.625
940.0	0.0001905	22.6559998989
950.0	0.000198	22.9530000687
950.0	0.0002005	23.0
950.0	0.0002028	23.0309998989
950.0	0.0002043	23.0780000687
950.0	0.0002053	23.125
950.0	0.0002063	23.1559998989
950.0	0.0002068	23.2030000687
950.0	0.000207	23.25
950.0	0.000208	23.2809998989
950.0	0.000208	23.3280000687
950.0	0.000208	23.3589999676
950.0	0.000208	23.4059998989
950.0	0.000208	23.4530000687
950.0	0.0002083	23.4839999676
950.0	0.000208	23.5309998989
950.0	0.000208	23.5780000687
950.0	0.000208	23.6089999676
950.0	0.000208	23.6559998989
950.0	0.000208	23.6870000362
950.0	0.000208	23.7339999676
950.0	0.0002078	23.7809998989
950.0	0.0002078	23.8120000362
950.0	0.0002078	23.8589999676
950.0	0.0002078	23.9059998989
950.0	0.000208	23.9370000362
950.0	0.000208	23.9839999676
950.0	0.000208	24.0309998989
950.0	0.0002083	24.0620000362
950.0	0.0002083	24.1089999676
950.0	0.0002088	24.1410000324
950.0	0.0002088	24.1870000362
950.0	0.0002083	24.2339999676
950.0	0.0002088	24.2660000324
950.0	0.0002088	24.3120000362
950.0	0.0002088	24.3589999676
950.0	0.0002088	24.3910000324
950.0	0.000209	24.4370000362
960.0	0.0002168	24.7189998627
960.0	0.0002193	24.7660000324
960.0	0.0002215	24.7969999313
960.0	0.000223	24.8439998627
960.0	0.0002243	24.8910000324
960.0	0.000225	24.9219999313
960.0	0.0002258	24.9689998627
960.0	0.0002263	25.0160000324
960.0	0.0002268	25.0469999313
960.0	0.000227	25.0939998627
960.0	0.000227	25.125
960.0	0.0002275	25.1719999313
960.0	0.0002278	25.2189998627
960.0	0.0002275	25.25
960.0	0.0002278	25.2969999313
960.0	0.0002278	25.3439998627
960.0	0.000228	25.375
960.0	0.0002283	25.4219999313
960.0	0.0002283	25.4530000687
960.0	0.0002283	25.5
960.0	0.0002283	25.5469999313
960.0	0.0002288	25.5780000687
960.0	0.0002288	25.625
960.0	0.0002283	25.6719999313
960.0	0.0002283	25.7189998627
960.0	0.0002288	25.75
960.0	0.0002288	25.7969999313
960.0	0.0002288	25.8280000687
960.0	0.0002288	25.875
960.0	0.0002283	25.9219999313
960.0	0.0002288	25.9530000687
960.0	0.0002288	26.0
960.0	0.0002288	26.0469999313
960.0	0.0002288	26.0780000687
960.0	0.0002283	26.125
960.0	0.000228	26.1559998989
970.0	0.0002358	26.4370000362
970.0	0.0002383	26.4839999676
970.0	0.0002408	26.5309998989
970.0	0.000243	26.5620000362
970.0	0.0002443	26.6089999676
970.0	0.0002455	26.6410000324
970.0	0.0002463	26.6870000362
970.0	0.0002468	26.7339999676
970.0	0.000247	26.7660000324
970.0	0.0002475	26.8120000362
970.0	0.0002475	26.8589999676
970.0	0.0002478	26.8910000324
970.0	0.000248	26.9370000362
970.0	0.0002488	26.9839999676
970.0	0.0002488	27.0160000324
970.0	0.0002488	27.0620000362
970.0	0.000249	27.1089999676
970.0	0.000249	27.1410000324
970.0	0.000249	27.1870000362
970.0	0.0002493	27.2339999676
970.0	0.000249	27.2660000324
970.0	0.0002488	27.3120000362
970.0	0.000248	27.3439998627
970.0	0.0002475	27.3910000324
970.0	0.000247	27.4370000362
970.0	0.0002475	27.4689998627
970.0	0.0002478	27.5160000324
970.0	0.000248	27.5620000362
970.0	0.000248	27.5939998627
970.0	0.0002483	27.6410000324
970.0	0.0002483	27.6719999313
970.0	0.000248	27.7189998627
970.0	0.000248	27.7660000324
970.0	0.000248	27.7969999313
970.0	0.0002478	27.8439998627
970.0	0.000248	27.8910000324
970.0	0.000248	27.9219999313
980.0	0.0002565	28.2030000687
980.0	0.0002593	28.25
980.0	0.0002613	28.2809998989
980.0	0.000263	28.3280000687
980.0	0.0002643	28.375
980.0	0.0002653	28.4059998989
980.0	0.0002658	28.4530000687
980.0	0.0002663	28.4839999676
980.0	0.0002668	28.5309998989
980.0	0.000267	28.5780000687
980.0	0.000267	28.6089999676
980.0	0.0002678	28.6559998989
980.0	0.000268	28.7030000687
980.0	0.000268	28.7339999676
980.0	0.000268	28.7809998989
980.0	0.000268	28.8280000687
980.0	0.000268	28.8589999676
980.0	0.0002683	28.9059998989
980.0	0.000268	28.9530000687
980.0	0.000268	28.9839999676
980.0	0.000268	29.0309998989
980.0	0.0002678	29.0780000687
980.0	0.0002678	29.1089999676
980.0	0.0002678	29.1559998989
980.0	0.0002675	29.2030000687
980.0	0.0002675	29.2339999676
980.0	0.0002675	29.2809998989
980.0	0.0002675	29.3280000687
980.0	0.0002678	29.3589999676
980.0	0.0002675	29.4059998989
980.0	0.0002678	29.4370000362
980.0	0.0002675	29.4839999676
980.0	0.0002675	29.5309998989
980.0	0.0002675	29.5620000362
980.0	0.0002675	29.6089999676
980.0	0.000267	29.6559998989
990.0	0.0002755	29.9370000362
990.0	0.0002788	29.9689998627
990.0	0.0002815	30.0160000324
990.0	0.0002833	30.0469999313
990.0	0.0002845	30.0939998627
990.0	0.0002858	30.1410000324
990.0	0.0002865	30.1719999313
990.0	0.000287	30.2189998627
990.0	0.0002875	30.25
990.0	0.0002875	30.2969999313
990.0	0.0002878	30.3439998627
990.0	0.0002875	30.375
990.0	0.0002875	30.4219999313
990.0	0.000287	30.4689998627
990.0	0.0002875	30.5
990.0	0.0002875	30.5469999313
990.0	0.000288	30.5939998627
990.0	0.0002883	30.625
990.0	0.0002888	30.6719999313
990.0	0.000289	30.7030000687
990.0	0.000289	30.75
990.0	0.000289	30.7969999313
990.0	0.000289	30.8280000687
990.0	0.0002888	30.875
990.0	0.0002888	30.9219999313
990.0	0.0002888	30.9530000687
990.0	0.0002888	31.0
990.0	0.000289	31.0309998989
990.0	0.0002888	31.0780000687
990.0	0.000289	31.125
990.0	0.000289	31.1559998989
990.0	0.000289	31.2030000687
990.0	0.000289	31.25
990.0	0.0002895	31.2809998989
990.0	0.0002893	31.3280000687
990.0	0.000289	31.3589999676
990.0	0.000289	31.4059998989
1000.0	0.0002968	31.6870000362
1000.0	0.0003	31.7339999676
1000.0	0.000302	31.7660000324
1000.0	0.0003043	31.8120000362
1000.0	0.0003058	31.8589999676
1000.0	0.000307	31.8910000324
1000.0	0.0003083	31.9370000362
1000.0	0.000309	31.9689998627
1000.0	0.0003095	32.0160000324
1000.0	0.00031	32.0620000362
1000.0	0.0003103	32.0939998627
1000.0	0.0003105	32.1410000324
1000.0	0.0003108	32.1870000362
1000.0	0.0003108	32.2189998627
1000.0	0.0003108	32.2660000324
1000.0	0.0003108	32.2969999313
1000.0	0.0003105	32.3439998627
1000.0	0.0003105	32.3910000324
1000.0	0.0003113	32.4219999313
1000.0	0.0003115	32.4689998627
1000.0	0.000312	32.5160000324
1000.0	0.000312	32.5469999313
1000.0	0.000312	32.5939998627
1000.0	0.000312	32.625
1000.0	0.000312	32.6719999313
1000.0	0.000312	32.7189998627
1000.0	0.000312	32.75
1000.0	0.0003118	32.7969999313
1000.0	0.0003115	32.8439998627
1000.0	0.0003115	32.875
1000.0	0.0003113	32.9219999313
1000.0	0.0003113	32.9689998627
1000.0	0.0003113	33.0
1000.0	0.0003118	33.0469999313
1000.0	0.0003118	33.0939998627
1000.0	0.000312	33.125
1000.0	0.0003128	33.1719999313
1010.0	0.000322	33.4530000687
1010.0	0.000325	33.4839999676
1010.0	0.0003275	33.5309998989
1010.0	0.0003293	33.5780000687
1010.0	0.0003308	33.6089999676
1010.0	0.0003325	33.6559998989
1010.0	0.000333	33.7030000687
1010.0	0.0003338	33.7339999676
1010.0	0.0003343	33.7809998989
1010.0	0.0003343	33.8120000362
1010.0	0.0003343	33.8589999676
1010.0	0.000334	33.9059998989
1010.0	0.000334	33.9370000362
1010.0	0.0003343	33.9839999676
1010.0	0.0003343	34.0309998989
1010.0	0.000335	34.0620000362
1010.0	0.0003353	34.1089999676
1010.0	0.0003353	34.1410000324
1010.0	0.0003355	34.1870000362
1010.0	0.0003355	34.2339999676
1010.0	0.0003353	34.2660000324
1010.0	0.000335	34.3120000362
1010.0	0.000335	34.3589999676
1010.0	0.0003345	34.3910000324
1010.0	0.0003345	34.4370000362
1010.0	0.0003345	34.4839999676
1010.0	0.000335	34.5160000324
1010.0	0.0003353	34.5620000362
1010.0	0.000335	34.5939998627
1010.0	0.0003353	34.6410000324
1010.0	0.0003353	34.6870000362
1010.0	0.0003353	34.7189998627
1010.0	0.0003355	34.7660000324
1010.0	0.0003358	34.8120000362
1010.0	0.0003358	34.8439998627
1010.0	0.0003358	34.8910000324
1010.0	0.0003355	34.9219999313
1020.0	0.0003445	35.2030000687
1020.0	0.0003478	35.25
1020.0	0.0003505	35.2969999313
1020.0	0.000353	35.3280000687
1020.0	0.0003553	35.375
1020.0	0.0003568	35.4219999313
1020.0	0.0003578	35.4530000687
1020.0	0.0003588	35.5
1020.0	0.0003593	35.5469999313
1020.0	0.0003595	35.5780000687
1020.0	0.0003595	35.625
1020.0	0.00036	35.6559998989
1020.0	0.00036	35.7030000687
1020.0	0.0003595	35.75
1020.0	0.00036	35.7809998989
1020.0	0.00036	35.8280000687
1020.0	0.0003605	35.875
1020.0	0.0003605	35.9059998989
1020.0	0.0003605	35.9530000687
1020.0	0.0003608	35.9839999676
1020.0	0.0003608	36.0309998989
1020.0	0.0003608	36.0780000687
1020.0	0.0003605	36.1089999676
1020.0	0.00036	36.1559998989
1020.0	0.00036	36.2030000687
1020.0	0.00036	36.2339999676
1020.0	0.0003603	36.2809998989
1020.0	0.0003605	36.3120000362
1020.0	0.0003608	36.3589999676
1020.0	0.0003608	36.4059998989
1020.0	0.0003608	36.4370000362
1020.0	0.0003608	36.4839999676
1020.0	0.0003605	36.5309998989
1020.0	0.0003605	36.5620000362
1020.0	0.0003605	36.6089999676
1020.0	0.0003605	36.6559998989
1020.0	0.0003605	36.6870000362
1030.0	0.00037	36.9689998627
1030.0	0.0003733	37.0160000324
1030.0	0.0003758	37.0620000362
1030.0	0.000378	37.0939998627
1030.0	0.00038	37.1410000324
1030.0	0.0003813	37.1719999313
1030.0	0.0003825	37.2189998627
1030.0	0.000383	37.2660000324
1030.0	0.0003838	37.2969999313
1030.0	0.0003845	37.3439998627
1030.0	0.0003855	37.3910000324
1030.0	0.0003858	37.4219999313
1030.0	0.0003863	37.4689998627
1030.0	0.0003863	37.5
1030.0	0.0003863	37.5469999313
1030.0	0.0003863	37.5939998627
1030.0	0.0003855	37.625
1030.0	0.0003855	37.6719999313
1030.0	0.0003855	37.7189998627
1030.0	0.0003855	37.75
1030.0	0.0003855	37.7969999313
1030.0	0.0003853	37.8439998627
1030.0	0.0003853	37.875
1030.0	0.0003855	37.9219999313
1030.0	0.0003855	37.9689998627
1030.0	0.0003863	38.0
1030.0	0.0003865	38.0469999313
1030.0	0.0003865	38.0780000687
1030.0	0.0003868	38.125
1030.0	0.0003868	38.1719999313
1030.0	0.0003868	38.2030000687
1030.0	0.000387	38.25
1030.0	0.000387	38.2969999313
1030.0	0.0003868	38.3280000687
1030.0	0.0003868	38.375
1030.0	0.0003868	38.4219999313
1030.0	0.0003868	38.4530000687
1040.0	0.0003968	38.7339999676
1040.0	0.0004003	38.7809998989
1040.0	0.0004033	38.8280000687
1040.0	0.0004058	38.8589999676
1040.0	0.0004078	38.9059998989
1040.0	0.0004095	38.9370000362
1040.0	0.0004108	38.9839999676
1040.0	0.0004118	39.0309998989
1040.0	0.0004128	39.0620000362
1040.0	0.000413	39.1089999676
1040.0	0.0004133	39.1559998989
1040.0	0.0004133	39.1870000362
1040.0	0.0004138	39.2339999676
1040.0	0.000414	39.2809998989
1040.0	0.000414	39.3120000362
1040.0	0.0004143	39.3589999676
1040.0	0.0004143	39.3910000324
1040.0	0.000414	39.4370000362
1040.0	0.000414	39.4839999676
1040.0	0.0004138	39.5160000324
1040.0	0.0004138	39.5620000362
1040.0	0.0004138	39.6089999676
1040.0	0.0004138	39.6410000324
1040.0	0.0004133	39.6870000362
1040.0	0.0004133	39.7189998627
1040.0	0.0004133	39.7660000324
1040.0	0.0004138	39.8120000362
1040.0	0.000414	39.8439998627
1040.0	0.000414	39.8910000324
1040.0	0.000414	39.9370000362
1040.0	0.0004133	39.9689998627
1040.0	0.000413	40.0160000324
1040.0	0.0004133	40.0469999313
1040.0	0.0004133	40.0939998627
1040.0	0.000413	40.1410000324
1040.0	0.000413	40.1719999313
1040.0	0.0004128	40.2189998627
1050.0	0.000424	40.5
1050.0	0.0004278	40.5469999313
1050.0	0.0004313	40.5939998627
1050.0	0.0004343	40.625
1050.0	0.0004365	40.6719999313
1050.0	0.000438	40.7030000687
1050.0	0.0004393	40.75
1050.0	0.00044	40.7969999313
1050.0	0.0004403	40.8280000687
1050.0	0.00044	40.875
1050.0	0.0004403	40.9219999313
1050.0	0.0004405	40.9530000687
1050.0	0.0004408	41.0
1050.0	0.0004408	41.0469999313
1050.0	0.0004413	41.0780000687
1050.0	0.0004413	41.125
1050.0	0.0004415	41.1559998989
1050.0	0.0004415	41.2030000687
1050.0	0.0004415	41.25
1050.0	0.0004418	41.2809998989
1050.0	0.0004415	41.3280000687
1050.0	0.0004418	41.375
1050.0	0.0004418	41.4059998989
1050.0	0.0004415	41.4530000687
1050.0	0.0004415	41.4839999676
1050.0	0.0004415	41.5309998989
1050.0	0.0004413	41.5780000687
1050.0	0.0004413	41.6089999676
1050.0	0.0004415	41.6559998989
1050.0	0.0004413	41.7030000687
1050.0	0.0004413	41.7339999676
1050.0	0.0004413	41.7809998989
1050.0	0.0004405	41.8120000362
1050.0	0.0004405	41.8589999676
1050.0	0.0004405	41.9059998989
1050.0	0.0004408	41.9370000362
1050.0	0.0004408	41.9839999676
1060.0	0.0004525	42.2660000324
1060.0	0.0004563	42.3120000362
1060.0	0.0004593	42.3439998627
1060.0	0.0004618	42.3910000324
1060.0	0.0004633	42.4370000362
1060.0	0.000465	42.4689998627
1060.0	0.0004663	42.5160000324
1060.0	0.000467	42.5620000362
1060.0	0.0004675	42.5939998627
1060.0	0.000468	42.6410000324
1060.0	0.0004683	42.6719999313
1060.0	0.0004688	42.7189998627
1060.0	0.000469	42.7660000324
1060.0	0.0004693	42.7969999313
1060.0	0.0004693	42.8439998627
1060.0	0.000469	42.8910000324
1060.0	0.000469	42.9219999313
1060.0	0.000469	42.9689998627
1060.0	0.0004693	43.0160000324
1060.0	0.0004688	43.0469999313
1060.0	0.0004693	43.0939998627
1060.0	0.0004693	43.1410000324
1060.0	0.0004693	43.1719999313
1060.0	0.0004693	43.2189998627
1060.0	0.000469	43.25
1060.0	0.000469	43.2969999313
1060.0	0.0004688	43.3439998627
1060.0	0.0004683	43.375
1060.0	0.0004683	43.4219999313
1060.0	0.0004683	43.4689998627
1060.0	0.0004688	43.5
1060.0	0.000469	43.5469999313
1060.0	0.000469	43.5780000687
1060.0	0.000469	43.625
1060.0	0.0004688	43.6719999313
1060.0	0.0004683	43.7030000687
1060.0	0.0004683	43.75
1070.0	0.0004788	44.0309998989
1070.0	0.000482	44.0780000687
1070.0	0.0004853	44.1089999676
1070.0	0.0004878	44.1559998989
1070.0	0.0004893	44.2030000687
1070.0	0.0004908	44.2339999676
1070.0	0.0004918	44.2809998989
1070.0	0.0004928	44.3280000687
1070.0	0.0004933	44.3589999676
1070.0	0.0004938	44.4059998989
1070.0	0.000494	44.4370000362
1070.0	0.000494	44.4839999676
1070.0	0.0004943	44.5309998989
1070.0	0.0004945	44.5620000362
1070.0	0.0004945	44.6089999676
1070.0	0.000495	44.6559998989
1070.0	0.000495	44.6870000362
1070.0	0.0004943	44.7339999676
1070.0	0.0004943	44.7660000324
1070.0	0.0004945	44.8120000362
1070.0	0.0004943	44.8589999676
1070.0	0.0004943	44.9059998989
1070.0	0.000494	44.9370000362
1070.0	0.000494	44.9839999676
1070.0	0.000494	45.0309998989
1070.0	0.000494	45.0620000362
1070.0	0.000494	45.1089999676
1070.0	0.000494	45.1410000324
1070.0	0.0004938	45.1870000362
1070.0	0.000494	45.2339999676
1070.0	0.000494	45.2660000324
1070.0	0.000494	45.3120000362
1070.0	0.0004943	45.3589999676
1070.0	0.0004943	45.3910000324
1070.0	0.0004943	45.4370000362
1070.0	0.0004943	45.4689998627
1070.0	0.0004943	45.5160000324
1080.0	0.000504	45.7969999313
1080.0	0.000507	45.8439998627
1080.0	0.00051	45.875
1080.0	0.0005125	45.9219999313
1080.0	0.000514	45.9689998627
1080.0	0.0005153	46.0
1080.0	0.0005168	46.0469999313
1080.0	0.0005175	46.0939998627
1080.0	0.000518	46.1870000362
1080.0	0.0005183	46.2339999676
1080.0	0.0005183	46.2660000324
1080.0	0.0005183	46.3120000362
1080.0	0.0005188	46.3439998627
1080.0	0.0005188	46.3910000324
1080.0	0.000519	46.4370000362
1080.0	0.0005193	46.4839999676
1080.0	0.0005193	46.5160000324
1080.0	0.0005193	46.5620000362
1080.0	0.0005193	46.5939998627
1080.0	0.0005193	46.6410000324
1080.0	0.0005193	46.6870000362
1080.0	0.0005193	46.7189998627
1080.0	0.000519	46.7660000324
1080.0	0.000519	46.8120000362
1080.0	0.000519	46.8439998627
1080.0	0.0005188	46.8910000324
1080.0	0.0005188	46.9219999313
1080.0	0.0005188	46.9689998627
1080.0	0.000519	47.0160000324
1080.0	0.000519	47.0469999313
1080.0	0.000519	47.0939998627
1080.0	0.000519	47.1410000324
1080.0	0.0005193	47.1719999313
1080.0	0.0005193	47.2189998627
1080.0	0.0005195	47.25
1090.0	0.000529	47.5469999313
1090.0	0.0005325	47.5780000687
1090.0	0.000535	47.625
1090.0	0.0005368	47.6719999313
1090.0	0.0005383	47.7030000687
1090.0	0.00054	47.75
1090.0	0.0005408	47.7969999313
1090.0	0.0005418	47.8280000687
1090.0	0.000542	47.875
1090.0	0.0005425	47.9219999313
1090.0	0.000543	47.9530000687
1090.0	0.000543	48.0
1090.0	0.0005433	48.0309998989
1090.0	0.0005438	48.0780000687
1090.0	0.0005438	48.125
1090.0	0.0005433	48.1559998989
1090.0	0.0005433	48.2030000687
1090.0	0.0005433	48.25
1090.0	0.0005438	48.2809998989
1090.0	0.000544	48.3280000687
1090.0	0.0005443	48.3589999676
1090.0	0.0005443	48.4059998989
1090.0	0.0005443	48.4530000687
1090.0	0.0005443	48.4839999676
1090.0	0.0005443	48.5309998989
1090.0	0.0005443	48.5780000687
1090.0	0.000544	48.6089999676
1090.0	0.000544	48.6559998989
1090.0	0.0005438	48.6870000362
1090.0	0.0005438	48.7339999676
1090.0	0.0005438	48.7809998989
1090.0	0.000544	48.8120000362
1090.0	0.0005443	48.8589999676
1090.0	0.000544	48.9059998989
1090.0	0.0005443	48.9370000362
1090.0	0.0005443	48.9839999676
1090.0	0.0005443	49.0309998989
1100.0	0.0005525	49.3120000362
1100.0	0.0005553	49.3439998627
1100.0	0.0005578	49.3910000324
1100.0	0.00056	49.4370000362
1100.0	0.0005613	49.4689998627
1100.0	0.0005625	49.5160000324
1100.0	0.000563	49.5469999313
1100.0	0.000563	49.5939998627
1100.0	0.0005638	49.6410000324
1100.0	0.0005638	49.6719999313
1100.0	0.0005643	49.7189998627
1100.0	0.0005645	49.7660000324
1100.0	0.0005643	49.7969999313
1100.0	0.0005645	49.8439998627
1100.0	0.000565	49.875
1100.0	0.0005645	49.9219999313
1100.0	0.0005645	49.9689998627
1100.0	0.0005645	50.0
1100.0	0.0005645	50.0469999313
1100.0	0.000565	50.0939998627
1100.0	0.000565	50.125
1100.0	0.000565	50.1719999313
1100.0	0.000565	50.2030000687
1100.0	0.000565	50.25
1100.0	0.0005653	50.2969999313
1100.0	0.0005653	50.3280000687
1100.0	0.0005653	50.375
1100.0	0.0005655	50.4219999313
1100.0	0.0005655	50.4689998627
1100.0	0.0005653	50.5
1100.0	0.000565	50.5469999313
1100.0	0.0005645	50.5780000687
1100.0	0.0005643	50.625
1100.0	0.0005643	50.6719999313
1100.0	0.000564	50.7030000687
1100.0	0.0005643	50.75
1100.0	0.0005643	50.7969999313
1110.0	0.0005713	51.0620000362
1110.0	0.0005738	51.1089999676
1110.0	0.0005755	51.1559998989
1110.0	0.000577	51.1870000362
1110.0	0.0005783	51.2339999676
1110.0	0.000579	51.2809998989
1110.0	0.0005795	51.3120000362
1110.0	0.0005803	51.3589999676
1110.0	0.0005808	51.3910000324
1110.0	0.0005815	51.4370000362
1110.0	0.0005815	51.4839999676
1110.0	0.0005818	51.5160000324
1110.0	0.0005818	51.5620000362
1110.0	0.0005818	51.6089999676
1110.0	0.0005818	51.6410000324
1110.0	0.0005818	51.6870000362
1110.0	0.0005818	51.7339999676
1110.0	0.0005818	51.7660000324
1110.0	0.0005818	51.8120000362
1110.0	0.0005818	51.8589999676
1110.0	0.0005818	51.8910000324
1110.0	0.0005813	51.9370000362
1110.0	0.0005813	51.9839999676
1110.0	0.0005815	52.0160000324
1110.0	0.0005813	52.0620000362
1110.0	0.0005815	52.0939998627
1110.0	0.0005808	52.1410000324
1110.0	0.0005808	52.1870000362
1110.0	0.0005805	52.2189998627
1110.0	0.0005803	52.2660000324
1110.0	0.0005805	52.3120000362
1110.0	0.0005808	52.3439998627
1110.0	0.0005808	52.3910000324
1110.0	0.0005808	52.4219999313
1110.0	0.0005813	52.4689998627
1110.0	0.0005813	52.5160000324
1110.0	0.0005815	52.5469999313
1120.0	0.0005858	52.8280000687
1120.0	0.0005878	52.875
1120.0	0.0005893	52.9059998989
1120.0	0.0005903	52.9530000687
1120.0	0.0005915	53.0
1120.0	0.0005925	53.0309998989
1120.0	0.000593	53.0780000687
1120.0	0.0005938	53.125
1120.0	0.0005943	53.1559998989
1120.0	0.0005943	53.2030000687
1120.0	0.000595	53.2339999676
1120.0	0.0005945	53.2809998989
1120.0	0.0005945	53.3280000687
1120.0	0.0005945	53.3589999676
1120.0	0.000595	53.4059998989
1120.0	0.0005953	53.4530000687
1120.0	0.0005953	53.4839999676
1120.0	0.000595	53.5309998989
1120.0	0.0005953	53.5780000687
1120.0	0.0005955	53.6089999676
1120.0	0.0005955	53.6559998989
1120.0	0.0005958	53.6870000362
1120.0	0.0005955	53.7339999676
1120.0	0.000595	53.7809998989
1120.0	0.000595	53.8120000362
1120.0	0.0005945	53.8589999676
1120.0	0.0005945	53.9059998989
1120.0	0.0005945	53.9370000362
1120.0	0.0005945	53.9839999676
1120.0	0.000595	54.0160000324
1120.0	0.0005953	54.0620000362
1120.0	0.0005955	54.1089999676
1120.0	0.0005958	54.1410000324
1120.0	0.0005963	54.1870000362
1120.0	0.0005963	54.2339999676
1120.0	0.0005963	54.2660000324
1120.0	0.0005955	54.3120000362
1130.0	0.0006	54.5780000687
1130.0	0.0006013	54.625
1130.0	0.000602	54.6719999313
1130.0	0.0006033	54.7030000687
1130.0	0.0006043	54.75
1130.0	0.0006053	54.7969999313
1130.0	0.0006063	54.8280000687
1130.0	0.0006065	54.875
1130.0	0.0006068	54.9059998989
1130.0	0.000607	54.9530000687
1130.0	0.000607	55.0
1130.0	0.0006075	55.0309998989
1130.0	0.0006075	55.0780000687
1130.0	0.0006075	55.125
1130.0	0.0006075	55.1559998989
1130.0	0.000607	55.2030000687
1130.0	0.000607	55.2339999676
1130.0	0.000607	55.2809998989
1130.0	0.0006068	55.3280000687
1130.0	0.0006065	55.3589999676
1130.0	0.0006065	55.4059998989
1130.0	0.0006065	55.4530000687
1130.0	0.0006065	55.4839999676
1130.0	0.0006065	55.5309998989
1130.0	0.0006068	55.5780000687
1130.0	0.0006075	55.6089999676
1130.0	0.0006075	55.6559998989
1130.0	0.0006078	55.6870000362
1130.0	0.000608	55.7339999676
1130.0	0.0006078	55.7809998989
1130.0	0.000608	55.8120000362
1130.0	0.000608	55.8589999676
1130.0	0.0006083	55.9059998989
1130.0	0.0006088	55.9370000362
1130.0	0.0006083	55.9839999676
1130.0	0.0006083	56.0160000324
1130.0	0.000609	56.0620000362
1140.0	0.000612	56.3280000687
1140.0	0.0006138	56.375
1140.0	0.000615	56.4219999313
1140.0	0.0006155	56.4530000687
1140.0	0.0006163	56.5
1140.0	0.0006165	56.5469999313
1140.0	0.000617	56.5780000687
1140.0	0.0006175	56.625
1140.0	0.0006175	56.6559998989
1140.0	0.000618	56.7030000687
1140.0	0.0006188	56.75
1140.0	0.0006183	56.7809998989
1140.0	0.0006188	56.8280000687
1140.0	0.0006183	56.875
1140.0	0.0006183	56.9059998989
1140.0	0.0006183	56.9530000687
1140.0	0.0006183	56.9839999676
1140.0	0.0006183	57.0309998989
1140.0	0.0006183	57.0780000687
1140.0	0.000618	57.1089999676
1140.0	0.0006183	57.1559998989
1140.0	0.0006183	57.2030000687
1140.0	0.000618	57.2339999676
1140.0	0.000618	57.2809998989
1140.0	0.000618	57.3280000687
1140.0	0.0006178	57.3589999676
1140.0	0.0006183	57.4059998989
1140.0	0.0006188	57.4370000362
1140.0	0.000619	57.4839999676
1140.0	0.000619	57.5309998989
1140.0	0.0006188	57.5620000362
1140.0	0.0006183	57.6089999676
1140.0	0.000618	57.6559998989
1140.0	0.000618	57.6870000362
1140.0	0.000618	57.7339999676
1140.0	0.0006183	57.7809998989
1140.0	0.000618	57.8120000362
1150.0	0.0006213	58.0780000687
1150.0	0.0006225	58.125
1150.0	0.000623	58.1719999313
1150.0	0.000624	58.2030000687
1150.0	0.0006245	58.25
1150.0	0.0006253	58.2969999313
1150.0	0.0006253	58.3280000687
1150.0	0.0006255	58.375
1150.0	0.0006258	58.4059998989
1150.0	0.0006258	58.4530000687
1150.0	0.0006263	58.5
1150.0	0.0006258	58.5309998989
1150.0	0.000625	58.5780000687
1150.0	0.000625	58.625
1150.0	0.0006245	58.6559998989
1150.0	0.0006243	58.7030000687
1150.0	0.0006245	58.7339999676
1150.0	0.0006243	58.7809998989
1150.0	0.000625	58.8280000687
1150.0	0.0006253	58.875
1150.0	0.0006253	58.9059998989
1150.0	0.0006255	58.9530000687
1150.0	0.0006253	59.0
1150.0	0.000625	59.0309998989
1150.0	0.000625	59.0780000687
1150.0	0.0006245	59.1089999676
1150.0	0.0006245	59.1559998989
1150.0	0.0006245	59.2030000687
1150.0	0.000625	59.2339999676
1150.0	0.000625	59.2809998989
1150.0	0.000625	59.3280000687
1150.0	0.000625	59.3589999676
1150.0	0.0006243	59.4059998989
1150.0	0.0006245	59.4370000362
1150.0	0.000625	59.4839999676
1150.0	0.0006253	59.5309998989
1150.0	0.0006253	59.5620000362
1160.0	0.000627	59.8280000687
1160.0	0.0006278	59.875
1160.0	0.0006283	59.9059998989
1160.0	0.000629	59.9530000687
1160.0	0.0006295	60.0
1160.0	0.00063	60.0309998989
1160.0	0.00063	60.0780000687
1160.0	0.00063	60.125
1160.0	0.0006295	60.1559998989
1160.0	0.00063	60.2030000687
1160.0	0.0006303	60.2339999676
1160.0	0.0006303	60.2809998989
1160.0	0.0006305	60.3280000687
1160.0	0.0006313	60.3589999676
1160.0	0.0006313	60.4059998989
1160.0	0.0006313	60.4530000687
1160.0	0.0006313	60.4839999676
1160.0	0.0006308	60.5309998989
1160.0	0.0006308	60.5620000362
1160.0	0.0006305	60.6089999676
1160.0	0.0006305	60.6559998989
1160.0	0.0006303	60.6870000362
1160.0	0.0006303	60.7339999676
1160.0	0.0006305	60.7809998989
1160.0	0.0006305	60.8120000362
1160.0	0.0006305	60.8589999676
1160.0	0.0006313	60.8910000324
1160.0	0.0006315	60.9370000362
1160.0	0.0006318	60.9839999676
1160.0	0.0006318	61.0160000324
1160.0	0.0006315	61.0620000362
1160.0	0.0006313	61.1089999676
1160.0	0.0006313	61.1410000324
1160.0	0.0006313	61.1870000362
1160.0	0.0006313	61.2339999676
1160.0	0.0006315	61.2660000324
1160.0	0.0006313	61.3120000362
1170.0	0.0006328	61.5620000362
1170.0	0.0006338	61.6089999676
1170.0	0.0006343	61.6559998989
1170.0	0.000635	61.6870000362
1170.0	0.0006353	61.7339999676
1170.0	0.0006355	61.7660000324
1170.0	0.0006358	61.8120000362
1170.0	0.0006358	61.8589999676
1170.0	0.0006363	61.8910000324
1170.0	0.0006368	61.9370000362
1170.0	0.0006368	61.9839999676
1170.0	0.000637	62.0160000324
1170.0	0.0006368	62.0620000362
1170.0	0.0006365	62.1089999676
1170.0	0.0006365	62.1410000324
1170.0	0.0006365	62.1870000362
1170.0	0.0006368	62.2189998627
1170.0	0.0006368	62.2660000324
1170.0	0.0006368	62.3120000362
1170.0	0.0006365	62.3439998627
1170.0	0.0006365	62.3910000324
1170.0	0.0006363	62.4370000362
1170.0	0.0006363	62.4689998627
1170.0	0.0006363	62.5160000324
1170.0	0.0006363	62.5469999313
1170.0	0.0006363	62.5939998627
1170.0	0.0006365	62.6410000324
1170.0	0.0006368	62.6719999313
1170.0	0.000637	62.7189998627
1170.0	0.0006368	62.7660000324
1170.0	0.0006363	62.7969999313
1170.0	0.0006363	62.8439998627
1170.0	0.0006363	62.875
1170.0	0.0006365	62.9219999313
1170.0	0.0006365	62.9689998627
1170.0	0.0006365	63.0
1170.0	0.0006365	63.0469999313
1180.0	0.0006383	63.3120000362
1180.0	0.000639	63.3439998627
1180.0	0.0006395	63.3910000324
1180.0	0.0006398	63.4219999313
1180.0	0.0006403	63.4689998627
1180.0	0.000641	63.5160000324
1180.0	0.0006413	63.5469999313
1180.0	0.0006418	63.5939998627
1180.0	0.0006423	63.6410000324
1180.0	0.0006423	63.6719999313
1180.0	0.0006423	63.7189998627
1180.0	0.0006418	63.75
1180.0	0.0006423	63.7969999313
1180.0	0.0006423	63.8439998627
1180.0	0.0006423	63.875
1180.0	0.0006423	63.9219999313
1180.0	0.0006423	63.9689998627
1180.0	0.0006423	64.0
1180.0	0.0006425	64.0469999313
1180.0	0.0006425	64.0780000687
1180.0	0.0006428	64.125
1180.0	0.000643	64.1719999313
1180.0	0.000643	64.2030000687
1180.0	0.000643	64.25
1180.0	0.0006428	64.2969999313
1180.0	0.0006428	64.3280000687
1180.0	0.0006428	64.375
1180.0	0.0006428	64.4059998989
1180.0	0.0006428	64.4530000687
1180.0	0.0006425	64.5
1180.0	0.0006425	64.5309998989
1180.0	0.0006428	64.5780000687
1180.0	0.000643	64.625
1180.0	0.000643	64.6559998989
1180.0	0.0006435	64.7030000687
1180.0	0.0006438	64.75
1180.0	0.0006438	64.7809998989
1190.0	0.0006448	65.0469999313
1190.0	0.0006455	65.0780000687
1190.0	0.0006463	65.125
1190.0	0.0006473	65.1719999313
1190.0	0.0006478	65.2030000687
1190.0	0.0006485	65.25
1190.0	0.0006488	65.2809998989
1190.0	0.000649	65.3280000687
1190.0	0.0006493	65.375
1190.0	0.0006498	65.4059998989
1190.0	0.0006498	65.4530000687
1190.0	0.0006498	65.5
1190.0	0.0006498	65.5309998989
1190.0	0.0006498	65.5780000687
1190.0	0.0006498	65.6089999676
1190.0	0.00065	65.6559998989
1190.0	0.0006498	65.7030000687
1190.0	0.0006498	65.7339999676
1190.0	0.0006493	65.7809998989
1190.0	0.0006498	65.8280000687
1190.0	0.00065	65.8589999676
1190.0	0.00065	65.9059998989
1190.0	0.00065	65.9530000687
1190.0	0.0006503	65.9839999676
1190.0	0.0006505	66.0309998989
1190.0	0.000651	66.0620000362
1190.0	0.0006503	66.1089999676
1190.0	0.00065	66.1559998989
1190.0	0.0006503	66.1870000362
1190.0	0.0006503	66.2339999676
1190.0	0.0006505	66.2809998989
1190.0	0.0006505	66.3120000362
1190.0	0.0006503	66.3589999676
1190.0	0.0006503	66.3910000324
1190.0	0.0006503	66.4370000362
1190.0	0.0006498	66.4839999676
1190.0	0.0006498	66.5160000324
1200.0	0.0006523	66.7809998989
1200.0	0.0006528	66.8280000687
1200.0	0.0006538	66.8589999676
1200.0	0.0006543	66.9059998989
1200.0	0.0006548	66.9530000687
1200.0	0.0006553	66.9839999676
1200.0	0.0006553	67.0309998989
1200.0	0.000656	67.0780000687
1200.0	0.0006565	67.1089999676
1200.0	0.0006565	67.1559998989
1200.0	0.0006568	67.1870000362
1200.0	0.0006573	67.2339999676
1200.0	0.0006565	67.2809998989
1200.0	0.0006568	67.3120000362
1200.0	0.0006568	67.3589999676
1200.0	0.0006568	67.4059998989
1200.0	0.0006573	67.4370000362
1200.0	0.0006573	67.4839999676
1200.0	0.0006568	67.5160000324
1200.0	0.0006573	67.5620000362
1200.0	0.0006568	67.6089999676
1200.0	0.0006573	67.6410000324
1200.0	0.0006568	67.6870000362
1200.0	0.0006568	67.7339999676
1200.0	0.0006568	67.7660000324
1200.0	0.0006565	67.8120000362
1200.0	0.0006565	67.8589999676
1200.0	0.0006568	67.8910000324
1200.0	0.0006568	67.9370000362
1200.0	0.0006568	67.9689998627
1200.0	0.0006568	68.0160000324
1200.0	0.0006565	68.0620000362
1200.0	0.0006565	68.0939998627
1200.0	0.0006563	68.1410000324
1200.0	0.000656	68.1719999313
1200.0	0.0006563	68.2189998627
1200.0	0.0006565	68.2660000324
1210.0	0.0006585	68.5309998989
1210.0	0.0006598	68.5620000362
1210.0	0.0006605	68.6089999676
1210.0	0.0006613	68.6410000324
1210.0	0.0006618	68.6870000362
1210.0	0.0006625	68.7339999676
1210.0	0.0006628	68.7660000324
1210.0	0.0006628	68.8120000362
1210.0	0.0006625	68.8589999676
1210.0	0.000663	68.9059998989
1210.0	0.000663	68.9370000362
1210.0	0.0006635	68.9839999676
1210.0	0.0006638	69.0309998989
1210.0	0.000664	69.0620000362
1210.0	0.000664	69.1089999676
1210.0	0.0006643	69.1559998989
1210.0	0.0006648	69.1870000362
1210.0	0.0006648	69.2339999676
1210.0	0.0006643	69.2660000324
1210.0	0.000664	69.3120000362
1210.0	0.0006643	69.3589999676
1210.0	0.0006643	69.4059998989
1210.0	0.0006643	69.4370000362
1210.0	0.0006648	69.4839999676
1210.0	0.0006643	69.5160000324
1210.0	0.0006648	69.5620000362
1210.0	0.0006648	69.6089999676
1210.0	0.0006648	69.6410000324
1210.0	0.000665	69.6870000362
1210.0	0.000665	69.7339999676
1210.0	0.0006648	69.7660000324
1210.0	0.0006643	69.8120000362
1210.0	0.000664	69.8589999676
1210.0	0.0006638	69.8910000324
1210.0	0.0006638	69.9370000362
1210.0	0.0006638	69.9689998627
1210.0	0.0006643	70.0160000324
1220.0	0.0006668	70.2809998989
1220.0	0.0006678	70.3280000687
1220.0	0.0006688	70.3589999676
1220.0	0.0006693	70.4059998989
1220.0	0.0006703	70.4530000687
1220.0	0.000671	70.4839999676
1220.0	0.000671	70.5309998989
1220.0	0.0006713	70.5780000687
1220.0	0.000671	70.6089999676
1220.0	0.0006713	70.6559998989
1220.0	0.0006715	70.7030000687
1220.0	0.0006715	70.7339999676
1220.0	0.0006715	70.7809998989
1220.0	0.0006715	70.8280000687
1220.0	0.0006715	70.8589999676
1220.0	0.0006715	70.9059998989
1220.0	0.0006715	70.9370000362
1220.0	0.0006713	70.9839999676
1220.0	0.0006715	71.0309998989
1220.0	0.0006715	71.0620000362
1220.0	0.0006715	71.1089999676
1220.0	0.0006713	71.1559998989
1220.0	0.000671	71.1870000362
1220.0	0.000671	71.2339999676
1220.0	0.000671	71.2660000324
1220.0	0.000671	71.3120000362
1220.0	0.0006713	71.3589999676
1220.0	0.0006713	71.3910000324
1220.0	0.0006713	71.4370000362
1220.0	0.0006713	71.4839999676
1220.0	0.0006713	71.5160000324
1220.0	0.000671	71.5620000362
1220.0	0.0006713	71.6089999676
1220.0	0.0006715	71.6410000324
1220.0	0.0006718	71.6870000362
1220.0	0.0006718	71.7189998627
1220.0	0.0006715	71.7660000324
1230.0	0.0006738	72.0309998989
1230.0	0.0006748	72.0780000687
1230.0	0.0006753	72.1089999676
1230.0	0.0006763	72.1559998989
1230.0	0.0006768	72.2030000687
1230.0	0.0006773	72.2339999676
1230.0	0.0006778	72.2809998989
1230.0	0.000678	72.3120000362
1230.0	0.0006785	72.3589999676
1230.0	0.0006788	72.4059998989
1230.0	0.000679	72.4370000362
1230.0	0.000679	72.4839999676
1230.0	0.000679	72.5309998989
1230.0	0.0006788	72.5620000362
1230.0	0.000679	72.6089999676
1230.0	0.0006788	72.6559998989
1230.0	0.0006788	72.6870000362
1230.0	0.000679	72.7339999676
1230.0	0.0006788	72.7660000324
1230.0	0.0006788	72.8120000362
1230.0	0.0006788	72.8589999676
1230.0	0.000679	72.8910000324
1230.0	0.000679	72.9370000362
1230.0	0.000679	72.9839999676
1230.0	0.000679	73.0160000324
1230.0	0.000679	73.0620000362
1230.0	0.0006798	73.0939998627
1230.0	0.0006798	73.1410000324
1230.0	0.00068	73.1870000362
1230.0	0.0006803	73.2189998627
1230.0	0.0006803	73.2660000324
1230.0	0.0006803	73.3120000362
1230.0	0.00068	73.3439998627
1230.0	0.0006798	73.3910000324
1230.0	0.0006798	73.4219999313
1230.0	0.0006793	73.4689998627
1230.0	0.0006793	73.5160000324
1240.0	0.0006815	73.7809998989
1240.0	0.0006825	73.8280000687
1240.0	0.0006835	73.8589999676
1240.0	0.0006835	73.9059998989
1240.0	0.000684	73.9530000687
1240.0	0.0006843	73.9839999676
1240.0	0.0006848	74.0309998989
1240.0	0.0006853	74.0620000362
1240.0	0.0006855	74.1089999676
1240.0	0.000686	74.1559998989
1240.0	0.0006865	74.1870000362
1240.0	0.0006868	74.2339999676
1240.0	0.0006868	74.2809998989
1240.0	0.0006865	74.3120000362
1240.0	0.0006863	74.3589999676
1240.0	0.0006865	74.4059998989
1240.0	0.0006868	74.4370000362
1240.0	0.0006868	74.4839999676
1240.0	0.0006868	74.5160000324
1240.0	0.0006868	74.5620000362
1240.0	0.0006868	74.6089999676
1240.0	0.0006873	74.6410000324
1240.0	0.0006873	74.6870000362
1240.0	0.0006873	74.7339999676
1240.0	0.0006878	74.7660000324
1240.0	0.0006878	74.8120000362
1240.0	0.0006878	74.8439998627
1240.0	0.0006875	74.8910000324
1240.0	0.0006873	74.9370000362
1240.0	0.0006875	74.9689998627
1240.0	0.0006873	75.0160000324
1240.0	0.0006875	75.0620000362
1240.0	0.0006878	75.0939998627
1240.0	0.0006873	75.1410000324
1240.0	0.0006868	75.1719999313
1240.0	0.0006865	75.2189998627
1240.0	0.0006863	75.2660000324
1250.0	0.00069	75.5309998989
1250.0	0.000691	75.5780000687
1250.0	0.0006915	75.6089999676
1250.0	0.0006923	75.6559998989
1250.0	0.0006928	75.7030000687
1250.0	0.0006938	75.7339999676
1250.0	0.000694	75.7809998989
1250.0	0.000694	75.8280000687
1250.0	0.000694	75.8589999676
1250.0	0.000694	75.9059998989
1250.0	0.000694	75.9530000687
1250.0	0.0006943	75.9839999676
1250.0	0.0006943	76.0309998989
1250.0	0.0006943	76.0620000362
1250.0	0.0006948	76.1089999676
1250.0	0.0006948	76.1559998989
1250.0	0.000695	76.1870000362
1250.0	0.000695	76.2339999676
1250.0	0.0006948	76.2809998989
1250.0	0.0006943	76.3120000362
1250.0	0.000694	76.3589999676
1250.0	0.0006943	76.4059998989
1250.0	0.0006943	76.4370000362
1250.0	0.0006943	76.4839999676
1250.0	0.0006948	76.5309998989
1250.0	0.000695	76.5620000362
1250.0	0.0006948	76.6089999676
1250.0	0.0006943	76.6559998989
1250.0	0.0006948	76.6870000362
1250.0	0.0006943	76.7339999676
1250.0	0.0006948	76.7660000324
1250.0	0.0006948	76.8120000362
1250.0	0.000695	76.8589999676
1250.0	0.000695	76.8910000324
1250.0	0.0006953	76.9370000362
1250.0	0.0006953	76.9839999676
1260.0	0.0006975	77.25
1260.0	0.000698	77.2969999313
1260.0	0.0006988	77.3280000687
1260.0	0.0006998	77.375
1260.0	0.0006998	77.4059998989
1260.0	0.0007003	77.4530000687
1260.0	0.0007003	77.5
1260.0	0.0007005	77.5309998989
1260.0	0.0007013	77.5780000687
1260.0	0.0007013	77.625
1260.0	0.0007013	77.6559998989
1260.0	0.000701	77.7030000687
1260.0	0.0007005	77.7339999676
1260.0	0.0007005	77.7809998989
1260.0	0.000701	77.8280000687
1260.0	0.0007005	77.8589999676
1260.0	0.000701	77.9059998989
1260.0	0.0007003	77.9530000687
1260.0	0.0007003	77.9839999676
1260.0	0.0007	78.0309998989
1260.0	0.0007	78.0780000687
1260.0	0.0007	78.1089999676
1260.0	0.0007	78.1559998989
1260.0	0.0007	78.2030000687
1260.0	0.0007003	78.2339999676
1260.0	0.0007003	78.2809998989
1260.0	0.0007003	78.3280000687
1260.0	0.0007005	78.3589999676
1260.0	0.0007005	78.4059998989
1260.0	0.000701	78.4370000362
1260.0	0.000701	78.4839999676
1260.0	0.000701	78.5309998989
1260.0	0.0007013	78.5620000362
1260.0	0.0007015	78.6089999676
1260.0	0.0007015	78.6559998989
1260.0	0.0007015	78.6870000362
1260.0	0.0007013	78.7339999676
1270.0	0.0007025	79.0
1270.0	0.000703	79.0309998989
1270.0	0.000703	79.0780000687
1270.0	0.0007035	79.125
1270.0	0.000704	79.1559998989
1270.0	0.000704	79.2030000687
1270.0	0.0007048	79.2339999676
1270.0	0.0007053	79.2809998989
1270.0	0.0007053	79.3280000687
1270.0	0.0007053	79.3589999676
1270.0	0.0007053	79.4059998989
1270.0	0.000705	79.4530000687
1270.0	0.0007053	79.4839999676
1270.0	0.0007053	79.5309998989
1270.0	0.0007053	79.5620000362
1270.0	0.0007055	79.6089999676
1270.0	0.0007055	79.6559998989
1270.0	0.0007053	79.6870000362
1270.0	0.000705	79.7339999676
1270.0	0.0007048	79.7809998989
1270.0	0.0007048	79.8120000362
1270.0	0.000705	79.8589999676
1270.0	0.0007053	79.8910000324
1270.0	0.000706	79.9370000362
1270.0	0.000706	79.9839999676
1270.0	0.0007053	80.0160000324
1270.0	0.0007053	80.0620000362
1270.0	0.000705	80.1089999676
1270.0	0.000705	80.1410000324
1270.0	0.0007048	80.1870000362
1270.0	0.0007043	80.2339999676
1270.0	0.0007048	80.2660000324
1270.0	0.000705	80.3120000362
1270.0	0.0007048	80.3439998627
1270.0	0.0007048	80.3910000324
1270.0	0.000705	80.4370000362
1270.0	0.0007048	80.4689998627
1280.0	0.0007055	80.7339999676
1280.0	0.0007055	80.7809998989
1280.0	0.0007063	80.8280000687
1280.0	0.0007063	80.8589999676
1280.0	0.000706	80.9059998989
1280.0	0.000706	80.9530000687
1280.0	0.000706	80.9839999676
1280.0	0.0007063	81.0309998989
1280.0	0.0007068	81.0620000362
1280.0	0.0007065	81.1089999676
1280.0	0.0007068	81.1559998989
1280.0	0.0007065	81.1870000362
1280.0	0.0007065	81.2339999676
1280.0	0.0007065	81.2809998989
1280.0	0.0007065	81.3120000362
1280.0	0.0007065	81.3589999676
1280.0	0.0007073	81.3910000324
1280.0	0.0007073	81.4370000362
1280.0	0.0007075	81.4839999676
1280.0	0.0007078	81.5160000324
1280.0	0.0007078	81.5620000362
1280.0	0.000708	81.6089999676
1280.0	0.0007085	81.6410000324
1280.0	0.0007085	81.6870000362
1280.0	0.0007085	81.7189998627
1280.0	0.000708	81.7660000324
1280.0	0.0007078	81.8120000362
1280.0	0.0007075	81.8439998627
1280.0	0.0007073	81.8910000324
1280.0	0.0007073	81.9370000362
1280.0	0.0007073	81.9689998627
1280.0	0.0007073	82.0160000324
1280.0	0.0007073	82.0469999313
1280.0	0.0007068	82.0939998627
1280.0	0.0007068	82.1410000324
1280.0	0.0007073	82.1719999313
1280.0	0.0007078	82.2189998627
1290.0	0.0007068	82.4839999676
1290.0	0.0007068	82.5160000324
1290.0	0.0007065	82.5620000362
1290.0	0.0007065	82.6089999676
1290.0	0.0007065	82.6410000324
1290.0	0.0007063	82.6870000362
1290.0	0.0007065	82.7339999676
1290.0	0.0007065	82.7660000324
1290.0	0.0007065	82.8120000362
1290.0	0.0007063	82.8439998627
1290.0	0.0007063	82.8910000324
1290.0	0.0007063	82.9370000362
1290.0	0.0007065	82.9689998627
1290.0	0.0007063	83.0160000324
1290.0	0.000706	83.0620000362
1290.0	0.000706	83.0939998627
1290.0	0.000706	83.1410000324
1290.0	0.0007065	83.1719999313
1290.0	0.0007065	83.2189998627
1290.0	0.0007065	83.2660000324
1290.0	0.0007063	83.2969999313
1290.0	0.0007063	83.3439998627
1290.0	0.0007063	83.3910000324
1290.0	0.0007065	83.4219999313
1290.0	0.0007065	83.4689998627
1290.0	0.0007073	83.5
1290.0	0.0007073	83.5469999313
1290.0	0.0007073	83.5939998627
1290.0	0.0007078	83.625
1290.0	0.0007078	83.6719999313
1290.0	0.0007075	83.7189998627
1290.0	0.0007073	83.75
1290.0	0.0007073	83.7969999313
1290.0	0.0007068	83.8439998627
1290.0	0.0007073	83.875
1290.0	0.0007068	83.9219999313
1290.0	0.0007065	83.9530000687
1300.0	0.0007043	84.2189998627
1300.0	0.0007035	84.2660000324
1300.0	0.000703	84.2969999313
1300.0	0.0007028	84.3439998627
1300.0	0.0007025	84.3910000324
1300.0	0.0007025	84.4219999313
1300.0	0.0007023	84.4689998627
1300.0	0.0007018	84.5160000324
1300.0	0.0007015	84.5469999313
1300.0	0.0007013	84.5939998627
1300.0	0.0007015	84.6410000324
1300.0	0.0007015	84.6719999313
1300.0	0.0007015	84.7189998627
1300.0	0.0007018	84.75
1300.0	0.0007018	84.7969999313
1300.0	0.0007018	84.8439998627
1300.0	0.0007018	84.875
1300.0	0.0007015	84.9219999313
1300.0	0.0007015	84.9689998627
1300.0	0.0007013	85.0
1300.0	0.0007013	85.0469999313
1300.0	0.000701	85.0780000687
1300.0	0.000701	85.125
1300.0	0.000701	85.1719999313
1300.0	0.0007013	85.2030000687
1300.0	0.0007013	85.25
1300.0	0.0007015	85.2969999313
1300.0	0.0007015	85.3280000687
1300.0	0.0007013	85.375
1300.0	0.0007015	85.4059998989
1300.0	0.0007015	85.4530000687
1300.0	0.0007018	85.5
1300.0	0.0007018	85.5309998989
1300.0	0.0007018	85.5780000687
1300.0	0.0007015	85.625
1300.0	0.0007015	85.6559998989
1300.0	0.0007015	85.7030000687
1310.0	0.000699	85.9689998627
1310.0	0.000698	86.0
1310.0	0.0006973	86.0469999313
1310.0	0.0006968	86.0939998627
1310.0	0.0006963	86.125
1310.0	0.0006955	86.1719999313
1310.0	0.000695	86.2030000687
1310.0	0.0006943	86.25
1310.0	0.0006943	86.2969999313
1310.0	0.0006943	86.3280000687
1310.0	0.000694	86.375
1310.0	0.0006938	86.4219999313
1310.0	0.000694	86.4530000687
1310.0	0.0006938	86.5
1310.0	0.0006938	86.5469999313
1310.0	0.000694	86.5780000687
1310.0	0.000694	86.625
1310.0	0.000694	86.6559998989
1310.0	0.000694	86.7030000687
1310.0	0.0006943	86.75
1310.0	0.0006943	86.7809998989
1310.0	0.0006943	86.8280000687
1310.0	0.000694	86.875
1310.0	0.000694	86.9059998989
1310.0	0.0006938	86.9530000687
1310.0	0.0006938	86.9839999676
1310.0	0.0006935	87.0309998989
1310.0	0.000693	87.0780000687
1310.0	0.000693	87.1089999676
1310.0	0.0006928	87.1559998989
1310.0	0.000693	87.2030000687
1310.0	0.0006935	87.2339999676
1310.0	0.0006938	87.2809998989
1310.0	0.0006935	87.3120000362
1310.0	0.0006938	87.3589999676
1310.0	0.0006938	87.4059998989
1310.0	0.000694	87.4370000362
1320.0	0.00069	87.7030000687
1320.0	0.0006878	87.75
1320.0	0.0006863	87.7809998989
1320.0	0.000685	87.8280000687
1320.0	0.0006838	87.875
1320.0	0.0006828	87.9059998989
1320.0	0.0006823	87.9530000687
1320.0	0.0006815	88.0
1320.0	0.0006815	88.0309998989
1320.0	0.0006813	88.0780000687
1320.0	0.0006813	88.1089999676
1320.0	0.0006815	88.1559998989
1320.0	0.0006815	88.2030000687
1320.0	0.0006818	88.2339999676
1320.0	0.0006815	88.2809998989
1320.0	0.0006815	88.3280000687
1320.0	0.0006815	88.3589999676
1320.0	0.0006815	88.4059998989
1320.0	0.0006813	88.4370000362
1320.0	0.0006813	88.4839999676
1320.0	0.0006813	88.5309998989
1320.0	0.0006813	88.5780000687
1320.0	0.0006815	88.6089999676
1320.0	0.000681	88.6559998989
1320.0	0.000681	88.7030000687
1320.0	0.000681	88.7339999676
1320.0	0.000681	88.7809998989
1320.0	0.000681	88.8120000362
1320.0	0.000681	88.8589999676
1320.0	0.0006805	88.9059998989
1320.0	0.000681	88.9370000362
1320.0	0.0006813	88.9839999676
1320.0	0.0006815	89.0309998989
1320.0	0.0006813	89.0620000362
1320.0	0.000681	89.1089999676
1320.0	0.000681	89.1559998989
1330.0	0.000674	89.4059998989
1330.0	0.0006713	89.4530000687
1330.0	0.0006693	89.5
1330.0	0.0006678	89.5309998989
1330.0	0.0006663	89.5780000687
1330.0	0.0006653	89.6089999676
1330.0	0.0006643	89.6559998989
1330.0	0.000664	89.7030000687
1330.0	0.0006635	89.7339999676
1330.0	0.0006635	89.7809998989
1330.0	0.000663	89.8280000687
1330.0	0.000663	89.8589999676
1330.0	0.0006635	89.9059998989
1330.0	0.0006635	89.9370000362
1330.0	0.0006635	89.9839999676
1330.0	0.000663	90.0309998989
1330.0	0.0006635	90.0620000362
1330.0	0.0006628	90.1089999676
1330.0	0.000663	90.1559998989
1330.0	0.000663	90.1870000362
1330.0	0.0006628	90.2339999676
1330.0	0.000663	90.2660000324
1330.0	0.0006628	90.3120000362
1330.0	0.0006628	90.3589999676
1330.0	0.0006625	90.3910000324
1330.0	0.0006625	90.4370000362
1330.0	0.0006628	90.4839999676
1330.0	0.000663	90.5160000324
1330.0	0.0006628	90.5620000362
1330.0	0.0006628	90.6089999676
1330.0	0.000663	90.6410000324
1330.0	0.000663	90.6870000362
1330.0	0.0006635	90.7189998627
1330.0	0.0006635	90.7660000324
1330.0	0.0006635	90.8120000362
1330.0	0.0006638	90.8439998627
1330.0	0.0006638	90.8910000324
1340.0	0.0006553	91.1559998989
1340.0	0.0006523	91.1870000362
1340.0	0.0006493	91.2339999676
1340.0	0.0006473	91.2809998989
1340.0	0.000646	91.3120000362
1340.0	0.0006443	91.3589999676
1340.0	0.0006438	91.3910000324
1340.0	0.000643	91.4370000362
1340.0	0.0006425	91.4839999676
1340.0	0.0006423	91.5160000324
1340.0	0.0006415	91.5620000362
1340.0	0.000641	91.6089999676
1340.0	0.0006405	91.6410000324
1340.0	0.00064	91.6870000362
1340.0	0.0006403	91.7339999676
1340.0	0.0006405	91.7660000324
1340.0	0.0006405	91.8120000362
1340.0	0.000641	91.8439998627
1340.0	0.0006405	91.8910000324
1340.0	0.0006405	91.9370000362
1340.0	0.000641	91.9689998627
1340.0	0.000641	92.0160000324
1340.0	0.0006405	92.0469999313
1340.0	0.0006405	92.0939998627
1340.0	0.0006405	92.1410000324
1340.0	0.000641	92.1719999313
1340.0	0.000641	92.2189998627
1340.0	0.0006405	92.2660000324
1340.0	0.000641	92.2969999313
1340.0	0.000641	92.3439998627
1340.0	0.000641	92.3910000324
1340.0	0.0006405	92.4219999313
1340.0	0.0006403	92.4689998627
1340.0	0.0006405	92.5
1340.0	0.0006405	92.5469999313
1340.0	0.0006405	92.5939998627
1340.0	0.0006405	92.625
1350.0	0.0006328	92.8910000324
1350.0	0.0006293	92.9370000362
1350.0	0.0006265	92.9689998627
1350.0	0.000624	93.0160000324
1350.0	0.0006218	93.0620000362
1350.0	0.0006203	93.1089999676
1350.0	0.000619	93.1410000324
1350.0	0.0006178	93.1870000362
1350.0	0.000617	93.2189998627
1350.0	0.0006168	93.2660000324
1350.0	0.0006168	93.3120000362
1350.0	0.0006163	93.3439998627
1350.0	0.0006163	93.3910000324
1350.0	0.0006163	93.4370000362
1350.0	0.0006158	93.4689998627
1350.0	0.0006163	93.5160000324
1350.0	0.0006163	93.5469999313
1350.0	0.0006163	93.5939998627
1350.0	0.0006163	93.6410000324
1350.0	0.0006163	93.6719999313
1350.0	0.0006163	93.7189998627
1350.0	0.0006163	93.7660000324
1350.0	0.0006165	93.7969999313
1350.0	0.0006163	93.8439998627
1350.0	0.0006165	93.8910000324
1350.0	0.0006163	93.9219999313
1350.0	0.0006158	93.9689998627
1350.0	0.0006163	94.0160000324
1350.0	0.0006158	94.0620000362
1350.0	0.0006158	94.0939998627
1350.0	0.0006158	94.1410000324
1350.0	0.0006158	94.1719999313
1350.0	0.0006163	94.2189998627
1350.0	0.0006163	94.2660000324
1350.0	0.0006163	94.2969999313
1350.0	0.0006165	94.3439998627
1360.0	0.0006068	94.6089999676
1360.0	0.0006028	94.6559998989
1360.0	0.0006	94.6870000362
1360.0	0.0005975	94.7339999676
1360.0	0.0005958	94.7809998989
1360.0	0.0005943	94.8120000362
1360.0	0.0005938	94.8589999676
1360.0	0.0005928	94.8910000324
1360.0	0.000592	94.9370000362
1360.0	0.0005915	94.9839999676
1360.0	0.0005913	95.0160000324
1360.0	0.0005908	95.0620000362
1360.0	0.0005908	95.1089999676
1360.0	0.0005908	95.1410000324
1360.0	0.0005908	95.1870000362
1360.0	0.0005908	95.2339999676
1360.0	0.0005905	95.2660000324
1360.0	0.0005908	95.3120000362
1360.0	0.0005908	95.3439998627
1360.0	0.0005908	95.3910000324
1360.0	0.0005908	95.4370000362
1360.0	0.0005913	95.4689998627
1360.0	0.0005913	95.5160000324
1360.0	0.0005913	95.5469999313
1360.0	0.0005915	95.5939998627
1360.0	0.0005915	95.6410000324
1360.0	0.0005918	95.6719999313
1360.0	0.0005913	95.7189998627
1360.0	0.0005913	95.7660000324
1360.0	0.0005913	95.7969999313
1360.0	0.0005908	95.8439998627
1360.0	0.0005905	95.8910000324
1360.0	0.0005905	95.9219999313
1360.0	0.0005903	95.9689998627
1360.0	0.0005905	96.0160000324
1360.0	0.0005905	96.0469999313
1360.0	0.0005905	96.0939998627
1370.0	0.0005818	96.3589999676
1370.0	0.000578	96.3910000324
1370.0	0.000575	96.4370000362
1370.0	0.0005725	96.4689998627
1370.0	0.0005705	96.5160000324
1370.0	0.000569	96.5620000362
1370.0	0.0005683	96.5939998627
1370.0	0.0005675	96.6410000324
1370.0	0.0005668	96.6870000362
1370.0	0.0005668	96.7189998627
1370.0	0.0005663	96.7660000324
1370.0	0.0005663	96.8120000362
1370.0	0.0005658	96.8439998627
1370.0	0.0005655	96.8910000324
1370.0	0.0005653	96.9370000362
1370.0	0.000565	96.9689998627
1370.0	0.000565	97.0160000324
1370.0	0.0005655	97.0469999313
1370.0	0.0005653	97.0939998627
1370.0	0.0005655	97.1410000324
1370.0	0.0005655	97.1719999313
1370.0	0.0005653	97.2189998627
1370.0	0.0005653	97.2660000324
1370.0	0.000565	97.2969999313
1370.0	0.000565	97.3439998627
1370.0	0.000565	97.375
1370.0	0.000565	97.4219999313
1370.0	0.000565	97.4689998627
1370.0	0.000565	97.5160000324
1370.0	0.000565	97.5469999313
1370.0	0.0005655	97.5939998627
1370.0	0.0005655	97.6410000324
1370.0	0.0005653	97.6719999313
1370.0	0.0005653	97.7189998627
1370.0	0.0005645	97.7660000324
1370.0	0.0005645	97.7969999313
1370.0	0.0005643	97.8439998627
1380.0	0.0005568	98.1089999676
1380.0	0.0005533	98.1410000324
1380.0	0.0005503	98.1870000362
1380.0	0.000548	98.2339999676
1380.0	0.0005463	98.2660000324
1380.0	0.0005445	98.3120000362
1380.0	0.0005433	98.3589999676
1380.0	0.0005425	98.3910000324
1380.0	0.0005418	98.4370000362
1380.0	0.0005415	98.4689998627
1380.0	0.0005415	98.5160000324
1380.0	0.0005415	98.5620000362
1380.0	0.0005418	98.5939998627
1380.0	0.0005415	98.6410000324
1380.0	0.0005413	98.6870000362
1380.0	0.0005415	98.7189998627
1380.0	0.0005418	98.7660000324
1380.0	0.0005418	98.7969999313
1380.0	0.0005418	98.8439998627
1380.0	0.0005415	98.8910000324
1380.0	0.0005415	98.9219999313
1380.0	0.0005415	98.9689998627
1380.0	0.0005418	99.0160000324
1380.0	0.0005418	99.0469999313
1380.0	0.0005418	99.0939998627
1380.0	0.0005415	99.125
1380.0	0.0005415	99.1719999313
1380.0	0.0005418	99.2189998627
1380.0	0.0005418	99.25
1380.0	0.000542	99.2969999313
1380.0	0.0005418	99.3439998627
1380.0	0.0005418	99.375
1380.0	0.0005418	99.4219999313
1380.0	0.0005415	99.4530000687
1380.0	0.0005415	99.5
1380.0	0.0005418	99.5469999313
1380.0	0.0005418	99.5780000687
1390.0	0.0005333	99.8439998627
1390.0	0.0005305	99.8910000324
1390.0	0.000528	99.9370000362
1390.0	0.0005263	99.9689998627
1390.0	0.0005243	100.016000032
1390.0	0.000523	100.062000036
1390.0	0.0005225	100.093999863
1390.0	0.0005218	100.141000032
1390.0	0.0005215	100.171999931
1390.0	0.0005213	100.218999863
1390.0	0.0005205	100.266000032
1390.0	0.0005203	100.296999931
1390.0	0.00052	100.343999863
1390.0	0.00052	100.391000032
1390.0	0.00052	100.421999931
1390.0	0.00052	100.468999863
1390.0	0.0005203	100.5
1390.0	0.0005203	100.546999931
1390.0	0.0005203	100.593999863
1390.0	0.0005205	100.625
1390.0	0.0005205	100.671999931
1390.0	0.0005203	100.718999863
1390.0	0.0005203	100.75
1390.0	0.00052	100.796999931
1390.0	0.00052	100.843999863
1390.0	0.00052	100.875
1390.0	0.0005203	100.921999931
1390.0	0.0005203	100.953000069
1390.0	0.0005205	101.0
1390.0	0.0005205	101.046999931
1390.0	0.0005203	101.078000069
1390.0	0.0005203	101.125
1390.0	0.00052	101.171999931
1390.0	0.0005203	101.203000069
1390.0	0.00052	101.25
1390.0	0.00052	101.280999899
1390.0	0.0005195	101.328000069
1400.0	0.0005133	101.593999863
1400.0	0.0005105	101.641000032
1400.0	0.0005088	101.671999931
1400.0	0.0005068	101.718999863
1400.0	0.0005058	101.766000032
1400.0	0.0005045	101.796999931
1400.0	0.0005043	101.843999863
1400.0	0.0005038	101.891000032
1400.0	0.000503	101.921999931
1400.0	0.0005025	101.968999863
1400.0	0.0005018	102.0
1400.0	0.0005015	102.046999931
1400.0	0.0005013	102.093999863
1400.0	0.0005013	102.125
1400.0	0.0005015	102.171999931
1400.0	0.0005015	102.218999863
1400.0	0.0005015	102.25
1400.0	0.0005015	102.296999931
1400.0	0.0005015	102.328000069
1400.0	0.0005015	102.375
1400.0	0.0005015	102.421999931
1400.0	0.0005018	102.453000069
1400.0	0.000502	102.5
1400.0	0.0005025	102.546999931
1400.0	0.0005025	102.578000069
1400.0	0.0005018	102.625
1400.0	0.0005018	102.671999931
1400.0	0.0005013	102.703000069
1400.0	0.0005008	102.75
1400.0	0.0005005	102.780999899
1400.0	0.0005003	102.828000069
1400.0	0.0005	102.875
1400.0	0.0005	102.905999899
1400.0	0.0005	102.953000069
1400.0	0.0005	103.0
1400.0	0.0005003	103.030999899
1400.0	0.0005003	103.078000069
1410.0	0.0004953	103.343999863
1410.0	0.0004933	103.391000032
1410.0	0.0004918	103.421999931
1410.0	0.0004908	103.468999863
1410.0	0.0004895	103.5
1410.0	0.0004893	103.546999931
1410.0	0.0004888	103.593999863
1410.0	0.0004883	103.625
1410.0	0.0004888	103.671999931
1410.0	0.0004883	103.718999863
1410.0	0.0004878	103.75
1410.0	0.0004875	103.796999931
1410.0	0.0004868	103.828000069
1410.0	0.0004863	103.875
1410.0	0.0004863	103.921999931
1410.0	0.0004858	103.953000069
1410.0	0.0004858	104.0
1410.0	0.0004858	104.046999931
1410.0	0.0004858	104.078000069
1410.0	0.0004858	104.125
1410.0	0.0004858	104.155999899
1410.0	0.0004858	104.203000069
1410.0	0.0004855	104.25
1410.0	0.0004858	104.280999899
1410.0	0.0004858	104.328000069
1410.0	0.0004863	104.375
1410.0	0.0004865	104.405999899
1410.0	0.0004863	104.453000069
1410.0	0.0004863	104.483999968
1410.0	0.0004858	104.530999899
1410.0	0.0004858	104.578000069
1410.0	0.0004858	104.608999968
1410.0	0.0004858	104.655999899
1410.0	0.0004863	104.703000069
1410.0	0.0004858	104.733999968
1410.0	0.0004858	104.780999899
1410.0	0.0004858	104.812000036
1420.0	0.0004818	105.078000069
1420.0	0.0004805	105.125
1420.0	0.00048	105.171999931
1420.0	0.000479	105.203000069
1420.0	0.0004783	105.25
1420.0	0.0004775	105.280999899
1420.0	0.0004768	105.328000069
1420.0	0.0004765	105.375
1420.0	0.0004765	105.405999899
1420.0	0.0004763	105.453000069
1420.0	0.0004763	105.5
1420.0	0.0004755	105.530999899
1420.0	0.0004755	105.578000069
1420.0	0.0004753	105.625
1420.0	0.0004753	105.655999899
1420.0	0.0004753	105.703000069
1420.0	0.0004753	105.75
1420.0	0.0004755	105.780999899
1420.0	0.0004755	105.828000069
1420.0	0.0004755	105.875
1420.0	0.0004758	105.905999899
1420.0	0.0004755	105.953000069
1420.0	0.0004753	105.983999968
1420.0	0.0004753	106.030999899
1420.0	0.0004753	106.078000069
1420.0	0.0004753	106.108999968
1420.0	0.000475	106.155999899
1420.0	0.0004745	106.203000069
1420.0	0.000475	106.233999968
1420.0	0.0004755	106.280999899
1420.0	0.0004755	106.312000036
1420.0	0.0004755	106.358999968
1420.0	0.0004755	106.405999899
1420.0	0.000475	106.437000036
1420.0	0.000475	106.483999968
1420.0	0.0004745	106.530999899
1420.0	0.0004743	106.562000036
1430.0	0.0004738	106.828000069
1430.0	0.0004733	106.875
1430.0	0.000473	106.921999931
1430.0	0.0004728	106.953000069
1430.0	0.0004725	107.0
1430.0	0.0004728	107.030999899
1430.0	0.0004725	107.078000069
1430.0	0.0004725	107.125
1430.0	0.0004725	107.155999899
1430.0	0.000472	107.203000069
1430.0	0.0004715	107.25
1430.0	0.0004715	107.280999899
1430.0	0.0004713	107.328000069
1430.0	0.0004713	107.358999968
1430.0	0.0004713	107.405999899
1430.0	0.0004715	107.453000069
1430.0	0.0004715	107.483999968
1430.0	0.0004715	107.530999899
1430.0	0.0004715	107.578000069
1430.0	0.0004715	107.608999968
1430.0	0.0004713	107.655999899
1430.0	0.0004713	107.703000069
1430.0	0.0004713	107.733999968
1430.0	0.0004713	107.780999899
1430.0	0.0004708	107.812000036
1430.0	0.0004713	107.858999968
1430.0	0.0004713	107.905999899
1430.0	0.0004713	107.937000036
1430.0	0.0004713	107.983999968
1430.0	0.0004715	108.030999899
1430.0	0.0004715	108.062000036
1430.0	0.0004715	108.108999968
1430.0	0.0004713	108.155999899
1430.0	0.0004713	108.187000036
1430.0	0.0004713	108.233999968
1430.0	0.0004713	108.280999899
1430.0	0.0004713	108.312000036
1440.0	0.0004715	108.578000069
1440.0	0.0004718	108.625
1440.0	0.000472	108.671999931
1440.0	0.0004718	108.703000069
1440.0	0.000472	108.75
1440.0	0.000472	108.780999899
1440.0	0.000472	108.828000069
1440.0	0.000472	108.875
1440.0	0.0004725	108.905999899
1440.0	0.0004728	108.953000069
1440.0	0.0004728	109.0
1440.0	0.0004728	109.030999899
1440.0	0.0004728	109.078000069
1440.0	0.0004725	109.108999968
1440.0	0.0004725	109.155999899
1440.0	0.0004728	109.203000069
1440.0	0.0004728	109.233999968
1440.0	0.000473	109.280999899
1440.0	0.000473	109.328000069
1440.0	0.000473	109.358999968
1440.0	0.0004733	109.405999899
1440.0	0.0004738	109.453000069
1440.0	0.0004738	109.483999968
1440.0	0.0004738	109.530999899
1440.0	0.0004738	109.562000036
1440.0	0.0004738	109.608999968
1440.0	0.000474	109.655999899
1440.0	0.0004738	109.687000036
1440.0	0.000474	109.733999968
1440.0	0.000474	109.780999899
1440.0	0.000474	109.812000036
1440.0	0.000474	109.858999968
1440.0	0.0004743	109.891000032
1440.0	0.000474	109.937000036
1440.0	0.000474	109.983999968
1440.0	0.000474	110.016000032
1440.0	0.000474	110.062000036
1450.0	0.0004755	110.328000069
1450.0	0.0004763	110.375
1450.0	0.0004765	110.405999899
1450.0	0.000477	110.453000069
1450.0	0.0004775	110.5
1450.0	0.0004778	110.530999899
1450.0	0.0004778	110.578000069
1450.0	0.0004778	110.608999968
1450.0	0.000478	110.655999899
1450.0	0.000478	110.703000069
1450.0	0.0004778	110.733999968
1450.0	0.0004778	110.780999899
1450.0	0.0004778	110.828000069
1450.0	0.0004778	110.858999968
1450.0	0.000478	110.905999899
1450.0	0.000478	110.937000036
1450.0	0.0004783	110.983999968
1450.0	0.0004783	111.030999899
1450.0	0.0004783	111.062000036
1450.0	0.0004788	111.108999968
1450.0	0.0004783	111.155999899
1450.0	0.0004783	111.187000036
1450.0	0.0004788	111.233999968
1450.0	0.0004788	111.266000032
1450.0	0.0004788	111.312000036
1450.0	0.0004788	111.358999968
1450.0	0.000479	111.405999899
1450.0	0.000479	111.437000036
1450.0	0.000479	111.483999968
1450.0	0.0004788	111.530999899
1450.0	0.0004788	111.562000036
1450.0	0.0004783	111.608999968
1450.0	0.000479	111.641000032
1450.0	0.0004793	111.687000036
1450.0	0.0004793	111.733999968
1450.0	0.000479	111.766000032
1450.0	0.0004788	111.812000036
1460.0	0.0004803	112.078000069
1460.0	0.0004815	112.125
1460.0	0.0004825	112.155999899
1460.0	0.000483	112.203000069
1460.0	0.000484	112.25
1460.0	0.0004843	112.280999899
1460.0	0.0004843	112.328000069
1460.0	0.0004843	112.358999968
1460.0	0.0004845	112.405999899
1460.0	0.000485	112.453000069
1460.0	0.000485	112.483999968
1460.0	0.0004845	112.530999899
1460.0	0.0004845	112.578000069
1460.0	0.000485	112.608999968
1460.0	0.000485	112.655999899
1460.0	0.000485	112.687000036
1460.0	0.0004845	112.733999968
1460.0	0.000485	112.780999899
1460.0	0.000485	112.828000069
1460.0	0.0004853	112.858999968
1460.0	0.0004855	112.905999899
1460.0	0.0004858	112.937000036
1460.0	0.0004858	112.983999968
1460.0	0.0004858	113.030999899
1460.0	0.0004855	113.062000036
1460.0	0.000485	113.108999968
1460.0	0.000485	113.155999899
1460.0	0.000485	113.187000036
1460.0	0.0004845	113.233999968
1460.0	0.0004845	113.266000032
1460.0	0.0004843	113.312000036
1460.0	0.0004843	113.358999968
1460.0	0.0004845	113.391000032
1460.0	0.0004845	113.437000036
1460.0	0.0004845	113.483999968
1460.0	0.0004845	113.516000032
1460.0	0.0004843	113.562000036
1470.0	0.0004875	113.828000069
1470.0	0.0004883	113.875
1470.0	0.0004895	113.905999899
1470.0	0.00049	113.953000069
1470.0	0.0004905	113.983999968
1470.0	0.0004908	114.030999899
1470.0	0.0004915	114.078000069
1470.0	0.0004918	114.108999968
1470.0	0.0004925	114.155999899
1470.0	0.0004925	114.203000069
1470.0	0.0004925	114.233999968
1470.0	0.0004925	114.280999899
1470.0	0.000492	114.328000069
1470.0	0.0004925	114.358999968
1470.0	0.0004925	114.405999899
1470.0	0.0004925	114.437000036
1470.0	0.0004925	114.483999968
1470.0	0.0004925	114.530999899
1470.0	0.000492	114.562000036
1470.0	0.0004925	114.608999968
1470.0	0.0004925	114.655999899
1470.0	0.000492	114.687000036
1470.0	0.000492	114.733999968
1470.0	0.0004918	114.766000032
1470.0	0.0004925	114.812000036
1470.0	0.0004928	114.858999968
1470.0	0.0004928	114.905999899
1470.0	0.0004928	114.937000036
1470.0	0.0004925	114.983999968
1470.0	0.0004925	115.016000032
1470.0	0.0004925	115.062000036
1470.0	0.000492	115.108999968
1470.0	0.000492	115.141000032
1470.0	0.000492	115.187000036
1470.0	0.000492	115.233999968
1470.0	0.0004925	115.266000032
1470.0	0.0004925	115.312000036
1480.0	0.0004943	115.578000069
1480.0	0.0004955	115.608999968
1480.0	0.0004965	115.655999899
1480.0	0.0004975	115.703000069
1480.0	0.000498	115.733999968
1480.0	0.0004983	115.780999899
1480.0	0.0004983	115.812000036
1480.0	0.0004983	115.858999968
1480.0	0.0004983	115.905999899
1480.0	0.000499	115.937000036
1480.0	0.000499	115.983999968
1480.0	0.000499	116.030999899
1480.0	0.0004993	116.078000069
1480.0	0.000499	116.108999968
1480.0	0.0004993	116.155999899
1480.0	0.0005	116.187000036
1480.0	0.0005	116.233999968
1480.0	0.0005	116.280999899
1480.0	0.0005	116.312000036
1480.0	0.0004995	116.358999968
1480.0	0.0004995	116.405999899
1480.0	0.0004995	116.437000036
1480.0	0.0004993	116.483999968
1480.0	0.0004993	116.516000032
1480.0	0.0004995	116.562000036
1480.0	0.0005	116.608999968
1480.0	0.0005	116.641000032
1480.0	0.0004995	116.687000036
1480.0	0.0005	116.733999968
1480.0	0.0005	116.766000032
1480.0	0.0004995	116.812000036
1480.0	0.0004995	116.843999863
1480.0	0.0004995	116.891000032
1480.0	0.0004993	116.937000036
1480.0	0.0004993	116.968999863
1480.0	0.0004993	117.016000032
1480.0	0.0004993	117.062000036
1490.0	0.000502	117.328000069
1490.0	0.000503	117.375
1490.0	0.0005038	117.405999899
1490.0	0.0005043	117.453000069
1490.0	0.0005045	117.483999968
1490.0	0.000505	117.530999899
1490.0	0.0005053	117.578000069
1490.0	0.0005053	117.608999968
1490.0	0.0005055	117.655999899
1490.0	0.0005055	117.703000069
1490.0	0.0005055	117.733999968
1490.0	0.0005058	117.780999899
1490.0	0.0005055	117.828000069
1490.0	0.0005058	117.858999968
1490.0	0.0005063	117.905999899
1490.0	0.0005063	117.953000069
1490.0	0.0005063	117.983999968
1490.0	0.0005058	118.030999899
1490.0	0.0005058	118.078000069
1490.0	0.0005058	118.108999968
1490.0	0.0005058	118.155999899
1490.0	0.0005058	118.187000036
1490.0	0.0005063	118.233999968
1490.0	0.0005058	118.280999899
1490.0	0.0005058	118.312000036
1490.0	0.0005058	118.358999968
1490.0	0.0005058	118.405999899
1490.0	0.0005058	118.437000036
1490.0	0.0005058	118.483999968
1490.0	0.0005058	118.516000032
1490.0	0.0005058	118.562000036
1490.0	0.0005058	118.608999968
1490.0	0.0005058	118.641000032
1490.0	0.0005063	118.687000036
1490.0	0.0005063	118.733999968
1490.0	0.0005065	118.766000032
1490.0	0.0005063	118.812000036
1500.0	0.0005068	119.078000069
1500.0	0.0005078	119.125
1500.0	0.000508	119.155999899
1500.0	0.0005088	119.203000069
1500.0	0.0005088	119.25
1500.0	0.0005088	119.280999899
1500.0	0.0005088	119.328000069
1500.0	0.000509	119.375
1500.0	0.0005093	119.405999899
1500.0	0.00051	119.453000069
1500.0	0.00051	119.483999968
1500.0	0.00051	119.530999899
1500.0	0.00051	119.578000069
1500.0	0.0005093	119.608999968
1500.0	0.0005093	119.655999899
1500.0	0.0005093	119.703000069
1500.0	0.000509	119.733999968
1500.0	0.000509	119.780999899
1500.0	0.000509	119.812000036
1500.0	0.0005093	119.858999968
1500.0	0.0005093	119.905999899
1500.0	0.0005093	119.937000036
1500.0	0.0005095	119.983999968
1500.0	0.0005095	120.030999899
1500.0	0.0005095	120.062000036
1500.0	0.0005093	120.108999968
1500.0	0.0005093	120.155999899
1500.0	0.0005093	120.187000036
1500.0	0.00051	120.233999968
1500.0	0.00051	120.266000032
1500.0	0.0005103	120.312000036
1500.0	0.0005105	120.358999968
1500.0	0.0005103	120.391000032
1500.0	0.0005105	120.437000036
1500.0	0.0005105	120.483999968
1500.0	0.0005103	120.516000032
1500.0	0.0005103	120.562000036
1510.0	0.0005103	120.828000069
1510.0	0.0005103	120.875
1510.0	0.0005105	120.921999931
1510.0	0.0005108	120.953000069
1510.0	0.0005108	121.0
1510.0	0.0005113	121.046999931
1510.0	0.0005113	121.078000069
1510.0	0.0005118	121.125
1510.0	0.000512	121.155999899
1510.0	0.0005118	121.203000069
1510.0	0.000512	121.25
1510.0	0.0005118	121.280999899
1510.0	0.0005118	121.328000069
1510.0	0.0005125	121.375
1510.0	0.000512	121.405999899
1510.0	0.000512	121.453000069
1510.0	0.000512	121.483999968
1510.0	0.0005118	121.530999899
1510.0	0.000512	121.578000069
1510.0	0.000512	121.608999968
1510.0	0.0005118	121.655999899
1510.0	0.000512	121.703000069
1510.0	0.000512	121.733999968
1510.0	0.000512	121.780999899
1510.0	0.0005125	121.828000069
1510.0	0.0005125	121.858999968
1510.0	0.0005128	121.905999899
1510.0	0.000513	121.937000036
1510.0	0.0005128	121.983999968
1510.0	0.0005125	122.030999899
1510.0	0.0005125	122.062000036
1510.0	0.000512	122.108999968
1510.0	0.000512	122.155999899
1510.0	0.000512	122.187000036
1510.0	0.000512	122.233999968
1510.0	0.0005125	122.266000032
1510.0	0.0005125	122.312000036
1520.0	0.000512	122.578000069
1520.0	0.000512	122.625
1520.0	0.0005118	122.671999931
1520.0	0.000512	122.703000069
1520.0	0.000512	122.75
1520.0	0.0005125	122.796999931
1520.0	0.000513	122.828000069
1520.0	0.0005128	122.875
1520.0	0.0005128	122.905999899
1520.0	0.000513	122.953000069
1520.0	0.0005128	123.0
1520.0	0.000513	123.030999899
1520.0	0.000513	123.078000069
1520.0	0.0005125	123.125
1520.0	0.0005125	123.155999899
1520.0	0.0005125	123.203000069
1520.0	0.0005128	123.233999968
1520.0	0.0005128	123.280999899
1520.0	0.000512	123.328000069
1520.0	0.0005118	123.358999968
1520.0	0.0005118	123.405999899
1520.0	0.000512	123.453000069
1520.0	0.0005125	123.483999968
1520.0	0.0005125	123.530999899
1520.0	0.0005125	123.562000036
1520.0	0.0005128	123.608999968
1520.0	0.000513	123.655999899
1520.0	0.000513	123.687000036
1520.0	0.000513	123.733999968
1520.0	0.0005128	123.780999899
1520.0	0.0005128	123.812000036
1520.0	0.0005125	123.858999968
1520.0	0.0005125	123.905999899
1520.0	0.0005125	123.937000036
1520.0	0.0005125	123.983999968
1520.0	0.0005125	124.016000032
1520.0	0.0005125	124.062000036
1530.0	0.000512	124.343999863
1530.0	0.0005118	124.375
1530.0	0.0005118	124.421999931
1530.0	0.0005118	124.468999863
1530.0	0.0005118	124.5
1530.0	0.0005115	124.546999931
1530.0	0.0005108	124.578000069
1530.0	0.0005113	124.625
1530.0	0.0005105	124.671999931
1530.0	0.0005108	124.703000069
1530.0	0.0005108	124.75
1530.0	0.0005103	124.796999931
1530.0	0.0005103	124.828000069
1530.0	0.0005103	124.875
1530.0	0.0005103	124.905999899
1530.0	0.0005103	124.953000069
1530.0	0.0005103	125.0
1530.0	0.0005103	125.030999899
1530.0	0.0005103	125.078000069
1530.0	0.0005103	125.125
1530.0	0.0005105	125.155999899
1530.0	0.0005108	125.203000069
1530.0	0.0005108	125.233999968
1530.0	0.0005115	125.280999899
1530.0	0.0005115	125.328000069
1530.0	0.0005113	125.358999968
1530.0	0.0005113	125.405999899
1530.0	0.0005105	125.453000069
1530.0	0.0005105	125.5
1530.0	0.0005105	125.530999899
1530.0	0.0005103	125.578000069
1530.0	0.0005103	125.608999968
1530.0	0.0005103	125.655999899
1530.0	0.0005105	125.703000069
1530.0	0.0005108	125.733999968
1530.0	0.0005108	125.780999899
1530.0	0.0005108	125.828000069
1540.0	0.0005093	126.093999863
1540.0	0.0005083	126.141000032
1540.0	0.0005075	126.171999931
1540.0	0.0005068	126.218999863
1540.0	0.0005063	126.266000032
1540.0	0.0005058	126.296999931
1540.0	0.0005055	126.343999863
1540.0	0.0005055	126.391000032
1540.0	0.000505	126.421999931
1540.0	0.0005043	126.468999863
1540.0	0.0005043	126.516000032
1540.0	0.0005043	126.546999931
1540.0	0.0005045	126.593999863
1540.0	0.0005045	126.641000032
1540.0	0.000505	126.671999931
1540.0	0.000505	126.718999863
1540.0	0.0005053	126.75
1540.0	0.000505	126.796999931
1540.0	0.000505	126.843999863
1540.0	0.0005045	126.875
1540.0	0.0005045	126.921999931
1540.0	0.000505	126.968999863
1540.0	0.0005053	127.0
1540.0	0.0005053	127.046999931
1540.0	0.0005055	127.078000069
1540.0	0.0005055	127.125
1540.0	0.0005055	127.171999931
1540.0	0.0005053	127.203000069
1540.0	0.000505	127.25
1540.0	0.000505	127.296999931
1540.0	0.000505	127.328000069
1540.0	0.0005045	127.375
1540.0	0.0005043	127.421999931
1540.0	0.0005043	127.453000069
1540.0	0.000504	127.5
1540.0	0.000504	127.530999899
1540.0	0.0005043	127.578000069
1550.0	0.0005013	127.858999968
1550.0	0.0005005	127.891000032
1550.0	0.0004993	127.937000036
1550.0	0.0004988	127.983999968
1550.0	0.0004983	128.016000032
1550.0	0.000498	128.062000036
1550.0	0.0004978	128.093999863
1550.0	0.0004978	128.141000032
1550.0	0.0004975	128.187000036
1550.0	0.000497	128.233999968
1550.0	0.0004968	128.266000032
1550.0	0.0004965	128.312000036
1550.0	0.0004965	128.343999863
1550.0	0.0004965	128.391000032
1550.0	0.0004965	128.437000036
1550.0	0.0004965	128.468999863
1550.0	0.0004965	128.516000032
1550.0	0.0004965	128.562000036
1550.0	0.0004965	128.593999863
1550.0	0.0004965	128.641000032
1550.0	0.0004963	128.671999931
1550.0	0.0004958	128.718999863
1550.0	0.0004963	128.766000032
1550.0	0.0004968	128.796999931
1550.0	0.0004968	128.843999863
1550.0	0.0004968	128.891000032
1550.0	0.0004968	128.921999931
1550.0	0.0004968	128.968999863
1550.0	0.0004968	129.0
1550.0	0.0004968	129.046999931
1550.0	0.0004965	129.093999863
1550.0	0.0004968	129.125
1550.0	0.0004965	129.171999931
1550.0	0.0004965	129.218999863
1550.0	0.0004965	129.25
1550.0	0.0004963	129.296999931
1550.0	0.0004955	129.343999863
1560.0	0.0004915	129.608999968
1560.0	0.00049	129.655999899
1560.0	0.0004888	129.687000036
1560.0	0.0004878	129.733999968
1560.0	0.0004868	129.766000032
1560.0	0.0004865	129.812000036
1560.0	0.0004863	129.858999968
1560.0	0.0004858	129.891000032
1560.0	0.0004853	129.937000036
1560.0	0.0004845	129.983999968
1560.0	0.0004845	130.016000032
1560.0	0.0004845	130.062000036
1560.0	0.0004845	130.108999968
1560.0	0.0004845	130.141000032
1560.0	0.000485	130.187000036
1560.0	0.000485	130.233999968
1560.0	0.000485	130.266000032
1560.0	0.0004845	130.312000036
1560.0	0.0004845	130.343999863
1560.0	0.0004843	130.391000032
1560.0	0.0004843	130.437000036
1560.0	0.0004843	130.468999863
1560.0	0.0004843	130.516000032
1560.0	0.0004843	130.562000036
1560.0	0.0004843	130.593999863
1560.0	0.0004845	130.641000032
1560.0	0.000485	130.687000036
1560.0	0.000485	130.718999863
1560.0	0.000485	130.766000032
1560.0	0.0004845	130.812000036
1560.0	0.0004845	130.858999968
1560.0	0.0004843	130.891000032
1560.0	0.0004845	130.937000036
1560.0	0.000485	130.968999863
1560.0	0.000485	131.016000032
1560.0	0.000485	131.062000036
1570.0	0.0004795	131.328000069
1570.0	0.000477	131.375
1570.0	0.0004753	131.405999899
1570.0	0.0004738	131.453000069
1570.0	0.0004728	131.5
1570.0	0.000472	131.530999899
1570.0	0.0004713	131.578000069
1570.0	0.0004713	131.608999968
1570.0	0.0004705	131.655999899
1570.0	0.00047	131.703000069
1570.0	0.00047	131.733999968
1570.0	0.00047	131.780999899
1570.0	0.0004695	131.828000069
1570.0	0.0004693	131.858999968
1570.0	0.0004693	131.905999899
1570.0	0.0004695	131.937000036
1570.0	0.0004695	131.983999968
1570.0	0.0004693	132.030999899
1570.0	0.0004693	132.062000036
1570.0	0.000469	132.108999968
1570.0	0.0004693	132.155999899
1570.0	0.0004695	132.187000036
1570.0	0.00047	132.233999968
1570.0	0.0004703	132.266000032
1570.0	0.00047	132.312000036
1570.0	0.00047	132.358999968
1570.0	0.0004703	132.391000032
1570.0	0.0004703	132.437000036
1570.0	0.00047	132.483999968
1570.0	0.0004695	132.516000032
1570.0	0.0004695	132.562000036
1570.0	0.00047	132.593999863
1570.0	0.00047	132.641000032
1570.0	0.0004695	132.687000036
1570.0	0.0004695	132.718999863
1570.0	0.0004695	132.766000032
1570.0	0.0004693	132.812000036
1580.0	0.000462	133.078000069
1580.0	0.0004593	133.125
1580.0	0.0004575	133.171999931
1580.0	0.0004558	133.203000069
1580.0	0.0004545	133.25
1580.0	0.0004538	133.280999899
1580.0	0.000453	133.328000069
1580.0	0.0004525	133.375
1580.0	0.000452	133.405999899
1580.0	0.0004518	133.453000069
1580.0	0.0004515	133.5
1580.0	0.0004515	133.530999899
1580.0	0.0004515	133.578000069
1580.0	0.0004515	133.608999968
1580.0	0.0004513	133.655999899
1580.0	0.0004508	133.703000069
1580.0	0.0004505	133.75
1580.0	0.0004505	133.780999899
1580.0	0.0004503	133.828000069
1580.0	0.00045	133.858999968
1580.0	0.00045	133.905999899
1580.0	0.00045	133.953000069
1580.0	0.00045	133.983999968
1580.0	0.0004505	134.030999899
1580.0	0.0004508	134.078000069
1580.0	0.0004513	134.108999968
1580.0	0.0004513	134.155999899
1580.0	0.0004513	134.203000069
1580.0	0.0004508	134.233999968
1580.0	0.0004505	134.280999899
1580.0	0.0004505	134.312000036
1580.0	0.0004503	134.358999968
1580.0	0.0004505	134.405999899
1580.0	0.0004503	134.437000036
1580.0	0.0004503	134.483999968
1580.0	0.0004503	134.530999899
1580.0	0.0004503	134.562000036
1590.0	0.0004415	134.843999863
1590.0	0.000439	134.875
1590.0	0.0004368	134.921999931
1590.0	0.0004353	134.968999863
1590.0	0.0004333	135.0
1590.0	0.000432	135.046999931
1590.0	0.0004313	135.093999863
1590.0	0.0004305	135.125
1590.0	0.00043	135.171999931
1590.0	0.0004295	135.218999863
1590.0	0.000429	135.25
1590.0	0.000429	135.296999931
1590.0	0.0004293	135.343999863
1590.0	0.000429	135.375
1590.0	0.0004288	135.421999931
1590.0	0.0004288	135.453000069
1590.0	0.0004288	135.5
1590.0	0.000429	135.546999931
1590.0	0.0004288	135.593999863
1590.0	0.0004283	135.625
1590.0	0.000428	135.671999931
1590.0	0.0004278	135.703000069
1590.0	0.0004278	135.75
1590.0	0.0004275	135.796999931
1590.0	0.0004275	135.828000069
1590.0	0.0004275	135.875
1590.0	0.0004278	135.921999931
1590.0	0.0004278	135.953000069
1590.0	0.000428	136.0
1590.0	0.000428	136.046999931
1590.0	0.000428	136.078000069
1590.0	0.000428	136.125
1590.0	0.000428	136.155999899
1590.0	0.000428	136.203000069
1590.0	0.0004278	136.25
1590.0	0.0004275	136.280999899
1590.0	0.0004275	136.328000069
1600.0	0.000419	136.608999968
1600.0	0.0004155	136.641000032
1600.0	0.0004128	136.687000036
1600.0	0.0004103	136.718999863
1600.0	0.0004088	136.766000032
1600.0	0.000407	136.812000036
1600.0	0.0004058	136.858999968
1600.0	0.000405	136.891000032
1600.0	0.000404	136.937000036
1600.0	0.0004038	136.983999968
1600.0	0.0004033	137.016000032
1600.0	0.000403	137.062000036
1600.0	0.000403	137.108999968
1600.0	0.0004028	137.141000032
1600.0	0.0004025	137.187000036
1600.0	0.0004028	137.218999863
1600.0	0.0004028	137.266000032
1600.0	0.000403	137.312000036
1600.0	0.000403	137.343999863
1600.0	0.0004028	137.391000032
1600.0	0.000403	137.437000036
1600.0	0.0004028	137.468999863
1600.0	0.0004025	137.516000032
1600.0	0.0004025	137.546999931
1600.0	0.0004025	137.593999863
1600.0	0.0004025	137.641000032
1600.0	0.0004025	137.671999931
1600.0	0.000402	137.718999863
1600.0	0.000402	137.766000032
1600.0	0.0004025	137.796999931
1600.0	0.0004025	137.843999863
1600.0	0.0004025	137.891000032
1600.0	0.0004025	137.921999931
1600.0	0.0004025	137.968999863
1600.0	0.0004028	138.016000032
1600.0	0.000403	138.046999931
1600.0	0.000403	138.093999863
1610.0	0.000392	138.375
1610.0	0.0003883	138.405999899
1610.0	0.0003855	138.453000069
1610.0	0.000383	138.5
1610.0	0.0003808	138.530999899
1610.0	0.0003793	138.578000069
1610.0	0.000378	138.625
1610.0	0.0003768	138.655999899
1610.0	0.0003763	138.703000069
1610.0	0.0003755	138.733999968
1610.0	0.0003755	138.780999899
1610.0	0.0003753	138.828000069
1610.0	0.000375	138.858999968
1610.0	0.000375	138.905999899
1610.0	0.000375	138.953000069
1610.0	0.000375	138.983999968
1610.0	0.000375	139.030999899
1610.0	0.000375	139.078000069
1610.0	0.0003745	139.108999968
1610.0	0.000375	139.155999899
1610.0	0.0003745	139.187000036
1610.0	0.0003745	139.233999968
1610.0	0.0003745	139.280999899
1610.0	0.0003745	139.312000036
1610.0	0.0003745	139.358999968
1610.0	0.0003745	139.405999899
1610.0	0.000375	139.437000036
1610.0	0.0003753	139.483999968
1610.0	0.0003753	139.516000032
1610.0	0.0003753	139.562000036
1610.0	0.000375	139.608999968
1610.0	0.0003745	139.641000032
1610.0	0.0003745	139.687000036
1610.0	0.0003745	139.733999968
1610.0	0.0003743	139.766000032
1610.0	0.0003743	139.812000036
1610.0	0.0003743	139.843999863
1620.0	0.0003633	140.125
1620.0	0.0003593	140.171999931
1620.0	0.0003558	140.203000069
1620.0	0.000353	140.25
1620.0	0.0003513	140.296999931
1620.0	0.0003493	140.328000069
1620.0	0.000348	140.375
1620.0	0.0003468	140.405999899
1620.0	0.0003463	140.453000069
1620.0	0.0003458	140.5
1620.0	0.0003458	140.530999899
1620.0	0.0003458	140.578000069
1620.0	0.0003458	140.625
1620.0	0.0003458	140.655999899
1620.0	0.0003458	140.703000069
1620.0	0.0003458	140.75
1620.0	0.0003458	140.780999899
1620.0	0.0003455	140.828000069
1620.0	0.000345	140.858999968
1620.0	0.0003445	140.905999899
1620.0	0.0003443	140.953000069
1620.0	0.0003443	140.983999968
1620.0	0.000344	141.030999899
1620.0	0.000344	141.078000069
1620.0	0.000344	141.108999968
1620.0	0.0003443	141.155999899
1620.0	0.0003443	141.187000036
1620.0	0.0003443	141.233999968
1620.0	0.0003445	141.280999899
1620.0	0.0003445	141.312000036
1620.0	0.0003445	141.358999968
1620.0	0.0003445	141.405999899
1620.0	0.0003443	141.437000036
1620.0	0.000344	141.483999968
1620.0	0.000344	141.516000032
1620.0	0.0003438	141.562000036
1620.0	0.0003438	141.608999968
1630.0	0.000333	141.891000032
1630.0	0.0003288	141.921999931
1630.0	0.0003255	141.968999863
1630.0	0.0003225	142.0
1630.0	0.00032	142.046999931
1630.0	0.000318	142.093999863
1630.0	0.0003165	142.125
1630.0	0.0003158	142.171999931
1630.0	0.0003153	142.218999863
1630.0	0.0003145	142.25
1630.0	0.0003145	142.296999931
1630.0	0.0003145	142.328000069
1630.0	0.0003145	142.375
1630.0	0.0003145	142.421999931
1630.0	0.0003143	142.468999863
1630.0	0.0003143	142.5
1630.0	0.0003143	142.546999931
1630.0	0.0003143	142.593999863
1630.0	0.0003145	142.625
1630.0	0.0003143	142.671999931
1630.0	0.0003143	142.703000069
1630.0	0.0003143	142.75
1630.0	0.000314	142.796999931
1630.0	0.000314	142.828000069
1630.0	0.000314	142.875
1630.0	0.0003138	142.921999931
1630.0	0.0003143	142.953000069
1630.0	0.0003143	143.0
1630.0	0.0003145	143.030999899
1630.0	0.0003145	143.078000069
1630.0	0.0003145	143.125
1630.0	0.0003143	143.155999899
1630.0	0.0003143	143.203000069
1630.0	0.000314	143.25
1630.0	0.000314	143.280999899
1630.0	0.0003138	143.328000069
1630.0	0.0003138	143.375
1640.0	0.0003025	143.655999899
1640.0	0.0002983	143.703000069
1640.0	0.0002953	143.733999968
1640.0	0.0002925	143.780999899
1640.0	0.0002903	143.812000036
1640.0	0.0002888	143.858999968
1640.0	0.0002875	143.905999899
1640.0	0.0002865	143.937000036
1640.0	0.0002858	143.983999968
1640.0	0.0002853	144.030999899
1640.0	0.000285	144.062000036
1640.0	0.0002845	144.108999968
1640.0	0.0002843	144.141000032
1640.0	0.000284	144.187000036
1640.0	0.0002838	144.233999968
1640.0	0.0002833	144.266000032
1640.0	0.0002833	144.312000036
1640.0	0.0002838	144.358999968
1640.0	0.000284	144.391000032
1640.0	0.0002843	144.437000036
1640.0	0.000284	144.468999863
1640.0	0.000284	144.516000032
1640.0	0.000284	144.562000036
1640.0	0.0002843	144.593999863
1640.0	0.0002843	144.641000032
1640.0	0.0002843	144.687000036
1640.0	0.000284	144.718999863
1640.0	0.0002843	144.766000032
1640.0	0.0002843	144.796999931
1640.0	0.0002838	144.843999863
1640.0	0.0002838	144.891000032
1640.0	0.0002833	144.921999931
1640.0	0.0002838	144.968999863
1640.0	0.0002838	145.016000032
1640.0	0.0002838	145.046999931
1640.0	0.0002838	145.093999863
1640.0	0.0002833	145.125
1650.0	0.000272	145.421999931
1650.0	0.000268	145.453000069
1650.0	0.000265	145.5
1650.0	0.0002625	145.546999931
1650.0	0.0002605	145.578000069
1650.0	0.0002588	145.625
1650.0	0.000258	145.655999899
1650.0	0.000257	145.703000069
1650.0	0.0002563	145.75
1650.0	0.0002563	145.780999899
1650.0	0.0002555	145.828000069
1650.0	0.0002553	145.875
1650.0	0.0002553	145.905999899
1650.0	0.000255	145.953000069
1650.0	0.000255	145.983999968
1650.0	0.000255	146.030999899
1650.0	0.0002545	146.078000069
1650.0	0.000255	146.108999968
1650.0	0.0002545	146.155999899
1650.0	0.000255	146.203000069
1650.0	0.000255	146.233999968
1650.0	0.0002553	146.280999899
1650.0	0.0002553	146.312000036
1650.0	0.0002553	146.358999968
1650.0	0.000255	146.405999899
1650.0	0.0002545	146.437000036
1650.0	0.0002543	146.483999968
1650.0	0.0002543	146.530999899
1650.0	0.000254	146.562000036
1650.0	0.000254	146.608999968
1650.0	0.000254	146.655999899
1650.0	0.000254	146.687000036
1650.0	0.000254	146.733999968
1650.0	0.0002543	146.766000032
1650.0	0.0002543	146.812000036
1650.0	0.0002543	146.858999968
1650.0	0.0002545	146.891000032
1660.0	0.000244	147.171999931
1660.0	0.0002403	147.218999863
1660.0	0.000237	147.266000032
1660.0	0.0002345	147.296999931
1660.0	0.0002328	147.343999863
1660.0	0.0002313	147.391000032
1660.0	0.0002295	147.421999931
1660.0	0.000229	147.468999863
1660.0	0.000228	147.5
1660.0	0.0002275	147.546999931
1660.0	0.0002275	147.593999863
1660.0	0.000227	147.625
1660.0	0.0002268	147.671999931
1660.0	0.0002265	147.718999863
1660.0	0.0002265	147.75
1660.0	0.0002268	147.796999931
1660.0	0.0002268	147.843999863
1660.0	0.0002265	147.875
1660.0	0.0002265	147.921999931
1660.0	0.0002265	147.968999863
1660.0	0.0002265	148.0
1660.0	0.0002265	148.046999931
1660.0	0.0002265	148.093999863
1660.0	0.0002265	148.125
1660.0	0.0002265	148.171999931
1660.0	0.0002263	148.203000069
1660.0	0.0002263	148.25
1660.0	0.0002265	148.296999931
1660.0	0.0002265	148.328000069
1660.0	0.0002265	148.375
1660.0	0.0002265	148.421999931
1660.0	0.0002265	148.453000069
1660.0	0.0002268	148.5
1660.0	0.0002268	148.530999899
1660.0	0.0002268	148.578000069
1660.0	0.0002268	148.625
1660.0	0.0002268	148.655999899
1670.0	0.0002175	148.937000036
1670.0	0.0002138	148.983999968
1670.0	0.0002105	149.030999899
1670.0	0.0002083	149.062000036
1670.0	0.0002065	149.108999968
1670.0	0.000205	149.155999899
1670.0	0.000204	149.187000036
1670.0	0.0002033	149.233999968
1670.0	0.000203	149.280999899
1670.0	0.0002028	149.312000036
1670.0	0.0002028	149.358999968
1670.0	0.0002028	149.391000032
1670.0	0.0002025	149.437000036
1670.0	0.000202	149.483999968
1670.0	0.000202	149.516000032
1670.0	0.0002018	149.562000036
1670.0	0.000202	149.593999863
1670.0	0.000202	149.641000032
1670.0	0.000202	149.687000036
1670.0	0.000202	149.718999863
1670.0	0.000202	149.766000032
1670.0	0.000202	149.812000036
1670.0	0.0002025	149.843999863
1670.0	0.0002025	149.891000032
1670.0	0.0002025	149.937000036
1670.0	0.0002025	149.968999863
1670.0	0.0002025	150.016000032
1670.0	0.0002025	150.046999931
1670.0	0.0002025	150.093999863
1670.0	0.0002028	150.141000032
1670.0	0.0002028	150.171999931
1670.0	0.0002028	150.218999863
1670.0	0.0002025	150.266000032
1670.0	0.000202	150.296999931
1670.0	0.0002018	150.343999863
1670.0	0.0002025	150.375
1670.0	0.0002025	150.421999931
1680.0	0.0001938	150.703000069
1680.0	0.0001905	150.75
1680.0	0.0001878	150.796999931
1680.0	0.0001855	150.828000069
1680.0	0.0001838	150.875
1680.0	0.000182	150.921999931
1680.0	0.0001813	150.953000069
1680.0	0.0001805	151.0
1680.0	0.00018	151.046999931
1680.0	0.00018	151.078000069
1680.0	0.00018	151.125
1680.0	0.0001803	151.155999899
1680.0	0.0001805	151.203000069
1680.0	0.0001803	151.25
1680.0	0.0001803	151.280999899
1680.0	0.0001803	151.328000069
1680.0	0.0001795	151.375
1680.0	0.0001793	151.405999899
1680.0	0.0001793	151.453000069
1680.0	0.0001793	151.483999968
1680.0	0.0001793	151.530999899
1680.0	0.000179	151.578000069
1680.0	0.0001793	151.608999968
1680.0	0.000179	151.655999899
1680.0	0.000179	151.703000069
1680.0	0.0001793	151.733999968
1680.0	0.0001793	151.780999899
1680.0	0.0001793	151.812000036
1680.0	0.0001793	151.858999968
1680.0	0.0001793	151.905999899
1680.0	0.0001795	151.937000036
1680.0	0.0001795	151.983999968
1680.0	0.0001793	152.030999899
1680.0	0.0001793	152.062000036
1680.0	0.0001793	152.108999968
1680.0	0.000179	152.155999899
1690.0	0.0001715	152.437000036
1690.0	0.0001688	152.483999968
1690.0	0.000167	152.516000032
1690.0	0.0001655	152.562000036
1690.0	0.0001638	152.593999863
1690.0	0.0001628	152.641000032
1690.0	0.000162	152.687000036
1690.0	0.0001615	152.718999863
1690.0	0.0001613	152.766000032
1690.0	0.0001608	152.812000036
1690.0	0.0001608	152.843999863
1690.0	0.0001605	152.891000032
1690.0	0.0001603	152.937000036
1690.0	0.00016	152.968999863
1690.0	0.00016	153.016000032
1690.0	0.0001595	153.062000036
1690.0	0.00016	153.093999863
1690.0	0.0001603	153.141000032
1690.0	0.0001603	153.171999931
1690.0	0.0001605	153.218999863
1690.0	0.0001603	153.266000032
1690.0	0.00016	153.296999931
1690.0	0.00016	153.343999863
1690.0	0.0001595	153.391000032
1690.0	0.0001593	153.421999931
1690.0	0.000159	153.468999863
1690.0	0.0001588	153.5
1690.0	0.0001588	153.546999931
1690.0	0.0001588	153.593999863
1690.0	0.0001588	153.625
1690.0	0.000159	153.671999931
1690.0	0.000159	153.718999863
1690.0	0.000159	153.75
1690.0	0.0001593	153.796999931
1690.0	0.0001593	153.843999863
1690.0	0.00016	153.875
1690.0	0.00016	153.921999931
1700.0	0.0001533	154.203000069
1700.0	0.0001508	154.25
1700.0	0.000149	154.296999931
1700.0	0.0001475	154.328000069
1700.0	0.0001458	154.375
1700.0	0.000145	154.421999931
1700.0	0.0001443	154.453000069
1700.0	0.0001438	154.5
1700.0	0.0001433	154.530999899
1700.0	0.000143	154.578000069
1700.0	0.0001428	154.625
1700.0	0.0001428	154.655999899
1700.0	0.000143	154.703000069
1700.0	0.000143	154.75
1700.0	0.000143	154.780999899
1700.0	0.0001428	154.828000069
1700.0	0.0001425	154.858999968
1700.0	0.0001425	154.905999899
1700.0	0.000142	154.953000069
1700.0	0.000142	154.983999968
1700.0	0.0001425	155.030999899
1700.0	0.0001425	155.078000069
1700.0	0.000143	155.125
1700.0	0.000143	155.155999899
1700.0	0.0001433	155.203000069
1700.0	0.0001433	155.233999968
1700.0	0.0001433	155.280999899
1700.0	0.0001433	155.328000069
1700.0	0.0001433	155.358999968
1700.0	0.000143	155.405999899
1700.0	0.000143	155.453000069
1700.0	0.000143	155.483999968
1700.0	0.000143	155.530999899
1700.0	0.000143	155.562000036
1700.0	0.000143	155.608999968
1700.0	0.000143	155.655999899
1710.0	0.0001375	155.937000036
1710.0	0.0001353	155.983999968
1710.0	0.0001338	156.016000032
1710.0	0.0001325	156.062000036
1710.0	0.0001315	156.108999968
1710.0	0.0001305	156.141000032
1710.0	0.0001295	156.187000036
1710.0	0.0001293	156.218999863
1710.0	0.0001288	156.266000032
1710.0	0.0001283	156.312000036
1710.0	0.000128	156.343999863
1710.0	0.0001278	156.391000032
1710.0	0.0001275	156.437000036
1710.0	0.0001275	156.468999863
1710.0	0.000127	156.516000032
1710.0	0.000127	156.562000036
1710.0	0.0001275	156.593999863
1710.0	0.0001275	156.641000032
1710.0	0.0001275	156.671999931
1710.0	0.0001275	156.718999863
1710.0	0.000127	156.766000032
1710.0	0.000127	156.796999931
1710.0	0.000127	156.843999863
1710.0	0.000127	156.891000032
1710.0	0.0001275	156.921999931
1710.0	0.0001275	156.968999863
1710.0	0.0001278	157.0
1710.0	0.000128	157.046999931
1710.0	0.000128	157.093999863
1710.0	0.000128	157.125
1710.0	0.000128	157.171999931
1710.0	0.000128	157.218999863
1710.0	0.000128	157.25
1710.0	0.0001278	157.296999931
1710.0	0.0001275	157.328000069
1710.0	0.0001278	157.375
1710.0	0.0001275	157.421999931
1720.0	0.0001218	157.703000069
1720.0	0.0001203	157.75
1720.0	0.0001188	157.780999899
1720.0	0.0001178	157.828000069
1720.0	0.0001168	157.875
1720.0	0.0001163	157.905999899
1720.0	0.0001155	157.953000069
1720.0	0.0001153	158.0
1720.0	0.000115	158.030999899
1720.0	0.0001145	158.078000069
1720.0	0.0001143	158.108999968
1720.0	0.0001145	158.155999899
1720.0	0.0001143	158.203000069
1720.0	0.0001143	158.233999968
1720.0	0.0001143	158.280999899
1720.0	0.0001143	158.328000069
1720.0	0.000114	158.358999968
1720.0	0.000114	158.405999899
1720.0	0.0001138	158.437000036
1720.0	0.0001138	158.483999968
1720.0	0.000114	158.530999899
1720.0	0.000114	158.562000036
1720.0	0.0001143	158.608999968
1720.0	0.000114	158.655999899
1720.0	0.000114	158.687000036
1720.0	0.0001143	158.733999968
1720.0	0.0001143	158.780999899
1720.0	0.0001143	158.812000036
1720.0	0.0001143	158.858999968
1720.0	0.0001143	158.891000032
1720.0	0.0001145	158.937000036
1720.0	0.0001145	158.983999968
1720.0	0.0001145	159.030999899
1720.0	0.0001145	159.062000036
1720.0	0.0001143	159.108999968
1720.0	0.0001143	159.141000032
1720.0	0.0001145	159.187000036
1730.0	0.0001095	159.468999863
1730.0	0.0001088	159.516000032
1730.0	0.0001078	159.562000036
1730.0	0.0001068	159.593999863
1730.0	0.0001058	159.641000032
1730.0	0.0001053	159.687000036
1730.0	0.000105	159.718999863
1730.0	0.0001045	159.766000032
1730.0	0.0001043	159.796999931
1730.0	0.000104	159.843999863
1730.0	0.000104	159.891000032
1730.0	0.0001038	159.921999931
1730.0	0.0001033	159.968999863
1730.0	0.000103	160.016000032
1730.0	0.000103	160.046999931
1730.0	0.000103	160.093999863
1730.0	0.000103	160.125
1730.0	0.000103	160.171999931
1730.0	0.0001033	160.218999863
1730.0	0.000103	160.25
1730.0	0.000103	160.296999931
1730.0	0.000103	160.343999863
1730.0	0.000103	160.375
1730.0	0.0001033	160.421999931
1730.0	0.0001038	160.468999863
1730.0	0.0001038	160.5
1730.0	0.0001038	160.546999931
1730.0	0.0001033	160.578000069
1730.0	0.000103	160.625
1730.0	0.000103	160.671999931
1730.0	0.0001028	160.703000069
1730.0	0.000103	160.75
1730.0	0.000103	160.796999931
1730.0	0.000103	160.828000069
1730.0	0.000103	160.875
1730.0	0.000103	160.905999899
1730.0	0.0001038	160.953000069
1740.0	9.95e-05	161.25
1740.0	9.8e-05	161.280999899
1740.0	9.68e-05	161.328000069
1740.0	9.53e-05	161.375
1740.0	9.45e-05	161.405999899
1740.0	9.4e-05	161.453000069
1740.0	9.38e-05	161.5
1740.0	9.38e-05	161.530999899
1740.0	9.3e-05	161.578000069
1740.0	9.3e-05	161.608999968
1740.0	9.3e-05	161.655999899
1740.0	9.3e-05	161.703000069
1740.0	9.3e-05	161.733999968
1740.0	9.28e-05	161.780999899
1740.0	9.25e-05	161.828000069
1740.0	9.2e-05	161.858999968
1740.0	9.18e-05	161.905999899
1740.0	9.18e-05	161.937000036
1740.0	9.18e-05	161.983999968
1740.0	9.18e-05	162.030999899
1740.0	9.2e-05	162.062000036
1740.0	9.25e-05	162.108999968
1740.0	9.25e-05	162.155999899
1740.0	9.25e-05	162.187000036
1740.0	9.25e-05	162.233999968
1740.0	9.25e-05	162.266000032
1740.0	9.25e-05	162.312000036
1740.0	9.25e-05	162.358999968
1740.0	9.2e-05	162.405999899
1740.0	9.25e-05	162.437000036
1740.0	9.25e-05	162.483999968
1740.0	9.25e-05	162.516000032
1740.0	9.25e-05	162.562000036
1740.0	9.2e-05	162.608999968
1740.0	9.25e-05	162.641000032
1740.0	9.28e-05	162.687000036
1740.0	9.25e-05	162.733999968
1750.0	8.93e-05	163.030999899
1750.0	8.78e-05	163.062000036
1750.0	8.68e-05	163.108999968
1750.0	8.58e-05	163.141000032
1750.0	8.55e-05	163.187000036
1750.0	8.5e-05	163.233999968
1750.0	8.43e-05	163.266000032
1750.0	8.4e-05	163.312000036
1750.0	8.4e-05	163.358999968
1750.0	8.38e-05	163.391000032
1750.0	8.33e-05	163.437000036
1750.0	8.33e-05	163.468999863
1750.0	8.33e-05	163.516000032
1750.0	8.3e-05	163.562000036
1750.0	8.3e-05	163.593999863
1750.0	8.3e-05	163.641000032
1750.0	8.33e-05	163.687000036
1750.0	8.33e-05	163.718999863
1750.0	8.33e-05	163.766000032
1750.0	8.33e-05	163.796999931
1750.0	8.3e-05	163.843999863
1750.0	8.33e-05	163.891000032
1750.0	8.38e-05	163.921999931
1750.0	8.33e-05	163.968999863
1750.0	8.38e-05	164.016000032
1750.0	8.38e-05	164.046999931
1750.0	8.33e-05	164.093999863
1750.0	8.33e-05	164.141000032
1750.0	8.3e-05	164.171999931
1750.0	8.28e-05	164.218999863
1750.0	8.28e-05	164.266000032
1750.0	8.3e-05	164.296999931
1750.0	8.33e-05	164.343999863
1750.0	8.33e-05	164.391000032
1750.0	8.3e-05	164.421999931
1750.0	8.33e-05	164.468999863
1750.0	8.33e-05	164.5
1760.0	7.95e-05	164.812000036
1760.0	7.83e-05	164.858999968
1760.0	7.78e-05	164.891000032
1760.0	7.7e-05	164.937000036
1760.0	7.65e-05	164.968999863
1760.0	7.58e-05	165.016000032
1760.0	7.58e-05	165.062000036
1760.0	7.55e-05	165.093999863
1760.0	7.55e-05	165.141000032
1760.0	7.55e-05	165.187000036
1760.0	7.58e-05	165.218999863
1760.0	7.58e-05	165.266000032
1760.0	7.58e-05	165.296999931
1760.0	7.58e-05	165.343999863
1760.0	7.58e-05	165.391000032
1760.0	7.53e-05	165.421999931
1760.0	7.5e-05	165.468999863
1760.0	7.45e-05	165.516000032
1760.0	7.43e-05	165.546999931
1760.0	7.45e-05	165.593999863
1760.0	7.43e-05	165.625
1760.0	7.43e-05	165.671999931
1760.0	7.43e-05	165.718999863
1760.0	7.43e-05	165.75
1760.0	7.45e-05	165.796999931
1760.0	7.45e-05	165.843999863
1760.0	7.5e-05	165.875
1760.0	7.53e-05	165.921999931
1760.0	7.53e-05	165.968999863
1760.0	7.53e-05	166.0
1760.0	7.53e-05	166.046999931
1760.0	7.53e-05	166.078000069
1760.0	7.53e-05	166.125
1760.0	7.53e-05	166.171999931
1760.0	7.53e-05	166.203000069
1760.0	7.5e-05	166.25
1760.0	7.5e-05	166.296999931
1770.0	7.15e-05	166.593999863
1770.0	7.03e-05	166.641000032
1770.0	6.93e-05	166.671999931
1770.0	6.88e-05	166.718999863
1770.0	6.83e-05	166.75
1770.0	6.78e-05	166.796999931
1770.0	6.75e-05	166.843999863
1770.0	6.75e-05	166.875
1770.0	6.7e-05	166.921999931
1770.0	6.7e-05	166.968999863
1770.0	6.68e-05	167.0
1770.0	6.68e-05	167.046999931
1770.0	6.68e-05	167.093999863
1770.0	6.68e-05	167.125
1770.0	6.68e-05	167.171999931
1770.0	6.68e-05	167.218999863
1770.0	6.68e-05	167.25
1770.0	6.7e-05	167.296999931
1770.0	6.75e-05	167.343999863
1770.0	6.75e-05	167.375
1770.0	6.75e-05	167.421999931
1770.0	6.78e-05	167.453000069
1770.0	6.78e-05	167.5
1770.0	6.78e-05	167.546999931
1770.0	6.75e-05	167.578000069
1770.0	6.75e-05	167.625
1770.0	6.7e-05	167.671999931
1770.0	6.7e-05	167.703000069
1770.0	6.7e-05	167.75
1770.0	6.68e-05	167.780999899
1770.0	6.68e-05	167.828000069
1770.0	6.68e-05	167.875
1770.0	6.68e-05	167.921999931
1770.0	6.7e-05	167.953000069
1770.0	6.7e-05	168.0
1770.0	6.7e-05	168.030999899
1770.0	6.68e-05	168.078000069
1780.0	6.3e-05	168.391000032
1780.0	6.25e-05	168.421999931
1780.0	6.18e-05	168.468999863
1780.0	6.15e-05	168.5
1780.0	6.13e-05	168.546999931
1780.0	6.05e-05	168.593999863
1780.0	6.05e-05	168.625
1780.0	6.03e-05	168.671999931
1780.0	6.03e-05	168.718999863
1780.0	6.03e-05	168.75
1780.0	6e-05	168.796999931
1780.0	5.95e-05	168.828000069
1780.0	5.93e-05	168.875
1780.0	5.93e-05	168.921999931
1780.0	5.93e-05	168.953000069
1780.0	5.93e-05	169.0
1780.0	5.9e-05	169.046999931
1780.0	5.93e-05	169.078000069
1780.0	5.9e-05	169.125
1780.0	5.93e-05	169.171999931
1780.0	5.93e-05	169.203000069
1780.0	5.93e-05	169.25
1780.0	6e-05	169.280999899
1780.0	6e-05	169.328000069
1780.0	5.95e-05	169.375
1780.0	5.95e-05	169.405999899
1780.0	5.95e-05	169.453000069
1780.0	5.95e-05	169.5
1780.0	6e-05	169.530999899
1780.0	5.95e-05	169.578000069
1780.0	6e-05	169.625
1780.0	6e-05	169.655999899
1780.0	5.93e-05	169.703000069
1780.0	5.9e-05	169.75
1780.0	5.88e-05	169.780999899
1780.0	5.88e-05	169.828000069
1780.0	5.9e-05	169.858999968
1790.0	5.7e-05	170.171999931
1790.0	5.58e-05	170.218999863
1790.0	5.45e-05	170.25
1790.0	5.4e-05	170.296999931
1790.0	5.33e-05	170.343999863
1790.0	5.3e-05	170.375
1790.0	5.28e-05	170.421999931
1790.0	5.25e-05	170.468999863
1790.0	5.2e-05	170.5
1790.0	5.18e-05	170.546999931
1790.0	5.15e-05	170.578000069
1790.0	5.18e-05	170.625
1790.0	5.2e-05	170.671999931
1790.0	5.18e-05	170.703000069
1790.0	5.18e-05	170.75
1790.0	5.2e-05	170.796999931
1790.0	5.25e-05	170.828000069
1790.0	5.28e-05	170.875
1790.0	5.3e-05	170.905999899
1790.0	5.3e-05	170.953000069
1790.0	5.33e-05	171.0
1790.0	5.3e-05	171.030999899
1790.0	5.3e-05	171.078000069
1790.0	5.3e-05	171.125
1790.0	5.28e-05	171.155999899
1790.0	5.25e-05	171.203000069
1790.0	5.2e-05	171.25
1790.0	5.2e-05	171.280999899
1790.0	5.2e-05	171.328000069
1790.0	5.18e-05	171.358999968
1790.0	5.18e-05	171.405999899
1790.0	5.18e-05	171.453000069
1790.0	5.2e-05	171.483999968
1790.0	5.25e-05	171.530999899
1790.0	5.28e-05	171.578000069
1790.0	5.3e-05	171.608999968
1790.0	5.33e-05	171.655999899
1800.0	5.03e-05	171.953000069
1800.0	4.93e-05	172.0
1800.0	4.83e-05	172.046999931
1800.0	4.78e-05	172.078000069
1800.0	4.75e-05	172.125
1800.0	4.7e-05	172.171999931
1800.0	4.7e-05	172.203000069
1800.0	4.68e-05	172.25
1800.0	4.65e-05	172.296999931
1800.0	4.65e-05	172.328000069
1800.0	4.65e-05	172.375
1800.0	4.63e-05	172.405999899
1800.0	4.63e-05	172.453000069
1800.0	4.63e-05	172.5
1800.0	4.68e-05	172.530999899
1800.0	4.68e-05	172.578000069
1800.0	4.68e-05	172.625
1800.0	4.65e-05	172.655999899
1800.0	4.63e-05	172.703000069
1800.0	4.58e-05	172.733999968
1800.0	4.58e-05	172.780999899
1800.0	4.58e-05	172.828000069
1800.0	4.58e-05	172.858999968
1800.0	4.63e-05	172.905999899
1800.0	4.63e-05	172.953000069
1800.0	4.65e-05	172.983999968
1800.0	4.65e-05	173.030999899
1800.0	4.65e-05	173.062000036
1800.0	4.68e-05	173.108999968
1800.0	4.7e-05	173.155999899
1800.0	4.7e-05	173.187000036
1800.0	4.7e-05	173.233999968
1800.0	4.7e-05	173.280999899
1800.0	4.68e-05	173.312000036
1800.0	4.7e-05	173.358999968
1800.0	4.68e-05	173.405999899
1800.0	4.65e-05	173.437000036
