Your edit line - do NOT delete this line
Wavelength [nm], Voltage [V], Elapsed time [s]
900.0	6.43e-05	6.28200006485
900.0	6.38e-05	6.32800006866
900.0	6.28e-05	6.375
900.0	6.25e-05	6.40700006485
900.0	6.18e-05	6.45300006866
900.0	6.15e-05	6.4849998951
900.0	6.13e-05	6.53200006485
900.0	6.13e-05	6.57800006866
900.0	6.05e-05	6.6099998951
900.0	6.05e-05	6.65700006485
900.0	6e-05	6.70300006866
900.0	6e-05	6.7349998951
900.0	6e-05	6.78200006485
900.0	6e-05	6.81299996376
900.0	6e-05	6.8599998951
900.0	6e-05	6.90700006485
900.0	6e-05	6.93799996376
900.0	6e-05	6.9849998951
900.0	5.95e-05	7.03200006485
900.0	5.95e-05	7.06299996376
900.0	5.95e-05	7.1099998951
900.0	5.95e-05	7.15700006485
900.0	5.95e-05	7.18799996376
900.0	5.93e-05	7.2349998951
900.0	5.93e-05	7.28200006485
900.0	5.93e-05	7.31299996376
900.0	5.9e-05	7.3599998951
900.0	5.9e-05	7.40700006485
900.0	5.9e-05	7.43799996376
900.0	5.88e-05	7.4849998951
900.0	5.9e-05	7.51600003242
900.0	5.9e-05	7.56299996376
900.0	5.93e-05	7.6099998951
900.0	5.9e-05	7.64100003242
900.0	5.88e-05	7.68799996376
900.0	5.9e-05	7.7349998951
900.0	5.88e-05	7.76600003242
910.0	6.15e-05	8.07800006866
910.0	6.2e-05	8.1099998951
910.0	6.28e-05	8.15700006485
910.0	6.33e-05	8.20300006866
910.0	6.4e-05	8.2349998951
910.0	6.45e-05	8.28200006485
910.0	6.43e-05	8.31299996376
910.0	6.45e-05	8.3599998951
910.0	6.5e-05	8.40700006485
910.0	6.45e-05	8.43799996376
910.0	6.5e-05	8.4849998951
910.0	6.55e-05	8.53200006485
910.0	6.55e-05	8.56299996376
910.0	6.55e-05	8.6099998951
910.0	6.58e-05	8.64100003242
910.0	6.58e-05	8.68799996376
910.0	6.63e-05	8.7349998951
910.0	6.58e-05	8.76600003242
910.0	6.63e-05	8.81299996376
910.0	6.63e-05	8.8599998951
910.0	6.65e-05	8.89100003242
910.0	6.7e-05	8.93799996376
910.0	6.68e-05	8.9849998951
910.0	6.68e-05	9.01600003242
910.0	6.68e-05	9.06299996376
910.0	6.63e-05	9.09400010109
910.0	6.58e-05	9.14100003242
910.0	6.55e-05	9.18799996376
910.0	6.55e-05	9.21900010109
910.0	6.58e-05	9.26600003242
910.0	6.55e-05	9.31299996376
910.0	6.55e-05	9.34400010109
910.0	6.55e-05	9.39100003242
910.0	6.5e-05	9.42199993134
910.0	6.53e-05	9.46900010109
910.0	6.5e-05	9.51600003242
910.0	6.5e-05	9.54699993134
920.0	6.88e-05	9.8599998951
920.0	6.95e-05	9.90700006485
920.0	7.05e-05	9.93799996376
920.0	7.08e-05	9.9849998951
920.0	7.15e-05	10.0320000648
920.0	7.15e-05	10.0629999638
920.0	7.15e-05	10.1099998951
920.0	7.15e-05	10.1410000324
920.0	7.15e-05	10.1879999638
920.0	7.18e-05	10.2349998951
920.0	7.18e-05	10.2660000324
920.0	7.2e-05	10.3129999638
920.0	7.25e-05	10.3599998951
920.0	7.25e-05	10.3910000324
920.0	7.25e-05	10.4379999638
920.0	7.25e-05	10.4690001011
920.0	7.25e-05	10.5160000324
920.0	7.28e-05	10.5629999638
920.0	7.28e-05	10.5940001011
920.0	7.25e-05	10.6410000324
920.0	7.2e-05	10.6879999638
920.0	7.18e-05	10.7190001011
920.0	7.2e-05	10.7660000324
920.0	7.25e-05	10.7969999313
920.0	7.25e-05	10.8440001011
920.0	7.2e-05	10.8910000324
920.0	7.2e-05	10.9219999313
920.0	7.2e-05	10.9690001011
920.0	7.25e-05	11.0160000324
920.0	7.25e-05	11.0469999313
920.0	7.25e-05	11.0940001011
920.0	7.2e-05	11.1410000324
920.0	7.18e-05	11.1719999313
920.0	7.18e-05	11.2190001011
920.0	7.15e-05	11.25
920.0	7.15e-05	11.2969999313
920.0	7.18e-05	11.3440001011
930.0	7.55e-05	11.6410000324
930.0	7.68e-05	11.6879999638
930.0	7.75e-05	11.7190001011
930.0	7.8e-05	11.7660000324
930.0	7.88e-05	11.8129999638
930.0	7.9e-05	11.8440001011
930.0	7.93e-05	11.8910000324
930.0	7.93e-05	11.9379999638
930.0	7.95e-05	11.9690001011
930.0	8e-05	12.0160000324
930.0	7.95e-05	12.0469999313
930.0	8e-05	12.0940001011
930.0	8e-05	12.1410000324
930.0	7.95e-05	12.1719999313
930.0	8e-05	12.2190001011
930.0	8.03e-05	12.2660000324
930.0	8.05e-05	12.2969999313
930.0	8.05e-05	12.3440001011
930.0	8.05e-05	12.375
930.0	8.08e-05	12.4219999313
930.0	8.08e-05	12.4690001011
930.0	8.15e-05	12.5
930.0	8.13e-05	12.5469999313
930.0	8.13e-05	12.5940001011
930.0	8.13e-05	12.625
930.0	8.08e-05	12.6719999313
930.0	8.08e-05	12.7030000687
930.0	8.05e-05	12.75
930.0	8.03e-05	12.7969999313
930.0	8.03e-05	12.8280000687
930.0	8.03e-05	12.875
930.0	8.03e-05	12.9219999313
930.0	8.03e-05	12.9530000687
930.0	8e-05	13.0
930.0	8e-05	13.0469999313
930.0	8.03e-05	13.0780000687
930.0	8.03e-05	13.125
940.0	8.43e-05	13.4219999313
940.0	8.53e-05	13.4690001011
940.0	8.65e-05	13.5
940.0	8.7e-05	13.5469999313
940.0	8.75e-05	13.5780000687
940.0	8.78e-05	13.625
940.0	8.78e-05	13.6719999313
940.0	8.78e-05	13.7030000687
940.0	8.78e-05	13.75
940.0	8.75e-05	13.7969999313
940.0	8.75e-05	13.8280000687
940.0	8.7e-05	13.875
940.0	8.75e-05	13.9070000648
940.0	8.75e-05	13.9530000687
940.0	8.75e-05	14.0
940.0	8.78e-05	14.0320000648
940.0	8.8e-05	14.0780000687
940.0	8.78e-05	14.125
940.0	8.8e-05	14.1570000648
940.0	8.8e-05	14.2030000687
940.0	8.8e-05	14.2349998951
940.0	8.8e-05	14.2820000648
940.0	8.8e-05	14.3280000687
940.0	8.8e-05	14.3599998951
940.0	8.8e-05	14.4070000648
940.0	8.78e-05	14.4530000687
940.0	8.83e-05	14.5
940.0	8.83e-05	14.5320000648
940.0	8.83e-05	14.5780000687
940.0	8.83e-05	14.6099998951
940.0	8.88e-05	14.6570000648
940.0	8.88e-05	14.7030000687
940.0	8.83e-05	14.75
940.0	8.83e-05	14.7820000648
940.0	8.83e-05	14.8280000687
940.0	8.83e-05	14.8599998951
940.0	8.88e-05	14.9070000648
950.0	9.2e-05	15.1879999638
950.0	9.33e-05	15.2349998951
950.0	9.4e-05	15.2820000648
950.0	9.45e-05	15.3129999638
950.0	9.53e-05	15.3599998951
950.0	9.53e-05	15.4070000648
950.0	9.53e-05	15.4379999638
950.0	9.55e-05	15.4849998951
950.0	9.58e-05	15.5160000324
950.0	9.63e-05	15.5629999638
950.0	9.63e-05	15.6099998951
950.0	9.63e-05	15.6410000324
950.0	9.63e-05	15.6879999638
950.0	9.63e-05	15.7349998951
950.0	9.63e-05	15.7660000324
950.0	9.63e-05	15.8129999638
950.0	9.63e-05	15.8599998951
950.0	9.65e-05	15.8910000324
950.0	9.65e-05	15.9379999638
950.0	9.63e-05	15.9690001011
950.0	9.63e-05	16.0160000324
950.0	9.63e-05	16.0629999638
950.0	9.65e-05	16.0940001011
950.0	9.68e-05	16.1410000324
950.0	9.65e-05	16.1879999638
950.0	9.7e-05	16.2190001011
950.0	9.75e-05	16.2660000324
950.0	9.75e-05	16.2969999313
950.0	9.75e-05	16.3440001011
950.0	9.68e-05	16.3910000324
950.0	9.65e-05	16.4219999313
950.0	9.65e-05	16.4690001011
950.0	9.63e-05	16.5160000324
950.0	9.65e-05	16.5469999313
950.0	9.63e-05	16.5940001011
950.0	9.63e-05	16.625
950.0	9.65e-05	16.6719999313
960.0	9.93e-05	16.9690001011
960.0	0.0001003	17.0
960.0	0.0001008	17.0469999313
960.0	0.0001018	17.0780000687
960.0	0.0001028	17.125
960.0	0.000103	17.1719999313
960.0	0.0001038	17.2030000687
960.0	0.000104	17.25
960.0	0.0001043	17.2969999313
960.0	0.0001045	17.3280000687
960.0	0.0001043	17.375
960.0	0.000105	17.4070000648
960.0	0.000105	17.4530000687
960.0	0.0001045	17.5
960.0	0.0001045	17.5320000648
960.0	0.0001043	17.5780000687
960.0	0.0001043	17.625
960.0	0.0001045	17.6570000648
960.0	0.0001045	17.7030000687
960.0	0.000105	17.7349998951
960.0	0.000105	17.7820000648
960.0	0.0001045	17.8280000687
960.0	0.0001045	17.8599998951
960.0	0.0001043	17.9070000648
960.0	0.0001043	17.9530000687
960.0	0.0001043	17.9849998951
960.0	0.0001043	18.0320000648
960.0	0.0001045	18.0629999638
960.0	0.0001045	18.1099998951
960.0	0.0001043	18.1570000648
960.0	0.0001045	18.1879999638
960.0	0.0001045	18.2349998951
960.0	0.0001045	18.2820000648
960.0	0.0001045	18.3129999638
960.0	0.0001043	18.3599998951
960.0	0.0001045	18.3910000324
960.0	0.0001043	18.4379999638
970.0	0.0001088	18.7190001011
970.0	0.0001095	18.7660000324
970.0	0.0001103	18.8129999638
970.0	0.0001108	18.8440001011
970.0	0.0001113	18.8910000324
970.0	0.0001118	18.9219999313
970.0	0.0001118	18.9690001011
970.0	0.0001118	19.0160000324
970.0	0.0001118	19.0469999313
970.0	0.0001118	19.0940001011
970.0	0.0001118	19.1410000324
970.0	0.0001118	19.1719999313
970.0	0.0001115	19.2190001011
970.0	0.0001118	19.25
970.0	0.000112	19.2969999313
970.0	0.0001125	19.3440001011
970.0	0.0001128	19.375
970.0	0.0001125	19.4219999313
970.0	0.0001125	19.4690001011
970.0	0.0001128	19.5
970.0	0.0001125	19.5469999313
970.0	0.0001125	19.5780000687
970.0	0.0001125	19.625
970.0	0.0001125	19.6719999313
970.0	0.000113	19.7030000687
970.0	0.000113	19.75
970.0	0.000113	19.7969999313
970.0	0.000113	19.8280000687
970.0	0.0001128	19.875
970.0	0.000113	19.9219999313
970.0	0.0001128	19.9530000687
970.0	0.0001125	20.0
970.0	0.0001128	20.0320000648
970.0	0.0001125	20.0780000687
970.0	0.0001128	20.125
970.0	0.000113	20.1570000648
970.0	0.0001128	20.2030000687
980.0	0.0001168	20.4849998951
980.0	0.0001175	20.5320000648
980.0	0.000119	20.5629999638
980.0	0.00012	20.6099998951
980.0	0.0001205	20.6570000648
980.0	0.0001215	20.6879999638
980.0	0.0001215	20.7349998951
980.0	0.0001218	20.7660000324
980.0	0.0001225	20.8129999638
980.0	0.000122	20.8599998951
980.0	0.0001225	20.8910000324
980.0	0.0001225	20.9379999638
980.0	0.000122	20.9849998951
980.0	0.0001225	21.0160000324
980.0	0.0001225	21.0629999638
980.0	0.0001228	21.0940001011
980.0	0.0001228	21.1410000324
980.0	0.0001228	21.1879999638
980.0	0.0001228	21.2190001011
980.0	0.0001225	21.2660000324
980.0	0.000122	21.3129999638
980.0	0.0001225	21.3440001011
980.0	0.0001225	21.3910000324
980.0	0.0001225	21.4219999313
980.0	0.0001228	21.4690001011
980.0	0.000122	21.5160000324
980.0	0.000122	21.5469999313
980.0	0.000122	21.5940001011
980.0	0.0001218	21.6410000324
980.0	0.000122	21.6719999313
980.0	0.000122	21.7190001011
980.0	0.0001225	21.7660000324
980.0	0.000123	21.7969999313
980.0	0.0001228	21.8440001011
980.0	0.0001225	21.875
980.0	0.0001225	21.9219999313
980.0	0.0001225	21.9690001011
990.0	0.000127	22.2349998951
990.0	0.000128	22.2820000648
990.0	0.0001293	22.3280000687
990.0	0.00013	22.375
990.0	0.0001303	22.4070000648
990.0	0.0001305	22.4530000687
990.0	0.0001308	22.5
990.0	0.0001313	22.5320000648
990.0	0.0001308	22.5780000687
990.0	0.0001305	22.6099998951
990.0	0.0001308	22.6570000648
990.0	0.0001313	22.7030000687
990.0	0.0001313	22.7349998951
990.0	0.0001313	22.7820000648
990.0	0.0001308	22.8280000687
990.0	0.0001313	22.8599998951
990.0	0.0001313	22.9070000648
990.0	0.0001308	22.9379999638
990.0	0.0001313	22.9849998951
990.0	0.0001308	23.0320000648
990.0	0.0001313	23.0629999638
990.0	0.0001315	23.1099998951
990.0	0.0001313	23.1570000648
990.0	0.0001315	23.1879999638
990.0	0.0001313	23.2349998951
990.0	0.0001308	23.2820000648
990.0	0.0001315	23.3129999638
990.0	0.0001315	23.3599998951
990.0	0.0001315	23.3910000324
990.0	0.0001315	23.4379999638
990.0	0.0001315	23.4849998951
990.0	0.0001315	23.5160000324
990.0	0.0001313	23.5629999638
990.0	0.0001308	23.6099998951
990.0	0.0001313	23.6410000324
990.0	0.0001305	23.6879999638
990.0	0.0001305	23.7190001011
1000.0	0.0001343	24.0
1000.0	0.0001358	24.0469999313
1000.0	0.000137	24.0940001011
1000.0	0.000138	24.125
1000.0	0.000139	24.1719999313
1000.0	0.0001395	24.2030000687
1000.0	0.00014	24.25
1000.0	0.0001403	24.2969999313
1000.0	0.0001403	24.3280000687
1000.0	0.0001403	24.375
1000.0	0.0001405	24.4219999313
1000.0	0.0001403	24.4530000687
1000.0	0.0001405	24.5
1000.0	0.0001405	24.5469999313
1000.0	0.0001403	24.5780000687
1000.0	0.0001405	24.625
1000.0	0.0001405	24.6570000648
1000.0	0.0001405	24.7030000687
1000.0	0.0001405	24.75
1000.0	0.0001405	24.7820000648
1000.0	0.0001408	24.8280000687
1000.0	0.0001408	24.8599998951
1000.0	0.0001403	24.9070000648
1000.0	0.0001405	24.9530000687
1000.0	0.00014	24.9849998951
1000.0	0.0001395	25.0320000648
1000.0	0.0001395	25.0780000687
1000.0	0.0001395	25.1099998951
1000.0	0.00014	25.1570000648
1000.0	0.00014	25.2030000687
1000.0	0.00014	25.2349998951
1000.0	0.0001403	25.2820000648
1000.0	0.0001405	25.3129999638
1000.0	0.0001405	25.3599998951
1000.0	0.0001408	25.4070000648
1000.0	0.0001408	25.4379999638
1000.0	0.0001408	25.4849998951
1010.0	0.0001438	25.7660000324
1010.0	0.0001455	25.7969999313
1010.0	0.0001475	25.8440001011
1010.0	0.0001483	25.8910000324
1010.0	0.0001495	25.9219999313
1010.0	0.0001503	25.9690001011
1010.0	0.0001508	26.0160000324
1010.0	0.0001513	26.0469999313
1010.0	0.0001513	26.0940001011
1010.0	0.0001515	26.125
1010.0	0.0001518	26.1719999313
1010.0	0.0001515	26.2190001011
1010.0	0.0001518	26.25
1010.0	0.0001515	26.2969999313
1010.0	0.0001515	26.3440001011
1010.0	0.0001518	26.375
1010.0	0.000152	26.4219999313
1010.0	0.000152	26.4690001011
1010.0	0.000152	26.5
1010.0	0.0001518	26.5469999313
1010.0	0.0001515	26.5780000687
1010.0	0.0001515	26.625
1010.0	0.0001513	26.6719999313
1010.0	0.0001518	26.7030000687
1010.0	0.0001518	26.75
1010.0	0.000152	26.7969999313
1010.0	0.0001518	26.8280000687
1010.0	0.000152	26.875
1010.0	0.0001525	26.9070000648
1010.0	0.0001525	26.9530000687
1010.0	0.000152	27.0
1010.0	0.000152	27.0320000648
1010.0	0.0001518	27.0780000687
1010.0	0.000152	27.125
1010.0	0.0001515	27.1570000648
1010.0	0.0001513	27.2030000687
1010.0	0.0001513	27.2349998951
1020.0	0.0001553	27.5160000324
1020.0	0.0001568	27.5629999638
1020.0	0.000158	27.6099998951
1020.0	0.0001593	27.6410000324
1020.0	0.0001603	27.6879999638
1020.0	0.0001605	27.7190001011
1020.0	0.0001613	27.7660000324
1020.0	0.0001615	27.8129999638
1020.0	0.0001618	27.8440001011
1020.0	0.0001618	27.8910000324
1020.0	0.0001618	27.9379999638
1020.0	0.0001618	27.9690001011
1020.0	0.0001618	28.0160000324
1020.0	0.0001615	28.0629999638
1020.0	0.0001613	28.0940001011
1020.0	0.0001613	28.1410000324
1020.0	0.0001613	28.1719999313
1020.0	0.0001613	28.2190001011
1020.0	0.0001613	28.2660000324
1020.0	0.0001613	28.2969999313
1020.0	0.0001613	28.3440001011
1020.0	0.0001613	28.3910000324
1020.0	0.0001613	28.4219999313
1020.0	0.0001613	28.4690001011
1020.0	0.0001615	28.5
1020.0	0.0001615	28.5469999313
1020.0	0.0001618	28.5940001011
1020.0	0.0001618	28.6410000324
1020.0	0.000162	28.6719999313
1020.0	0.0001625	28.7190001011
1020.0	0.0001628	28.75
1020.0	0.0001628	28.7969999313
1020.0	0.0001628	28.8440001011
1020.0	0.0001628	28.875
1020.0	0.0001628	28.9219999313
1020.0	0.0001625	28.9690001011
1020.0	0.0001625	29.0
1030.0	0.0001663	29.2820000648
1030.0	0.0001678	29.3280000687
1030.0	0.000169	29.3599998951
1030.0	0.00017	29.4070000648
1030.0	0.0001708	29.4530000687
1030.0	0.0001718	29.4849998951
1030.0	0.0001725	29.5320000648
1030.0	0.0001728	29.5629999638
1030.0	0.000173	29.6099998951
1030.0	0.0001733	29.6570000648
1030.0	0.0001733	29.6879999638
1030.0	0.0001738	29.7349998951
1030.0	0.0001733	29.7820000648
1030.0	0.0001733	29.8129999638
1030.0	0.0001738	29.8599998951
1030.0	0.0001738	29.9070000648
1030.0	0.000174	29.9379999638
1030.0	0.000174	29.9849998951
1030.0	0.0001743	30.0320000648
1030.0	0.0001743	30.0629999638
1030.0	0.0001745	30.1099998951
1030.0	0.0001745	30.1570000648
1030.0	0.0001743	30.1879999638
1030.0	0.000174	30.2349998951
1030.0	0.000174	30.2660000324
1030.0	0.000174	30.3129999638
1030.0	0.0001738	30.3599998951
1030.0	0.0001738	30.3910000324
1030.0	0.000174	30.4379999638
1030.0	0.000174	30.4849998951
1030.0	0.0001743	30.5160000324
1030.0	0.0001743	30.5629999638
1030.0	0.0001743	30.5940001011
1030.0	0.0001743	30.6410000324
1030.0	0.0001743	30.6879999638
1030.0	0.0001745	30.7190001011
1030.0	0.0001745	30.7660000324
1040.0	0.000179	31.0469999313
1040.0	0.0001805	31.0940001011
1040.0	0.0001818	31.125
1040.0	0.000183	31.1719999313
1040.0	0.000184	31.2030000687
1040.0	0.000185	31.25
1040.0	0.0001858	31.2969999313
1040.0	0.0001858	31.3280000687
1040.0	0.0001863	31.375
1040.0	0.0001865	31.4219999313
1040.0	0.0001865	31.4530000687
1040.0	0.0001868	31.5
1040.0	0.0001868	31.5320000648
1040.0	0.0001868	31.5780000687
1040.0	0.0001868	31.625
1040.0	0.0001865	31.6570000648
1040.0	0.0001868	31.7030000687
1040.0	0.0001865	31.75
1040.0	0.0001865	31.7820000648
1040.0	0.0001868	31.8280000687
1040.0	0.000187	31.875
1040.0	0.0001875	31.9070000648
1040.0	0.0001878	31.9530000687
1040.0	0.0001875	32.0
1040.0	0.000187	32.0320000648
1040.0	0.0001868	32.0780000687
1040.0	0.0001868	32.1099998951
1040.0	0.0001865	32.1570000648
1040.0	0.0001865	32.2030000687
1040.0	0.0001868	32.2349998951
1040.0	0.0001865	32.2820000648
1040.0	0.0001865	32.3280000687
1040.0	0.0001868	32.3599998951
1040.0	0.0001868	32.4070000648
1040.0	0.000187	32.4379999638
1040.0	0.0001868	32.4849998951
1040.0	0.000187	32.5320000648
1050.0	0.0001918	32.8129999638
1050.0	0.0001938	32.8599998951
1050.0	0.0001953	32.8910000324
1050.0	0.0001965	32.9379999638
1050.0	0.0001975	32.9690001011
1050.0	0.0001983	33.0160000324
1050.0	0.0001988	33.0629999638
1050.0	0.0001993	33.0940001011
1050.0	0.0001993	33.1410000324
1050.0	0.0001993	33.1879999638
1050.0	0.0001993	33.2190001011
1050.0	0.0001993	33.2660000324
1050.0	0.0001993	33.2969999313
1050.0	0.0001993	33.3440001011
1050.0	0.0001995	33.3910000324
1050.0	0.0001995	33.4219999313
1050.0	0.0001995	33.4690001011
1050.0	0.0001993	33.5160000324
1050.0	0.0001993	33.5469999313
1050.0	0.0001993	33.5940001011
1050.0	0.0001993	33.625
1050.0	0.0001995	33.6719999313
1050.0	0.0002	33.7190001011
1050.0	0.0001995	33.75
1050.0	0.0001993	33.7969999313
1050.0	0.0001993	33.8440001011
1050.0	0.0001993	33.875
1050.0	0.0001995	33.9219999313
1050.0	0.0001995	33.9690001011
1050.0	0.0002003	34.0
1050.0	0.0002005	34.0469999313
1050.0	0.0002003	34.0780000687
1050.0	0.0002	34.125
1050.0	0.000199	34.1719999313
1050.0	0.0001988	34.2030000687
1050.0	0.000199	34.25
1050.0	0.0001988	34.2969999313
1060.0	0.000204	34.5629999638
1060.0	0.0002058	34.6099998951
1060.0	0.0002075	34.6570000648
1060.0	0.000209	34.6879999638
1060.0	0.0002103	34.7349998951
1060.0	0.0002113	34.7820000648
1060.0	0.0002118	34.8129999638
1060.0	0.000212	34.8599998951
1060.0	0.000212	34.8910000324
1060.0	0.0002125	34.9379999638
1060.0	0.0002125	34.9849998951
1060.0	0.0002125	35.0160000324
1060.0	0.0002128	35.0629999638
1060.0	0.0002128	35.1099998951
1060.0	0.000213	35.1410000324
1060.0	0.000213	35.1879999638
1060.0	0.0002133	35.2190001011
1060.0	0.0002133	35.2660000324
1060.0	0.0002138	35.3129999638
1060.0	0.0002133	35.3440001011
1060.0	0.000213	35.3910000324
1060.0	0.0002133	35.4379999638
1060.0	0.0002133	35.4690001011
1060.0	0.0002138	35.5160000324
1060.0	0.000214	35.5469999313
1060.0	0.000214	35.5940001011
1060.0	0.000214	35.6410000324
1060.0	0.0002138	35.6719999313
1060.0	0.0002133	35.7190001011
1060.0	0.0002133	35.7660000324
1060.0	0.000213	35.7969999313
1060.0	0.000213	35.8440001011
1060.0	0.000213	35.8910000324
1060.0	0.0002128	35.9219999313
1060.0	0.0002128	35.9690001011
1060.0	0.000213	36.0
1060.0	0.0002133	36.0469999313
1070.0	0.0002183	36.3280000687
1070.0	0.00022	36.3599998951
1070.0	0.0002215	36.4070000648
1070.0	0.0002225	36.4530000687
1070.0	0.0002233	36.4849998951
1070.0	0.000224	36.5320000648
1070.0	0.0002243	36.5780000687
1070.0	0.000225	36.6099998951
1070.0	0.0002253	36.6570000648
1070.0	0.0002253	36.7030000687
1070.0	0.0002255	36.7349998951
1070.0	0.0002255	36.7820000648
1070.0	0.0002253	36.8129999638
1070.0	0.0002253	36.8599998951
1070.0	0.000225	36.9070000648
1070.0	0.000225	36.9530000687
1070.0	0.0002243	36.9849998951
1070.0	0.0002243	37.0320000648
1070.0	0.0002243	37.0629999638
1070.0	0.0002245	37.1099998951
1070.0	0.0002253	37.1570000648
1070.0	0.0002253	37.1879999638
1070.0	0.0002258	37.2349998951
1070.0	0.0002263	37.2820000648
1070.0	0.0002258	37.3129999638
1070.0	0.0002263	37.3599998951
1070.0	0.0002258	37.3910000324
1070.0	0.0002258	37.4379999638
1070.0	0.0002258	37.4849998951
1070.0	0.0002263	37.5160000324
1070.0	0.0002258	37.5629999638
1070.0	0.0002258	37.6099998951
1070.0	0.0002258	37.6410000324
1070.0	0.0002258	37.6879999638
1070.0	0.0002263	37.7349998951
1070.0	0.0002255	37.7660000324
1070.0	0.0002255	37.8129999638
1080.0	0.0002305	38.0940001011
1080.0	0.000232	38.125
1080.0	0.0002333	38.1719999313
1080.0	0.0002343	38.2190001011
1080.0	0.0002353	38.25
1080.0	0.0002358	38.2969999313
1080.0	0.0002368	38.3280000687
1080.0	0.0002375	38.375
1080.0	0.0002375	38.4219999313
1080.0	0.0002383	38.4530000687
1080.0	0.0002388	38.5
1080.0	0.0002388	38.5469999313
1080.0	0.0002393	38.5780000687
1080.0	0.0002393	38.625
1080.0	0.000239	38.6570000648
1080.0	0.0002393	38.7030000687
1080.0	0.000239	38.75
1080.0	0.000239	38.7820000648
1080.0	0.0002388	38.8280000687
1080.0	0.0002388	38.875
1080.0	0.000239	38.9070000648
1080.0	0.000239	38.9530000687
1080.0	0.0002388	38.9849998951
1080.0	0.0002388	39.0320000648
1080.0	0.0002383	39.0780000687
1080.0	0.0002383	39.1099998951
1080.0	0.0002383	39.1570000648
1080.0	0.0002383	39.2030000687
1080.0	0.0002388	39.2349998951
1080.0	0.0002388	39.2820000648
1080.0	0.0002388	39.3280000687
1080.0	0.0002388	39.3599998951
1080.0	0.0002383	39.4070000648
1080.0	0.0002383	39.4379999638
1080.0	0.0002383	39.4849998951
1080.0	0.0002388	39.5320000648
1080.0	0.0002388	39.5629999638
1090.0	0.0002433	39.8440001011
1090.0	0.0002445	39.8910000324
1090.0	0.0002458	39.9219999313
1090.0	0.0002468	39.9690001011
1090.0	0.0002478	40.0
1090.0	0.0002488	40.0469999313
1090.0	0.0002493	40.0940001011
1090.0	0.0002503	40.125
1090.0	0.0002503	40.1719999313
1090.0	0.0002503	40.2190001011
1090.0	0.0002503	40.25
1090.0	0.00025	40.2969999313
1090.0	0.0002495	40.3280000687
1090.0	0.0002493	40.375
1090.0	0.0002493	40.4219999313
1090.0	0.0002493	40.4530000687
1090.0	0.000249	40.5
1090.0	0.0002493	40.5469999313
1090.0	0.0002495	40.5780000687
1090.0	0.0002493	40.625
1090.0	0.0002495	40.6570000648
1090.0	0.0002495	40.7030000687
1090.0	0.0002495	40.75
1090.0	0.0002493	40.7820000648
1090.0	0.0002493	40.8280000687
1090.0	0.0002495	40.875
1090.0	0.0002493	40.9070000648
1090.0	0.0002488	40.9530000687
1090.0	0.0002488	41.0
1090.0	0.0002488	41.0320000648
1090.0	0.0002488	41.0780000687
1090.0	0.000249	41.1099998951
1090.0	0.0002493	41.1570000648
1090.0	0.0002493	41.2030000687
1090.0	0.000249	41.2349998951
1090.0	0.0002493	41.2820000648
1090.0	0.0002493	41.3280000687
1100.0	0.0002528	41.5940001011
1100.0	0.0002543	41.625
1100.0	0.000255	41.6719999313
1100.0	0.0002558	41.7190001011
1100.0	0.0002568	41.75
1100.0	0.000257	41.7969999313
1100.0	0.0002575	41.8280000687
1100.0	0.0002578	41.875
1100.0	0.000258	41.9219999313
1100.0	0.0002583	41.9530000687
1100.0	0.0002588	42.0
1100.0	0.0002588	42.0469999313
1100.0	0.0002588	42.0780000687
1100.0	0.0002583	42.125
1100.0	0.0002583	42.1570000648
1100.0	0.0002588	42.2030000687
1100.0	0.0002588	42.25
1100.0	0.0002588	42.2820000648
1100.0	0.0002588	42.3280000687
1100.0	0.0002583	42.375
1100.0	0.0002583	42.4070000648
1100.0	0.0002588	42.4530000687
1100.0	0.000259	42.4849998951
1100.0	0.0002593	42.5320000648
1100.0	0.0002593	42.5780000687
1100.0	0.0002593	42.6099998951
1100.0	0.0002595	42.6570000648
1100.0	0.0002593	42.7030000687
1100.0	0.0002595	42.7349998951
1100.0	0.0002595	42.7820000648
1100.0	0.0002595	42.8129999638
1100.0	0.0002593	42.8599998951
1100.0	0.0002593	42.9070000648
1100.0	0.0002595	42.9379999638
1100.0	0.0002595	42.9849998951
1100.0	0.0002593	43.0320000648
1100.0	0.0002593	43.0629999638
1110.0	0.0002625	43.3440001011
1110.0	0.000263	43.375
1110.0	0.0002638	43.4219999313
1110.0	0.0002643	43.4690001011
1110.0	0.0002653	43.5
1110.0	0.0002658	43.5469999313
1110.0	0.0002663	43.5780000687
1110.0	0.0002663	43.625
1110.0	0.0002663	43.6719999313
1110.0	0.0002665	43.7030000687
1110.0	0.0002668	43.75
1110.0	0.0002665	43.7969999313
1110.0	0.0002665	43.8280000687
1110.0	0.0002663	43.875
1110.0	0.0002665	43.9070000648
1110.0	0.0002665	43.9530000687
1110.0	0.0002665	44.0
1110.0	0.0002668	44.0320000648
1110.0	0.0002668	44.0780000687
1110.0	0.000267	44.125
1110.0	0.0002668	44.1570000648
1110.0	0.0002668	44.2030000687
1110.0	0.000267	44.2349998951
1110.0	0.000267	44.2820000648
1110.0	0.0002675	44.3280000687
1110.0	0.0002675	44.3599998951
1110.0	0.0002675	44.4070000648
1110.0	0.000267	44.4530000687
1110.0	0.000267	44.4849998951
1110.0	0.0002668	44.5320000648
1110.0	0.0002665	44.5629999638
1110.0	0.0002665	44.6099998951
1110.0	0.0002665	44.6570000648
1110.0	0.0002665	44.6879999638
1110.0	0.0002665	44.7349998951
1110.0	0.0002663	44.7820000648
1110.0	0.0002663	44.8129999638
1120.0	0.000268	45.0780000687
1120.0	0.0002683	45.125
1120.0	0.0002688	45.1719999313
1120.0	0.0002695	45.2030000687
1120.0	0.0002703	45.25
1120.0	0.0002708	45.2820000648
1120.0	0.0002713	45.3280000687
1120.0	0.000272	45.375
1120.0	0.0002725	45.4070000648
1120.0	0.0002725	45.4530000687
1120.0	0.000272	45.5
1120.0	0.0002718	45.5320000648
1120.0	0.000272	45.5780000687
1120.0	0.000272	45.6099998951
1120.0	0.0002718	45.6570000648
1120.0	0.000272	45.7030000687
1120.0	0.000272	45.7349998951
1120.0	0.0002718	45.7820000648
1120.0	0.000272	45.8280000687
1120.0	0.0002718	45.8599998951
1120.0	0.0002718	45.9070000648
1120.0	0.0002715	45.9530000687
1120.0	0.0002715	45.9849998951
1120.0	0.000272	46.0320000648
1120.0	0.0002725	46.0629999638
1120.0	0.0002725	46.1099998951
1120.0	0.000273	46.1570000648
1120.0	0.000273	46.1879999638
1120.0	0.000273	46.2349998951
1120.0	0.0002728	46.2820000648
1120.0	0.000273	46.3129999638
1120.0	0.000273	46.3599998951
1120.0	0.0002728	46.3910000324
1120.0	0.000273	46.4379999638
1120.0	0.0002728	46.4849998951
1120.0	0.0002725	46.5160000324
1120.0	0.0002728	46.5629999638
1130.0	0.000275	46.8280000687
1130.0	0.0002763	46.875
1130.0	0.0002765	46.9070000648
1130.0	0.0002765	46.9530000687
1130.0	0.0002768	47.0
1130.0	0.0002768	47.0320000648
1130.0	0.000277	47.0780000687
1130.0	0.000277	47.125
1130.0	0.0002768	47.1570000648
1130.0	0.0002768	47.2030000687
1130.0	0.0002768	47.25
1130.0	0.0002768	47.2820000648
1130.0	0.0002768	47.3280000687
1130.0	0.000277	47.3599998951
1130.0	0.000277	47.4070000648
1130.0	0.0002768	47.4530000687
1130.0	0.0002768	47.4849998951
1130.0	0.000277	47.5320000648
1130.0	0.0002775	47.5780000687
1130.0	0.0002775	47.6099998951
1130.0	0.0002775	47.6570000648
1130.0	0.000277	47.6879999638
1130.0	0.0002768	47.7349998951
1130.0	0.0002768	47.7820000648
1130.0	0.0002768	47.8129999638
1130.0	0.0002765	47.8599998951
1130.0	0.0002765	47.9070000648
1130.0	0.0002763	47.9379999638
1130.0	0.0002765	47.9849998951
1130.0	0.0002765	48.0320000648
1130.0	0.0002765	48.0629999638
1130.0	0.0002768	48.1099998951
1130.0	0.0002765	48.1410000324
1130.0	0.0002763	48.1879999638
1130.0	0.0002765	48.2349998951
1130.0	0.0002765	48.2660000324
1130.0	0.0002768	48.3129999638
1140.0	0.0002763	48.5780000687
1140.0	0.0002765	48.6099998951
1140.0	0.0002768	48.6570000648
1140.0	0.000277	48.7030000687
1140.0	0.0002778	48.7349998951
1140.0	0.0002778	48.7820000648
1140.0	0.000278	48.8280000687
1140.0	0.000278	48.8599998951
1140.0	0.000278	48.9070000648
1140.0	0.0002778	48.9379999638
1140.0	0.0002778	48.9849998951
1140.0	0.0002778	49.0320000648
1140.0	0.0002778	49.0629999638
1140.0	0.0002778	49.1099998951
1140.0	0.0002778	49.1570000648
1140.0	0.000278	49.1879999638
1140.0	0.000278	49.2349998951
1140.0	0.0002778	49.2660000324
1140.0	0.000278	49.3129999638
1140.0	0.000278	49.3599998951
1140.0	0.0002778	49.3910000324
1140.0	0.0002778	49.4379999638
1140.0	0.000278	49.4849998951
1140.0	0.0002783	49.5160000324
1140.0	0.000278	49.5629999638
1140.0	0.0002788	49.5940001011
1140.0	0.000279	49.6410000324
1140.0	0.000279	49.6879999638
1140.0	0.0002793	49.7190001011
1140.0	0.0002795	49.7660000324
1140.0	0.00028	49.8129999638
1140.0	0.0002795	49.8440001011
1140.0	0.0002793	49.8910000324
1140.0	0.0002793	49.9219999313
1140.0	0.000279	49.9690001011
1140.0	0.0002788	50.0160000324
1140.0	0.0002788	50.0469999313
1150.0	0.0002803	50.3129999638
1150.0	0.0002803	50.3599998951
1150.0	0.0002805	50.4070000648
1150.0	0.0002803	50.4379999638
1150.0	0.00028	50.4849998951
1150.0	0.00028	50.5320000648
1150.0	0.00028	50.5629999638
1150.0	0.0002803	50.6099998951
1150.0	0.0002803	50.6410000324
1150.0	0.0002805	50.6879999638
1150.0	0.0002805	50.7349998951
1150.0	0.0002805	50.7660000324
1150.0	0.0002805	50.8129999638
1150.0	0.0002813	50.8599998951
1150.0	0.0002813	50.8910000324
1150.0	0.0002813	50.9379999638
1150.0	0.0002813	50.9849998951
1150.0	0.0002813	51.0160000324
1150.0	0.0002813	51.0629999638
1150.0	0.0002813	51.1099998951
1150.0	0.0002813	51.1410000324
1150.0	0.0002808	51.1879999638
1150.0	0.0002808	51.2349998951
1150.0	0.0002808	51.2660000324
1150.0	0.0002805	51.3129999638
1150.0	0.0002805	51.3599998951
1150.0	0.0002805	51.3910000324
1150.0	0.0002805	51.4379999638
1150.0	0.0002805	51.4849998951
1150.0	0.0002805	51.5160000324
1150.0	0.0002805	51.5629999638
1150.0	0.0002813	51.6099998951
1150.0	0.0002808	51.6410000324
1150.0	0.0002808	51.6879999638
1150.0	0.0002805	51.7190001011
1150.0	0.0002805	51.7660000324
1150.0	0.0002805	51.8129999638
1160.0	0.0002818	52.0780000687
1160.0	0.0002813	52.1099998951
1160.0	0.0002805	52.1570000648
1160.0	0.0002805	52.2030000687
1160.0	0.0002805	52.2349998951
1160.0	0.0002805	52.2820000648
1160.0	0.0002805	52.3129999638
1160.0	0.0002805	52.3599998951
1160.0	0.0002805	52.4070000648
1160.0	0.0002803	52.4530000687
1160.0	0.0002805	52.4849998951
1160.0	0.0002805	52.5320000648
1160.0	0.0002805	52.5780000687
1160.0	0.0002805	52.6099998951
1160.0	0.0002805	52.6570000648
1160.0	0.0002808	52.6879999638
1160.0	0.0002805	52.7349998951
1160.0	0.0002805	52.7820000648
1160.0	0.0002805	52.8129999638
1160.0	0.0002803	52.8599998951
1160.0	0.0002803	52.9070000648
1160.0	0.0002805	52.9379999638
1160.0	0.0002805	52.9849998951
1160.0	0.0002805	53.0320000648
1160.0	0.0002803	53.0629999638
1160.0	0.00028	53.1099998951
1160.0	0.0002803	53.1570000648
1160.0	0.0002805	53.1879999638
1160.0	0.0002805	53.2349998951
1160.0	0.0002808	53.2660000324
1160.0	0.0002808	53.3129999638
1160.0	0.0002805	53.3599998951
1160.0	0.0002803	53.3910000324
1160.0	0.00028	53.4379999638
1160.0	0.0002793	53.4849998951
1160.0	0.000279	53.5160000324
1160.0	0.0002793	53.5629999638
1170.0	0.0002803	53.8280000687
1170.0	0.0002805	53.875
1170.0	0.0002805	53.9219999313
1170.0	0.0002808	53.9530000687
1170.0	0.0002808	54.0
1170.0	0.0002808	54.0320000648
1170.0	0.0002805	54.0780000687
1170.0	0.0002803	54.125
1170.0	0.0002803	54.1570000648
1170.0	0.00028	54.2030000687
1170.0	0.0002795	54.2349998951
1170.0	0.0002795	54.2820000648
1170.0	0.0002803	54.3280000687
1170.0	0.0002805	54.3599998951
1170.0	0.0002805	54.4070000648
1170.0	0.0002808	54.4530000687
1170.0	0.0002813	54.4849998951
1170.0	0.0002813	54.5320000648
1170.0	0.0002813	54.5780000687
1170.0	0.0002813	54.6099998951
1170.0	0.0002813	54.6570000648
1170.0	0.0002808	54.7030000687
1170.0	0.0002808	54.7349998951
1170.0	0.0002813	54.7820000648
1170.0	0.0002813	54.8280000687
1170.0	0.0002813	54.8599998951
1170.0	0.0002808	54.9070000648
1170.0	0.0002808	54.9379999638
1170.0	0.0002805	54.9849998951
1170.0	0.00028	55.0320000648
1170.0	0.00028	55.0629999638
1170.0	0.00028	55.1099998951
1170.0	0.0002795	55.1570000648
1170.0	0.0002793	55.1879999638
1170.0	0.0002795	55.2349998951
1170.0	0.00028	55.2820000648
1180.0	0.0002805	55.5469999313
1180.0	0.0002803	55.5780000687
1180.0	0.0002803	55.625
1180.0	0.00028	55.6719999313
1180.0	0.00028	55.7030000687
1180.0	0.00028	55.75
1180.0	0.0002803	55.7969999313
1180.0	0.0002803	55.8280000687
1180.0	0.0002805	55.875
1180.0	0.0002808	55.9070000648
1180.0	0.0002813	55.9530000687
1180.0	0.0002813	56.0
1180.0	0.0002813	56.0320000648
1180.0	0.0002808	56.0780000687
1180.0	0.0002808	56.125
1180.0	0.0002808	56.1570000648
1180.0	0.0002808	56.2030000687
1180.0	0.0002808	56.2349998951
1180.0	0.0002808	56.2820000648
1180.0	0.0002805	56.3280000687
1180.0	0.0002803	56.3599998951
1180.0	0.00028	56.4070000648
1180.0	0.00028	56.4530000687
1180.0	0.0002803	56.4849998951
1180.0	0.0002803	56.5320000648
1180.0	0.0002805	56.5780000687
1180.0	0.0002805	56.6099998951
1180.0	0.0002805	56.6570000648
1180.0	0.0002805	56.6879999638
1180.0	0.0002808	56.7349998951
1180.0	0.0002808	56.7820000648
1180.0	0.0002805	56.8129999638
1180.0	0.0002813	56.8599998951
1180.0	0.0002813	56.9070000648
1180.0	0.0002815	56.9379999638
1180.0	0.0002815	56.9849998951
1180.0	0.0002813	57.0320000648
1190.0	0.0002813	57.2969999313
1190.0	0.0002815	57.3440001011
1190.0	0.0002815	57.375
1190.0	0.0002815	57.4219999313
1190.0	0.0002818	57.4690001011
1190.0	0.000282	57.5
1190.0	0.0002825	57.5469999313
1190.0	0.000282	57.5940001011
1190.0	0.000282	57.625
1190.0	0.000282	57.6719999313
1190.0	0.000282	57.7030000687
1190.0	0.000282	57.75
1190.0	0.0002825	57.7969999313
1190.0	0.0002825	57.8280000687
1190.0	0.0002825	57.875
1190.0	0.0002828	57.9219999313
1190.0	0.000283	57.9530000687
1190.0	0.0002828	58.0
1190.0	0.0002828	58.0320000648
1190.0	0.0002825	58.0780000687
1190.0	0.0002828	58.125
1190.0	0.000283	58.1570000648
1190.0	0.000283	58.2030000687
1190.0	0.0002833	58.25
1190.0	0.0002833	58.2820000648
1190.0	0.000283	58.3280000687
1190.0	0.000283	58.3599998951
1190.0	0.000283	58.4070000648
1190.0	0.000283	58.4530000687
1190.0	0.000283	58.4849998951
1190.0	0.000283	58.5320000648
1190.0	0.000283	58.5780000687
1190.0	0.0002828	58.6099998951
1190.0	0.0002828	58.6570000648
1190.0	0.0002828	58.6879999638
1190.0	0.0002828	58.7349998951
1190.0	0.000282	58.7820000648
1200.0	0.000283	59.0469999313
1200.0	0.000283	59.0940001011
1200.0	0.0002833	59.125
1200.0	0.0002838	59.1719999313
1200.0	0.000284	59.2190001011
1200.0	0.0002843	59.25
1200.0	0.0002845	59.2969999313
1200.0	0.000285	59.3280000687
1200.0	0.000285	59.375
1200.0	0.000285	59.4219999313
1200.0	0.0002853	59.4530000687
1200.0	0.0002855	59.5
1200.0	0.0002853	59.5469999313
1200.0	0.0002853	59.5780000687
1200.0	0.0002853	59.625
1200.0	0.0002853	59.6719999313
1200.0	0.000285	59.7030000687
1200.0	0.0002845	59.75
1200.0	0.0002843	59.7820000648
1200.0	0.000284	59.8280000687
1200.0	0.0002838	59.875
1200.0	0.000284	59.9070000648
1200.0	0.000284	59.9530000687
1200.0	0.000284	60.0
1200.0	0.0002843	60.0320000648
1200.0	0.000284	60.0780000687
1200.0	0.0002843	60.1099998951
1200.0	0.0002843	60.1570000648
1200.0	0.0002843	60.2030000687
1200.0	0.0002845	60.2349998951
1200.0	0.0002845	60.2820000648
1200.0	0.0002845	60.3280000687
1200.0	0.000285	60.3599998951
1200.0	0.0002845	60.4070000648
1200.0	0.0002843	60.4379999638
1200.0	0.0002845	60.4849998951
1200.0	0.0002845	60.5320000648
1210.0	0.0002855	60.7969999313
1210.0	0.0002858	60.8280000687
1210.0	0.0002858	60.875
1210.0	0.0002863	60.9219999313
1210.0	0.0002865	60.9530000687
1210.0	0.0002868	61.0
1210.0	0.000287	61.0469999313
1210.0	0.0002875	61.0780000687
1210.0	0.0002878	61.125
1210.0	0.0002875	61.1570000648
1210.0	0.0002875	61.2030000687
1210.0	0.0002875	61.25
1210.0	0.0002875	61.2820000648
1210.0	0.0002878	61.3280000687
1210.0	0.0002878	61.375
1210.0	0.000288	61.4070000648
1210.0	0.000288	61.4530000687
1210.0	0.0002878	61.4849998951
1210.0	0.0002875	61.5320000648
1210.0	0.0002878	61.5780000687
1210.0	0.0002878	61.6099998951
1210.0	0.0002878	61.6570000648
1210.0	0.000288	61.7030000687
1210.0	0.0002883	61.7349998951
1210.0	0.0002883	61.7820000648
1210.0	0.0002878	61.8129999638
1210.0	0.0002878	61.8599998951
1210.0	0.0002878	61.9070000648
1210.0	0.0002878	61.9379999638
1210.0	0.0002875	61.9849998951
1210.0	0.000287	62.0320000648
1210.0	0.0002875	62.0629999638
1210.0	0.0002878	62.1099998951
1210.0	0.0002875	62.1570000648
1210.0	0.0002875	62.1879999638
1210.0	0.0002868	62.2349998951
1210.0	0.0002868	62.2660000324
1220.0	0.0002893	62.5469999313
1220.0	0.00029	62.5780000687
1220.0	0.0002903	62.625
1220.0	0.0002905	62.6570000648
1220.0	0.0002903	62.7030000687
1220.0	0.0002903	62.75
1220.0	0.0002908	62.7820000648
1220.0	0.0002908	62.8280000687
1220.0	0.0002915	62.8599998951
1220.0	0.0002918	62.9070000648
1220.0	0.0002918	62.9530000687
1220.0	0.0002915	62.9849998951
1220.0	0.0002913	63.0320000648
1220.0	0.0002915	63.0780000687
1220.0	0.0002918	63.1099998951
1220.0	0.0002918	63.1570000648
1220.0	0.0002915	63.2030000687
1220.0	0.0002918	63.2349998951
1220.0	0.0002918	63.2820000648
1220.0	0.0002918	63.3129999638
1220.0	0.0002918	63.3599998951
1220.0	0.0002918	63.4070000648
1220.0	0.0002915	63.4379999638
1220.0	0.0002915	63.4849998951
1220.0	0.0002915	63.5320000648
1220.0	0.0002915	63.5629999638
1220.0	0.0002915	63.6099998951
1220.0	0.0002918	63.6410000324
1220.0	0.0002918	63.6879999638
1220.0	0.0002918	63.7349998951
1220.0	0.0002915	63.7660000324
1220.0	0.0002915	63.8129999638
1220.0	0.000292	63.8599998951
1220.0	0.000292	63.8910000324
1220.0	0.000292	63.9379999638
1220.0	0.000292	63.9690001011
1220.0	0.0002918	64.0160000324
1230.0	0.0002925	64.2820000648
1230.0	0.000293	64.3280000687
1230.0	0.0002933	64.3599998951
1230.0	0.000294	64.4070000648
1230.0	0.0002943	64.4530000687
1230.0	0.0002945	64.4849998951
1230.0	0.000295	64.5320000648
1230.0	0.000295	64.5780000687
1230.0	0.0002955	64.6099998951
1230.0	0.0002955	64.6570000648
1230.0	0.0002953	64.6879999638
1230.0	0.0002955	64.7349998951
1230.0	0.0002955	64.7820000648
1230.0	0.0002953	64.8129999638
1230.0	0.0002953	64.8599998951
1230.0	0.0002953	64.9070000648
1230.0	0.0002953	64.9379999638
1230.0	0.0002953	64.9849998951
1230.0	0.000295	65.0320000648
1230.0	0.0002953	65.0629999638
1230.0	0.0002953	65.1099998951
1230.0	0.000295	65.1410000324
1230.0	0.0002953	65.1879999638
1230.0	0.000295	65.2349998951
1230.0	0.0002945	65.2660000324
1230.0	0.0002945	65.3129999638
1230.0	0.0002945	65.3599998951
1230.0	0.0002945	65.3910000324
1230.0	0.0002945	65.4379999638
1230.0	0.0002945	65.4690001011
1230.0	0.0002953	65.5160000324
1230.0	0.0002958	65.5629999638
1230.0	0.0002963	65.5940001011
1230.0	0.0002963	65.6410000324
1230.0	0.0002958	65.6879999638
1230.0	0.0002955	65.7190001011
1230.0	0.0002953	65.7660000324
1240.0	0.0002975	66.0320000648
1240.0	0.0002978	66.0780000687
1240.0	0.0002983	66.1099998951
1240.0	0.0002988	66.1570000648
1240.0	0.000299	66.1879999638
1240.0	0.000299	66.2349998951
1240.0	0.000299	66.2820000648
1240.0	0.0002993	66.3129999638
1240.0	0.000299	66.3599998951
1240.0	0.0002993	66.4070000648
1240.0	0.0002993	66.4379999638
1240.0	0.000299	66.4849998951
1240.0	0.0002988	66.5160000324
1240.0	0.0002993	66.5629999638
1240.0	0.0002993	66.6099998951
1240.0	0.0002993	66.6410000324
1240.0	0.0002995	66.6879999638
1240.0	0.0003003	66.7349998951
1240.0	0.0003003	66.7660000324
1240.0	0.0003003	66.8129999638
1240.0	0.0003005	66.8440001011
1240.0	0.0003005	66.8910000324
1240.0	0.0003005	66.9379999638
1240.0	0.0003003	66.9690001011
1240.0	0.0003	67.0160000324
1240.0	0.0002995	67.0629999638
1240.0	0.0002993	67.0940001011
1240.0	0.0002993	67.1410000324
1240.0	0.0002993	67.1879999638
1240.0	0.0002993	67.2190001011
1240.0	0.0002995	67.2660000324
1240.0	0.0003	67.2969999313
1240.0	0.0003	67.3440001011
1240.0	0.0003	67.3910000324
1240.0	0.0003	67.4219999313
1240.0	0.0003003	67.4690001011
1240.0	0.0003003	67.5160000324
1250.0	0.0003025	67.7820000648
1250.0	0.0003033	67.8129999638
1250.0	0.0003038	67.8599998951
1250.0	0.0003043	67.9070000648
1250.0	0.0003045	67.9379999638
1250.0	0.0003045	67.9849998951
1250.0	0.0003045	68.0160000324
1250.0	0.0003045	68.0629999638
1250.0	0.000305	68.1099998951
1250.0	0.000305	68.1410000324
1250.0	0.000305	68.1879999638
1250.0	0.0003053	68.2349998951
1250.0	0.0003053	68.2660000324
1250.0	0.0003053	68.3129999638
1250.0	0.0003053	68.3440001011
1250.0	0.0003053	68.3910000324
1250.0	0.000305	68.4379999638
1250.0	0.000305	68.4690001011
1250.0	0.0003053	68.5160000324
1250.0	0.0003053	68.5629999638
1250.0	0.0003055	68.5940001011
1250.0	0.0003055	68.6410000324
1250.0	0.0003058	68.6879999638
1250.0	0.0003058	68.7190001011
1250.0	0.0003055	68.7660000324
1250.0	0.0003055	68.7969999313
1250.0	0.0003055	68.8440001011
1250.0	0.0003055	68.8910000324
1250.0	0.0003053	68.9219999313
1250.0	0.0003053	68.9690001011
1250.0	0.0003053	69.0160000324
1250.0	0.000305	69.0469999313
1250.0	0.0003045	69.0940001011
1250.0	0.0003045	69.125
1250.0	0.0003045	69.1719999313
1250.0	0.0003045	69.2190001011
1250.0	0.000305	69.25
1260.0	0.0003065	69.5160000324
1260.0	0.0003075	69.5629999638
1260.0	0.000308	69.6099998951
1260.0	0.0003083	69.6570000648
1260.0	0.0003088	69.6879999638
1260.0	0.000309	69.7349998951
1260.0	0.000309	69.7660000324
1260.0	0.0003088	69.8129999638
1260.0	0.0003083	69.8599998951
1260.0	0.0003088	69.8910000324
1260.0	0.0003083	69.9379999638
1260.0	0.0003088	69.9849998951
1260.0	0.0003088	70.0160000324
1260.0	0.0003088	70.0629999638
1260.0	0.0003088	70.0940001011
1260.0	0.0003093	70.1410000324
1260.0	0.0003093	70.1879999638
1260.0	0.0003095	70.2190001011
1260.0	0.0003095	70.2660000324
1260.0	0.0003093	70.3129999638
1260.0	0.0003093	70.3440001011
1260.0	0.000309	70.3910000324
1260.0	0.000309	70.4379999638
1260.0	0.0003093	70.4690001011
1260.0	0.000309	70.5160000324
1260.0	0.000309	70.5629999638
1260.0	0.0003088	70.5940001011
1260.0	0.000309	70.6410000324
1260.0	0.000309	70.6719999313
1260.0	0.000309	70.7190001011
1260.0	0.000309	70.7660000324
1260.0	0.000309	70.7969999313
1260.0	0.0003093	70.8440001011
1260.0	0.0003093	70.8910000324
1260.0	0.0003093	70.9219999313
1260.0	0.0003095	70.9690001011
1260.0	0.0003093	71.0160000324
1270.0	0.0003115	71.2820000648
1270.0	0.000312	71.3129999638
1270.0	0.0003125	71.3599998951
1270.0	0.0003128	71.3910000324
1270.0	0.0003128	71.4379999638
1270.0	0.0003125	71.4849998951
1270.0	0.000312	71.5160000324
1270.0	0.0003118	71.5629999638
1270.0	0.0003118	71.6099998951
1270.0	0.000312	71.6410000324
1270.0	0.0003128	71.6879999638
1270.0	0.000313	71.7190001011
1270.0	0.000313	71.7660000324
1270.0	0.0003128	71.8129999638
1270.0	0.0003125	71.8440001011
1270.0	0.0003128	71.8910000324
1270.0	0.000313	71.9379999638
1270.0	0.0003133	71.9690001011
1270.0	0.0003133	72.0160000324
1270.0	0.000313	72.0629999638
1270.0	0.000313	72.0940001011
1270.0	0.000313	72.1410000324
1270.0	0.0003133	72.1719999313
1270.0	0.000313	72.2190001011
1270.0	0.000313	72.2660000324
1270.0	0.0003133	72.2969999313
1270.0	0.0003133	72.3440001011
1270.0	0.0003133	72.3910000324
1270.0	0.0003138	72.4219999313
1270.0	0.000314	72.4690001011
1270.0	0.000314	72.5
1270.0	0.000314	72.5469999313
1270.0	0.0003138	72.5940001011
1270.0	0.0003138	72.625
1270.0	0.0003138	72.6719999313
1270.0	0.0003133	72.7190001011
1270.0	0.0003138	72.75
1280.0	0.000314	73.0160000324
1280.0	0.000315	73.0629999638
1280.0	0.0003153	73.1099998951
1280.0	0.0003153	73.1410000324
1280.0	0.000315	73.1879999638
1280.0	0.000315	73.2190001011
1280.0	0.0003153	73.2660000324
1280.0	0.0003155	73.3129999638
1280.0	0.0003158	73.3440001011
1280.0	0.0003158	73.3910000324
1280.0	0.0003158	73.4379999638
1280.0	0.0003158	73.4690001011
1280.0	0.0003165	73.5160000324
1280.0	0.0003165	73.5629999638
1280.0	0.0003165	73.5940001011
1280.0	0.0003168	73.6410000324
1280.0	0.0003165	73.6719999313
1280.0	0.0003165	73.7190001011
1280.0	0.0003165	73.7660000324
1280.0	0.0003165	73.7969999313
1280.0	0.0003168	73.8440001011
1280.0	0.0003168	73.8910000324
1280.0	0.000317	73.9219999313
1280.0	0.0003175	73.9690001011
1280.0	0.000317	74.0160000324
1280.0	0.0003175	74.0469999313
1280.0	0.0003175	74.0940001011
1280.0	0.0003175	74.1410000324
1280.0	0.000317	74.1719999313
1280.0	0.000317	74.2190001011
1280.0	0.0003175	74.25
1280.0	0.000317	74.2969999313
1280.0	0.000317	74.3440001011
1280.0	0.000317	74.375
1280.0	0.000317	74.4219999313
1280.0	0.0003175	74.4690001011
1280.0	0.0003178	74.5160000324
1290.0	0.000317	74.7820000648
1290.0	0.000317	74.8129999638
1290.0	0.0003175	74.8599998951
1290.0	0.0003178	74.9070000648
1290.0	0.000318	74.9379999638
1290.0	0.0003178	74.9849998951
1290.0	0.0003178	75.0320000648
1290.0	0.0003175	75.0629999638
1290.0	0.000317	75.1099998951
1290.0	0.0003175	75.1570000648
1290.0	0.0003175	75.1879999638
1290.0	0.0003168	75.2349998951
1290.0	0.0003168	75.2660000324
1290.0	0.0003168	75.3129999638
1290.0	0.000317	75.3599998951
1290.0	0.000317	75.3910000324
1290.0	0.000317	75.4379999638
1290.0	0.0003175	75.4849998951
1290.0	0.0003175	75.5160000324
1290.0	0.000317	75.5629999638
1290.0	0.0003168	75.5940001011
1290.0	0.0003168	75.6410000324
1290.0	0.000317	75.6879999638
1290.0	0.0003175	75.7190001011
1290.0	0.0003175	75.7660000324
1290.0	0.0003178	75.8129999638
1290.0	0.0003178	75.8440001011
1290.0	0.0003175	75.8910000324
1290.0	0.0003175	75.9219999313
1290.0	0.0003178	75.9690001011
1290.0	0.0003175	76.0160000324
1290.0	0.0003175	76.0469999313
1290.0	0.0003178	76.0940001011
1290.0	0.000318	76.1410000324
1290.0	0.0003175	76.1719999313
1290.0	0.000317	76.2190001011
1290.0	0.000317	76.25
1300.0	0.000317	76.5320000648
1300.0	0.0003168	76.5629999638
1300.0	0.0003163	76.6099998951
1300.0	0.0003155	76.6410000324
1300.0	0.0003158	76.6879999638
1300.0	0.0003158	76.7349998951
1300.0	0.0003155	76.7660000324
1300.0	0.0003158	76.8129999638
1300.0	0.0003165	76.8599998951
1300.0	0.0003168	76.8910000324
1300.0	0.0003165	76.9379999638
1300.0	0.0003163	76.9690001011
1300.0	0.0003163	77.0160000324
1300.0	0.0003163	77.0629999638
1300.0	0.0003163	77.1099998951
1300.0	0.0003165	77.1410000324
1300.0	0.0003165	77.1879999638
1300.0	0.0003168	77.2349998951
1300.0	0.000317	77.2660000324
1300.0	0.0003168	77.3129999638
1300.0	0.0003168	77.3440001011
1300.0	0.0003165	77.3910000324
1300.0	0.0003165	77.4379999638
1300.0	0.0003165	77.4690001011
1300.0	0.0003158	77.5160000324
1300.0	0.0003158	77.5629999638
1300.0	0.0003158	77.5940001011
1300.0	0.0003155	77.6410000324
1300.0	0.0003155	77.6719999313
1300.0	0.0003153	77.7190001011
1300.0	0.0003153	77.7660000324
1300.0	0.0003153	77.7969999313
1300.0	0.000315	77.8440001011
1300.0	0.0003153	77.8910000324
1300.0	0.0003155	77.9219999313
1300.0	0.0003155	77.9690001011
1300.0	0.0003158	78.0
1310.0	0.000314	78.2820000648
1310.0	0.0003138	78.3129999638
1310.0	0.000313	78.3599998951
1310.0	0.0003128	78.4070000648
1310.0	0.0003128	78.4379999638
1310.0	0.000313	78.4849998951
1310.0	0.000313	78.5320000648
1310.0	0.000313	78.5629999638
1310.0	0.0003128	78.6099998951
1310.0	0.0003128	78.6410000324
1310.0	0.0003128	78.6879999638
1310.0	0.0003125	78.7349998951
1310.0	0.0003128	78.7660000324
1310.0	0.0003128	78.8129999638
1310.0	0.0003125	78.8599998951
1310.0	0.0003125	78.8910000324
1310.0	0.0003118	78.9379999638
1310.0	0.0003118	78.9690001011
1310.0	0.0003118	79.0160000324
1310.0	0.0003115	79.0629999638
1310.0	0.0003118	79.0940001011
1310.0	0.0003125	79.1410000324
1310.0	0.0003125	79.1879999638
1310.0	0.0003128	79.2190001011
1310.0	0.000313	79.2660000324
1310.0	0.0003133	79.2969999313
1310.0	0.000313	79.3440001011
1310.0	0.0003125	79.3910000324
1310.0	0.000313	79.4219999313
1310.0	0.0003128	79.4690001011
1310.0	0.0003125	79.5160000324
1310.0	0.0003128	79.5469999313
1310.0	0.0003128	79.5940001011
1310.0	0.0003128	79.6410000324
1310.0	0.0003128	79.6719999313
1310.0	0.0003128	79.7190001011
1310.0	0.0003128	79.75
1320.0	0.0003105	80.0320000648
1320.0	0.0003095	80.0629999638
1320.0	0.0003093	80.1099998951
1320.0	0.0003083	80.1570000648
1320.0	0.000308	80.2030000687
1320.0	0.0003075	80.2349998951
1320.0	0.0003075	80.2820000648
1320.0	0.000307	80.3129999638
1320.0	0.0003068	80.3599998951
1320.0	0.0003065	80.4070000648
1320.0	0.0003065	80.4379999638
1320.0	0.0003068	80.4849998951
1320.0	0.0003068	80.5320000648
1320.0	0.0003065	80.5629999638
1320.0	0.0003065	80.6099998951
1320.0	0.0003065	80.6410000324
1320.0	0.0003063	80.6879999638
1320.0	0.0003058	80.7349998951
1320.0	0.0003063	80.7660000324
1320.0	0.0003058	80.8129999638
1320.0	0.0003063	80.8599998951
1320.0	0.0003058	80.8910000324
1320.0	0.0003055	80.9379999638
1320.0	0.0003055	80.9690001011
1320.0	0.0003055	81.0160000324
1320.0	0.0003055	81.0629999638
1320.0	0.0003058	81.0940001011
1320.0	0.0003058	81.1410000324
1320.0	0.0003058	81.1879999638
1320.0	0.0003058	81.2190001011
1320.0	0.0003058	81.2660000324
1320.0	0.0003058	81.2969999313
1320.0	0.0003058	81.3440001011
1320.0	0.0003058	81.3910000324
1320.0	0.0003055	81.4219999313
1320.0	0.0003053	81.4690001011
1320.0	0.0003053	81.5160000324
1330.0	0.0003018	81.7820000648
1330.0	0.0003005	81.8280000687
1330.0	0.0002995	81.8599998951
1330.0	0.0002983	81.9070000648
1330.0	0.0002978	81.9530000687
1330.0	0.0002975	81.9849998951
1330.0	0.0002968	82.0320000648
1330.0	0.0002968	82.0629999638
1330.0	0.0002965	82.1099998951
1330.0	0.0002965	82.1570000648
1330.0	0.0002965	82.1879999638
1330.0	0.0002963	82.2349998951
1330.0	0.0002965	82.2820000648
1330.0	0.0002965	82.3129999638
1330.0	0.0002963	82.3599998951
1330.0	0.0002963	82.3910000324
1330.0	0.0002965	82.4379999638
1330.0	0.0002963	82.4849998951
1330.0	0.0002963	82.5160000324
1330.0	0.0002958	82.5629999638
1330.0	0.0002963	82.6099998951
1330.0	0.0002963	82.6410000324
1330.0	0.0002955	82.6879999638
1330.0	0.0002958	82.7190001011
1330.0	0.0002963	82.7660000324
1330.0	0.0002958	82.8129999638
1330.0	0.0002958	82.8440001011
1330.0	0.0002963	82.8910000324
1330.0	0.0002963	82.9379999638
1330.0	0.0002958	82.9690001011
1330.0	0.0002955	83.0160000324
1330.0	0.0002958	83.0469999313
1330.0	0.0002958	83.0940001011
1330.0	0.0002955	83.1410000324
1330.0	0.0002958	83.1719999313
1330.0	0.0002963	83.2190001011
1330.0	0.0002963	83.2660000324
1340.0	0.0002918	83.5320000648
1340.0	0.00029	83.5780000687
1340.0	0.000288	83.6099998951
1340.0	0.0002868	83.6570000648
1340.0	0.0002855	83.6879999638
1340.0	0.0002845	83.7349998951
1340.0	0.0002843	83.7820000648
1340.0	0.000284	83.8129999638
1340.0	0.000284	83.8599998951
1340.0	0.0002838	83.9070000648
1340.0	0.000284	83.9379999638
1340.0	0.0002838	83.9849998951
1340.0	0.0002833	84.0320000648
1340.0	0.000283	84.0629999638
1340.0	0.0002828	84.1099998951
1340.0	0.0002825	84.1410000324
1340.0	0.0002825	84.1879999638
1340.0	0.0002825	84.2349998951
1340.0	0.000283	84.2820000648
1340.0	0.000283	84.3129999638
1340.0	0.000283	84.3599998951
1340.0	0.000283	84.3910000324
1340.0	0.0002828	84.4379999638
1340.0	0.0002825	84.4849998951
1340.0	0.000282	84.5160000324
1340.0	0.000282	84.5629999638
1340.0	0.000282	84.6099998951
1340.0	0.000282	84.6410000324
1340.0	0.000282	84.6879999638
1340.0	0.000282	84.7190001011
1340.0	0.000282	84.7660000324
1340.0	0.000282	84.8129999638
1340.0	0.000282	84.8440001011
1340.0	0.000282	84.8910000324
1340.0	0.0002825	84.9379999638
1340.0	0.0002828	84.9690001011
1340.0	0.000283	85.0160000324
1350.0	0.0002778	85.2820000648
1350.0	0.0002758	85.3280000687
1350.0	0.000274	85.3599998951
1350.0	0.000273	85.4070000648
1350.0	0.000272	85.4530000687
1350.0	0.0002718	85.4849998951
1350.0	0.0002713	85.5320000648
1350.0	0.0002708	85.5780000687
1350.0	0.0002705	85.6099998951
1350.0	0.0002703	85.6570000648
1350.0	0.0002695	85.6879999638
1350.0	0.0002695	85.7349998951
1350.0	0.00027	85.7820000648
1350.0	0.00027	85.8129999638
1350.0	0.0002703	85.8599998951
1350.0	0.00027	85.9070000648
1350.0	0.0002703	85.9379999638
1350.0	0.0002705	85.9849998951
1350.0	0.0002705	86.0320000648
1350.0	0.0002705	86.0629999638
1350.0	0.0002705	86.1099998951
1350.0	0.0002705	86.1410000324
1350.0	0.0002705	86.1879999638
1350.0	0.0002705	86.2349998951
1350.0	0.0002705	86.2660000324
1350.0	0.0002705	86.3129999638
1350.0	0.0002708	86.3599998951
1350.0	0.0002705	86.3910000324
1350.0	0.0002703	86.4379999638
1350.0	0.0002703	86.4690001011
1350.0	0.00027	86.5160000324
1350.0	0.00027	86.5629999638
1350.0	0.0002693	86.5940001011
1350.0	0.0002693	86.6410000324
1350.0	0.0002693	86.6879999638
1350.0	0.0002693	86.7190001011
1350.0	0.0002688	86.7660000324
1360.0	0.000263	87.0320000648
1360.0	0.0002605	87.0780000687
1360.0	0.000259	87.1099998951
1360.0	0.0002575	87.1570000648
1360.0	0.0002563	87.2030000687
1360.0	0.0002555	87.2349998951
1360.0	0.0002545	87.2820000648
1360.0	0.0002543	87.3280000687
1360.0	0.000254	87.3599998951
1360.0	0.0002538	87.4070000648
1360.0	0.0002538	87.4379999638
1360.0	0.000254	87.4849998951
1360.0	0.0002538	87.5320000648
1360.0	0.0002543	87.5629999638
1360.0	0.0002543	87.6099998951
1360.0	0.0002543	87.6570000648
1360.0	0.0002543	87.6879999638
1360.0	0.0002545	87.7349998951
1360.0	0.000255	87.7820000648
1360.0	0.000255	87.8129999638
1360.0	0.000255	87.8599998951
1360.0	0.0002553	87.9070000648
1360.0	0.0002553	87.9379999638
1360.0	0.000255	87.9849998951
1360.0	0.0002545	88.0320000648
1360.0	0.0002545	88.0629999638
1360.0	0.0002543	88.1099998951
1360.0	0.0002545	88.1410000324
1360.0	0.000255	88.1879999638
1360.0	0.0002545	88.2349998951
1360.0	0.0002543	88.2660000324
1360.0	0.0002543	88.3129999638
1360.0	0.0002545	88.3599998951
1360.0	0.000255	88.3910000324
1360.0	0.000255	88.4379999638
1360.0	0.000255	88.4690001011
1370.0	0.0002495	88.75
1370.0	0.0002475	88.7820000648
1370.0	0.0002455	88.8280000687
1370.0	0.0002443	88.875
1370.0	0.0002433	88.9070000648
1370.0	0.0002428	88.9530000687
1370.0	0.000242	89.0
1370.0	0.0002415	89.0320000648
1370.0	0.0002413	89.0780000687
1370.0	0.0002408	89.1099998951
1370.0	0.0002405	89.1570000648
1370.0	0.0002403	89.2030000687
1370.0	0.00024	89.2349998951
1370.0	0.0002395	89.2820000648
1370.0	0.0002393	89.3280000687
1370.0	0.0002393	89.3599998951
1370.0	0.0002388	89.4070000648
1370.0	0.0002383	89.4530000687
1370.0	0.000238	89.4849998951
1370.0	0.000238	89.5320000648
1370.0	0.000238	89.5629999638
1370.0	0.000238	89.6099998951
1370.0	0.0002383	89.6570000648
1370.0	0.0002383	89.6879999638
1370.0	0.0002383	89.7349998951
1370.0	0.0002383	89.7660000324
1370.0	0.000238	89.8129999638
1370.0	0.0002383	89.8599998951
1370.0	0.0002388	89.8910000324
1370.0	0.000239	89.9379999638
1370.0	0.000239	89.9849998951
1370.0	0.000239	90.0160000324
1370.0	0.000239	90.0629999638
1370.0	0.0002393	90.1099998951
1370.0	0.0002393	90.1410000324
1370.0	0.0002393	90.1879999638
1370.0	0.0002393	90.2349998951
1380.0	0.0002333	90.5
1380.0	0.0002318	90.5320000648
1380.0	0.0002305	90.5780000687
1380.0	0.0002293	90.625
1380.0	0.000228	90.6570000648
1380.0	0.0002268	90.7030000687
1380.0	0.0002263	90.75
1380.0	0.0002255	90.7820000648
1380.0	0.000225	90.8280000687
1380.0	0.0002245	90.8599998951
1380.0	0.0002245	90.9070000648
1380.0	0.000225	90.9530000687
1380.0	0.0002245	90.9849998951
1380.0	0.000225	91.0320000648
1380.0	0.0002253	91.0780000687
1380.0	0.0002255	91.1099998951
1380.0	0.0002263	91.1570000648
1380.0	0.0002263	91.1879999638
1380.0	0.0002265	91.2349998951
1380.0	0.0002265	91.2820000648
1380.0	0.0002263	91.3129999638
1380.0	0.0002263	91.3599998951
1380.0	0.0002263	91.4070000648
1380.0	0.0002258	91.4379999638
1380.0	0.0002255	91.4849998951
1380.0	0.0002258	91.5160000324
1380.0	0.0002263	91.5629999638
1380.0	0.0002263	91.6099998951
1380.0	0.0002263	91.6410000324
1380.0	0.0002263	91.6879999638
1380.0	0.0002263	91.7349998951
1380.0	0.0002258	91.7660000324
1380.0	0.0002255	91.8129999638
1380.0	0.0002253	91.8599998951
1380.0	0.000225	91.8910000324
1380.0	0.0002245	91.9379999638
1380.0	0.000225	91.9690001011
1390.0	0.0002208	92.25
1390.0	0.000219	92.2820000648
1390.0	0.000217	92.3280000687
1390.0	0.0002158	92.3599998951
1390.0	0.000215	92.4070000648
1390.0	0.0002138	92.4530000687
1390.0	0.0002133	92.4849998951
1390.0	0.0002128	92.5320000648
1390.0	0.0002128	92.5780000687
1390.0	0.0002128	92.6099998951
1390.0	0.0002128	92.6570000648
1390.0	0.0002128	92.7030000687
1390.0	0.000212	92.7349998951
1390.0	0.0002115	92.7820000648
1390.0	0.0002118	92.8280000687
1390.0	0.0002118	92.8599998951
1390.0	0.0002118	92.9070000648
1390.0	0.000212	92.9379999638
1390.0	0.0002118	92.9849998951
1390.0	0.000212	93.0320000648
1390.0	0.000212	93.0629999638
1390.0	0.000212	93.1099998951
1390.0	0.0002125	93.1570000648
1390.0	0.000212	93.1879999638
1390.0	0.000212	93.2349998951
1390.0	0.000212	93.2820000648
1390.0	0.0002125	93.3129999638
1390.0	0.0002125	93.3599998951
1390.0	0.0002125	93.3910000324
1390.0	0.0002125	93.4379999638
1390.0	0.0002125	93.4849998951
1390.0	0.0002125	93.5160000324
1390.0	0.0002128	93.5629999638
1390.0	0.0002128	93.6099998951
1390.0	0.0002125	93.6410000324
1390.0	0.0002125	93.6879999638
1390.0	0.0002125	93.7190001011
1400.0	0.000209	93.9849998951
1400.0	0.0002078	94.0320000648
1400.0	0.0002068	94.0780000687
1400.0	0.0002063	94.1099998951
1400.0	0.0002055	94.1570000648
1400.0	0.0002053	94.2030000687
1400.0	0.0002045	94.2349998951
1400.0	0.0002045	94.2820000648
1400.0	0.0002043	94.3129999638
1400.0	0.0002043	94.3599998951
1400.0	0.0002043	94.4070000648
1400.0	0.000204	94.4379999638
1400.0	0.000204	94.4849998951
1400.0	0.0002038	94.5320000648
1400.0	0.0002038	94.5629999638
1400.0	0.0002033	94.6099998951
1400.0	0.0002033	94.6570000648
1400.0	0.0002033	94.6879999638
1400.0	0.0002033	94.7349998951
1400.0	0.0002033	94.7660000324
1400.0	0.0002038	94.8129999638
1400.0	0.0002033	94.8599998951
1400.0	0.0002038	94.8910000324
1400.0	0.0002033	94.9379999638
1400.0	0.0002033	94.9849998951
1400.0	0.0002038	95.0160000324
1400.0	0.0002038	95.0629999638
1400.0	0.0002033	95.0940001011
1400.0	0.0002038	95.1410000324
1400.0	0.0002038	95.1879999638
1400.0	0.0002033	95.2190001011
1400.0	0.000203	95.2660000324
1400.0	0.0002028	95.3129999638
1400.0	0.0002028	95.3440001011
1400.0	0.0002025	95.3910000324
1400.0	0.000202	95.4379999638
1400.0	0.0002025	95.4690001011
1410.0	0.0001993	95.7349998951
1410.0	0.0001983	95.7820000648
1410.0	0.0001978	95.8129999638
1410.0	0.000197	95.8599998951
1410.0	0.0001968	95.9070000648
1410.0	0.0001963	95.9379999638
1410.0	0.0001955	95.9849998951
1410.0	0.0001953	96.0320000648
1410.0	0.000195	96.0629999638
1410.0	0.0001945	96.1099998951
1410.0	0.0001945	96.1410000324
1410.0	0.0001945	96.1879999638
1410.0	0.000195	96.2349998951
1410.0	0.000195	96.2660000324
1410.0	0.0001953	96.3129999638
1410.0	0.0001955	96.3599998951
1410.0	0.0001955	96.3910000324
1410.0	0.0001955	96.4379999638
1410.0	0.0001955	96.4849998951
1410.0	0.0001955	96.5160000324
1410.0	0.0001955	96.5629999638
1410.0	0.0001955	96.5940001011
1410.0	0.0001955	96.6410000324
1410.0	0.0001955	96.6879999638
1410.0	0.0001955	96.7190001011
1410.0	0.0001955	96.7660000324
1410.0	0.0001963	96.8129999638
1410.0	0.0001958	96.8440001011
1410.0	0.0001958	96.8910000324
1410.0	0.0001955	96.9219999313
1410.0	0.0001955	96.9690001011
1410.0	0.0001958	97.0160000324
1410.0	0.0001958	97.0469999313
1410.0	0.0001963	97.0940001011
1410.0	0.0001965	97.1410000324
1410.0	0.0001965	97.1719999313
1410.0	0.0001965	97.2190001011
1420.0	0.0001945	97.4849998951
1420.0	0.0001943	97.5320000648
1420.0	0.0001938	97.5629999638
1420.0	0.0001933	97.6099998951
1420.0	0.000193	97.6570000648
1420.0	0.0001928	97.6879999638
1420.0	0.0001925	97.7349998951
1420.0	0.0001925	97.7820000648
1420.0	0.0001925	97.8129999638
1420.0	0.0001925	97.8599998951
1420.0	0.0001925	97.8910000324
1420.0	0.0001918	97.9379999638
1420.0	0.0001918	97.9849998951
1420.0	0.000192	98.0160000324
1420.0	0.000192	98.0629999638
1420.0	0.000192	98.1099998951
1420.0	0.000192	98.1410000324
1420.0	0.000192	98.1879999638
1420.0	0.0001925	98.2349998951
1420.0	0.000192	98.2660000324
1420.0	0.000192	98.3129999638
1420.0	0.000192	98.3440001011
1420.0	0.0001918	98.3910000324
1420.0	0.000192	98.4379999638
1420.0	0.000192	98.4690001011
1420.0	0.0001925	98.5160000324
1420.0	0.000192	98.5629999638
1420.0	0.000192	98.5940001011
1420.0	0.000192	98.6410000324
1420.0	0.000192	98.6719999313
1420.0	0.0001918	98.7190001011
1420.0	0.0001915	98.7660000324
1420.0	0.0001915	98.7969999313
1420.0	0.0001913	98.8440001011
1420.0	0.0001913	98.8910000324
1420.0	0.0001908	98.9219999313
1420.0	0.0001908	98.9690001011
1430.0	0.0001913	99.2349998951
1430.0	0.0001913	99.2820000648
1430.0	0.0001913	99.3129999638
1430.0	0.0001913	99.3599998951
1430.0	0.0001913	99.3910000324
1430.0	0.0001908	99.4379999638
1430.0	0.0001905	99.4849998951
1430.0	0.0001905	99.5320000648
1430.0	0.0001905	99.5629999638
1430.0	0.0001908	99.6099998951
1430.0	0.0001913	99.6570000648
1430.0	0.0001905	99.6879999638
1430.0	0.0001905	99.7349998951
1430.0	0.0001903	99.7820000648
1430.0	0.00019	99.8129999638
1430.0	0.00019	99.8599998951
1430.0	0.0001895	99.8910000324
1430.0	0.0001895	99.9379999638
1430.0	0.00019	99.9849998951
1430.0	0.00019	100.016000032
1430.0	0.0001903	100.062999964
1430.0	0.0001905	100.109999895
1430.0	0.0001908	100.141000032
1430.0	0.0001908	100.187999964
1430.0	0.0001908	100.234999895
1430.0	0.0001908	100.266000032
1430.0	0.0001908	100.312999964
1430.0	0.0001905	100.344000101
1430.0	0.0001908	100.391000032
1430.0	0.0001913	100.437999964
1430.0	0.0001913	100.484999895
1430.0	0.0001908	100.516000032
1430.0	0.0001908	100.562999964
1430.0	0.0001908	100.594000101
1430.0	0.0001908	100.641000032
1430.0	0.0001905	100.687999964
1440.0	0.0001918	100.953000069
1440.0	0.0001918	100.984999895
1440.0	0.0001925	101.032000065
1440.0	0.0001925	101.062999964
1440.0	0.0001928	101.109999895
1440.0	0.000193	101.157000065
1440.0	0.0001938	101.187999964
1440.0	0.0001938	101.234999895
1440.0	0.000194	101.282000065
1440.0	0.000194	101.312999964
1440.0	0.000194	101.359999895
1440.0	0.0001938	101.407000065
1440.0	0.0001938	101.453000069
1440.0	0.0001933	101.484999895
1440.0	0.0001933	101.532000065
1440.0	0.000193	101.562999964
1440.0	0.000193	101.609999895
1440.0	0.0001933	101.657000065
1440.0	0.000193	101.687999964
1440.0	0.000193	101.734999895
1440.0	0.0001928	101.782000065
1440.0	0.0001925	101.812999964
1440.0	0.0001925	101.859999895
1440.0	0.0001928	101.891000032
1440.0	0.000193	101.937999964
1440.0	0.000193	101.984999895
1440.0	0.0001933	102.016000032
1440.0	0.0001933	102.062999964
1440.0	0.0001933	102.109999895
1440.0	0.000193	102.141000032
1440.0	0.0001928	102.187999964
1440.0	0.0001928	102.234999895
1440.0	0.000193	102.266000032
1440.0	0.000193	102.312999964
1440.0	0.0001933	102.359999895
1440.0	0.0001938	102.391000032
1440.0	0.0001938	102.437999964
1450.0	0.000195	102.703000069
1450.0	0.0001955	102.75
1450.0	0.0001955	102.782000065
1450.0	0.0001963	102.828000069
1450.0	0.0001965	102.875
1450.0	0.0001968	102.907000065
1450.0	0.0001968	102.953000069
1450.0	0.0001968	102.984999895
1450.0	0.000197	103.032000065
1450.0	0.0001968	103.078000069
1450.0	0.0001968	103.109999895
1450.0	0.0001968	103.157000065
1450.0	0.000197	103.203000069
1450.0	0.0001968	103.234999895
1450.0	0.0001968	103.282000065
1450.0	0.0001965	103.312999964
1450.0	0.0001963	103.359999895
1450.0	0.0001963	103.407000065
1450.0	0.0001965	103.437999964
1450.0	0.0001965	103.484999895
1450.0	0.0001965	103.532000065
1450.0	0.0001965	103.562999964
1450.0	0.0001963	103.609999895
1450.0	0.0001963	103.641000032
1450.0	0.0001958	103.687999964
1450.0	0.0001963	103.734999895
1450.0	0.0001963	103.766000032
1450.0	0.0001963	103.812999964
1450.0	0.0001963	103.859999895
1450.0	0.0001963	103.891000032
1450.0	0.0001965	103.937999964
1450.0	0.0001965	103.984999895
1450.0	0.0001965	104.016000032
1450.0	0.0001968	104.062999964
1450.0	0.0001968	104.094000101
1450.0	0.0001968	104.141000032
1450.0	0.0001965	104.187999964
1460.0	0.0001983	104.453000069
1460.0	0.0001993	104.484999895
1460.0	0.0002003	104.532000065
1460.0	0.0002013	104.578000069
1460.0	0.000202	104.609999895
1460.0	0.000202	104.657000065
1460.0	0.000202	104.687999964
1460.0	0.0002018	104.734999895
1460.0	0.0002015	104.782000065
1460.0	0.0002015	104.812999964
1460.0	0.0002015	104.859999895
1460.0	0.0002015	104.907000065
1460.0	0.0002018	104.937999964
1460.0	0.0002018	104.984999895
1460.0	0.000202	105.032000065
1460.0	0.000202	105.062999964
1460.0	0.0002018	105.109999895
1460.0	0.0002018	105.141000032
1460.0	0.0002015	105.187999964
1460.0	0.0002013	105.234999895
1460.0	0.0002013	105.266000032
1460.0	0.0002008	105.312999964
1460.0	0.0002005	105.359999895
1460.0	0.0002005	105.391000032
1460.0	0.0002005	105.437999964
1460.0	0.0002008	105.469000101
1460.0	0.0002013	105.516000032
1460.0	0.0002015	105.562999964
1460.0	0.0002018	105.594000101
1460.0	0.0002015	105.641000032
1460.0	0.0002015	105.687999964
1460.0	0.0002015	105.719000101
1460.0	0.0002013	105.766000032
1460.0	0.0002013	105.812999964
1460.0	0.0002015	105.844000101
1460.0	0.0002015	105.891000032
1460.0	0.0002013	105.937999964
1470.0	0.0002038	106.203000069
1470.0	0.0002043	106.25
1470.0	0.0002045	106.282000065
1470.0	0.0002053	106.328000069
1470.0	0.0002055	106.359999895
1470.0	0.0002058	106.407000065
1470.0	0.0002065	106.453000069
1470.0	0.0002068	106.484999895
1470.0	0.0002065	106.532000065
1470.0	0.0002068	106.578000069
1470.0	0.0002068	106.609999895
1470.0	0.0002068	106.657000065
1470.0	0.0002068	106.703000069
1470.0	0.0002065	106.734999895
1470.0	0.0002065	106.782000065
1470.0	0.0002065	106.812999964
1470.0	0.0002065	106.859999895
1470.0	0.0002065	106.907000065
1470.0	0.0002065	106.937999964
1470.0	0.0002065	106.984999895
1470.0	0.0002065	107.032000065
1470.0	0.0002065	107.062999964
1470.0	0.0002065	107.109999895
1470.0	0.0002065	107.141000032
1470.0	0.0002068	107.187999964
1470.0	0.000207	107.234999895
1470.0	0.000207	107.266000032
1470.0	0.0002075	107.312999964
1470.0	0.0002075	107.359999895
1470.0	0.0002075	107.391000032
1470.0	0.0002075	107.437999964
1470.0	0.000207	107.469000101
1470.0	0.0002075	107.516000032
1470.0	0.000208	107.562999964
1470.0	0.0002078	107.594000101
1470.0	0.0002075	107.641000032
1470.0	0.000207	107.687999964
1480.0	0.000208	107.953000069
1480.0	0.0002083	107.984999895
1480.0	0.000208	108.032000065
1480.0	0.000208	108.078000069
1480.0	0.0002083	108.109999895
1480.0	0.0002088	108.157000065
1480.0	0.0002088	108.203000069
1480.0	0.000209	108.234999895
1480.0	0.000209	108.282000065
1480.0	0.0002093	108.328000069
1480.0	0.0002093	108.359999895
1480.0	0.0002093	108.407000065
1480.0	0.000209	108.437999964
1480.0	0.000209	108.484999895
1480.0	0.000209	108.532000065
1480.0	0.0002093	108.562999964
1480.0	0.000209	108.609999895
1480.0	0.000209	108.657000065
1480.0	0.000209	108.687999964
1480.0	0.000209	108.734999895
1480.0	0.0002088	108.782000065
1480.0	0.0002088	108.812999964
1480.0	0.0002088	108.859999895
1480.0	0.000209	108.891000032
1480.0	0.0002088	108.937999964
1480.0	0.000209	108.984999895
1480.0	0.000209	109.016000032
1480.0	0.0002093	109.062999964
1480.0	0.0002093	109.109999895
1480.0	0.0002093	109.141000032
1480.0	0.0002093	109.187999964
1480.0	0.0002088	109.219000101
1480.0	0.0002088	109.266000032
1480.0	0.000209	109.312999964
1480.0	0.000209	109.344000101
1480.0	0.000209	109.391000032
1480.0	0.000209	109.437999964
1490.0	0.0002095	109.703000069
1490.0	0.00021	109.75
1490.0	0.0002108	109.782000065
1490.0	0.0002108	109.828000069
1490.0	0.0002113	109.859999895
1490.0	0.0002113	109.907000065
1490.0	0.0002113	109.953000069
1490.0	0.0002108	109.984999895
1490.0	0.0002108	110.032000065
1490.0	0.0002105	110.078000069
1490.0	0.0002105	110.109999895
1490.0	0.0002105	110.157000065
1490.0	0.0002108	110.187999964
1490.0	0.0002108	110.234999895
1490.0	0.0002108	110.282000065
1490.0	0.0002105	110.312999964
1490.0	0.0002105	110.359999895
1490.0	0.0002108	110.407000065
1490.0	0.0002108	110.437999964
1490.0	0.0002105	110.484999895
1490.0	0.0002108	110.516000032
1490.0	0.0002108	110.562999964
1490.0	0.0002105	110.609999895
1490.0	0.0002103	110.657000065
1490.0	0.00021	110.687999964
1490.0	0.00021	110.734999895
1490.0	0.00021	110.782000065
1490.0	0.0002095	110.812999964
1490.0	0.0002105	110.859999895
1490.0	0.0002105	110.891000032
1490.0	0.0002108	110.937999964
1490.0	0.0002113	110.984999895
1490.0	0.0002108	111.016000032
1490.0	0.0002105	111.062999964
1490.0	0.0002105	111.109999895
1490.0	0.0002105	111.141000032
1490.0	0.0002105	111.187999964
1500.0	0.0002118	111.453000069
1500.0	0.0002118	111.5
1500.0	0.0002118	111.532000065
1500.0	0.0002118	111.578000069
1500.0	0.0002125	111.625
1500.0	0.0002128	111.657000065
1500.0	0.000213	111.703000069
1500.0	0.0002133	111.75
1500.0	0.0002138	111.782000065
1500.0	0.0002138	111.828000069
1500.0	0.0002138	111.859999895
1500.0	0.0002138	111.907000065
1500.0	0.0002138	111.953000069
1500.0	0.0002133	111.984999895
1500.0	0.000213	112.032000065
1500.0	0.0002128	112.078000069
1500.0	0.0002128	112.109999895
1500.0	0.0002125	112.157000065
1500.0	0.0002125	112.187999964
1500.0	0.0002125	112.234999895
1500.0	0.0002128	112.282000065
1500.0	0.0002128	112.312999964
1500.0	0.0002128	112.359999895
1500.0	0.000213	112.407000065
1500.0	0.000213	112.437999964
1500.0	0.000213	112.484999895
1500.0	0.0002125	112.532000065
1500.0	0.000212	112.562999964
1500.0	0.000212	112.609999895
1500.0	0.000212	112.657000065
1500.0	0.0002125	112.687999964
1500.0	0.0002125	112.734999895
1500.0	0.0002125	112.782000065
1500.0	0.0002128	112.812999964
1500.0	0.000213	112.859999895
1500.0	0.000213	112.891000032
1510.0	0.000213	113.171999931
1510.0	0.000213	113.219000101
1510.0	0.0002133	113.25
1510.0	0.0002133	113.296999931
1510.0	0.0002133	113.344000101
1510.0	0.0002133	113.375
1510.0	0.0002133	113.421999931
1510.0	0.000213	113.469000101
1510.0	0.0002133	113.5
1510.0	0.0002138	113.546999931
1510.0	0.0002138	113.578000069
1510.0	0.0002133	113.625
1510.0	0.000213	113.671999931
1510.0	0.0002133	113.703000069
1510.0	0.0002138	113.75
1510.0	0.0002138	113.782000065
1510.0	0.000214	113.828000069
1510.0	0.0002138	113.875
1510.0	0.000214	113.907000065
1510.0	0.0002143	113.953000069
1510.0	0.0002143	114.0
1510.0	0.0002145	114.032000065
1510.0	0.0002143	114.078000069
1510.0	0.000214	114.125
1510.0	0.0002138	114.157000065
1510.0	0.0002133	114.203000069
1510.0	0.000213	114.234999895
1510.0	0.0002128	114.282000065
1510.0	0.000213	114.328000069
1510.0	0.000213	114.359999895
1510.0	0.000213	114.407000065
1510.0	0.0002128	114.453000069
1510.0	0.0002128	114.484999895
1510.0	0.0002128	114.532000065
1510.0	0.0002125	114.562999964
1510.0	0.0002125	114.609999895
1510.0	0.0002125	114.657000065
1520.0	0.000212	114.921999931
1520.0	0.0002125	114.969000101
1520.0	0.0002128	115.016000032
1520.0	0.000213	115.046999931
1520.0	0.0002133	115.094000101
1520.0	0.000214	115.125
1520.0	0.000214	115.171999931
1520.0	0.000214	115.219000101
1520.0	0.000214	115.25
1520.0	0.0002138	115.296999931
1520.0	0.0002133	115.344000101
1520.0	0.0002138	115.375
1520.0	0.0002138	115.421999931
1520.0	0.0002133	115.469000101
1520.0	0.000213	115.5
1520.0	0.000213	115.546999931
1520.0	0.0002133	115.578000069
1520.0	0.000213	115.625
1520.0	0.000213	115.671999931
1520.0	0.0002133	115.703000069
1520.0	0.0002133	115.75
1520.0	0.0002133	115.796999931
1520.0	0.0002133	115.828000069
1520.0	0.0002138	115.875
1520.0	0.000214	115.907000065
1520.0	0.0002143	115.953000069
1520.0	0.0002143	116.0
1520.0	0.0002143	116.032000065
1520.0	0.0002138	116.078000069
1520.0	0.0002138	116.125
1520.0	0.0002133	116.157000065
1520.0	0.0002133	116.203000069
1520.0	0.0002133	116.234999895
1520.0	0.0002133	116.282000065
1520.0	0.0002133	116.328000069
1520.0	0.0002133	116.359999895
1520.0	0.000213	116.407000065
1530.0	0.0002133	116.687999964
1530.0	0.000213	116.719000101
1530.0	0.000213	116.766000032
1530.0	0.0002133	116.796999931
1530.0	0.0002128	116.844000101
1530.0	0.0002128	116.891000032
1530.0	0.0002128	116.921999931
1530.0	0.0002128	116.969000101
1530.0	0.0002125	117.016000032
1530.0	0.000212	117.046999931
1530.0	0.0002118	117.094000101
1530.0	0.0002118	117.141000032
1530.0	0.0002125	117.171999931
1530.0	0.000213	117.219000101
1530.0	0.0002133	117.25
1530.0	0.0002133	117.296999931
1530.0	0.0002138	117.344000101
1530.0	0.0002138	117.375
1530.0	0.0002133	117.484999895
1530.0	0.0002138	117.516000032
1530.0	0.000214	117.562999964
1530.0	0.0002138	117.609999895
1530.0	0.0002138	117.641000032
1530.0	0.000214	117.687999964
1530.0	0.0002138	117.734999895
1530.0	0.000214	117.766000032
1530.0	0.000214	117.812999964
1530.0	0.0002138	117.844000101
1530.0	0.000214	117.891000032
1530.0	0.0002143	117.937999964
1530.0	0.0002143	117.969000101
1530.0	0.0002143	118.016000032
1530.0	0.000214	118.062999964
1530.0	0.000214	118.094000101
1530.0	0.0002143	118.141000032
1540.0	0.0002125	118.421999931
1540.0	0.0002125	118.453000069
1540.0	0.0002118	118.5
1540.0	0.0002118	118.562999964
1540.0	0.0002113	118.609999895
1540.0	0.0002115	118.641000032
1540.0	0.0002115	118.687999964
1540.0	0.0002113	118.734999895
1540.0	0.0002113	118.766000032
1540.0	0.0002113	118.844000101
1540.0	0.0002113	118.875
1540.0	0.0002113	118.921999931
1540.0	0.0002108	118.953000069
1540.0	0.0002105	119.0
1540.0	0.0002105	119.046999931
1540.0	0.0002108	119.078000069
1540.0	0.0002108	119.125
1540.0	0.0002105	119.171999931
1540.0	0.0002108	119.203000069
1540.0	0.0002108	119.25
1540.0	0.0002105	119.282000065
1540.0	0.0002105	119.328000069
1540.0	0.0002103	119.375
1540.0	0.0002103	119.407000065
1540.0	0.0002105	119.453000069
1540.0	0.0002105	119.5
1540.0	0.0002105	119.532000065
1540.0	0.0002105	119.578000069
1540.0	0.0002103	119.609999895
1540.0	0.0002103	119.657000065
1540.0	0.0002103	119.703000069
1540.0	0.00021	119.734999895
1540.0	0.00021	119.782000065
1540.0	0.0002103	119.828000069
1540.0	0.0002105	119.859999895
1540.0	0.0002105	119.907000065
1550.0	0.000209	120.187999964
1550.0	0.0002088	120.219000101
1550.0	0.0002083	120.266000032
1550.0	0.0002083	120.312999964
1550.0	0.000208	120.344000101
1550.0	0.000208	120.391000032
1550.0	0.000208	120.437999964
1550.0	0.0002075	120.469000101
1550.0	0.0002075	120.516000032
1550.0	0.0002075	120.546999931
1550.0	0.0002068	120.594000101
1550.0	0.0002068	120.641000032
1550.0	0.0002065	120.671999931
1550.0	0.0002065	120.719000101
1550.0	0.0002068	120.766000032
1550.0	0.0002068	120.796999931
1550.0	0.000207	120.844000101
1550.0	0.0002068	120.875
1550.0	0.0002068	120.921999931
1550.0	0.0002068	120.969000101
1550.0	0.0002068	121.0
1550.0	0.0002065	121.046999931
1550.0	0.000207	121.094000101
1550.0	0.0002075	121.125
1550.0	0.0002075	121.171999931
1550.0	0.000207	121.219000101
1550.0	0.0002075	121.25
1550.0	0.0002078	121.296999931
1550.0	0.000208	121.328000069
1550.0	0.000208	121.375
1550.0	0.0002078	121.421999931
1550.0	0.000208	121.453000069
1550.0	0.0002083	121.5
1550.0	0.0002083	121.546999931
1550.0	0.000208	121.578000069
1550.0	0.000208	121.625
1550.0	0.000208	121.657000065
1560.0	0.0002055	121.953000069
1560.0	0.000205	121.984999895
1560.0	0.0002043	122.032000065
1560.0	0.0002043	122.062999964
1560.0	0.000204	122.109999895
1560.0	0.0002038	122.157000065
1560.0	0.000204	122.187999964
1560.0	0.0002038	122.234999895
1560.0	0.0002033	122.282000065
1560.0	0.000203	122.312999964
1560.0	0.0002028	122.359999895
1560.0	0.000203	122.391000032
1560.0	0.0002028	122.437999964
1560.0	0.000203	122.484999895
1560.0	0.0002033	122.516000032
1560.0	0.0002033	122.562999964
1560.0	0.0002038	122.609999895
1560.0	0.0002038	122.641000032
1560.0	0.0002033	122.687999964
1560.0	0.0002033	122.719000101
1560.0	0.000203	122.766000032
1560.0	0.000203	122.812999964
1560.0	0.000203	122.844000101
1560.0	0.000203	122.891000032
1560.0	0.0002033	122.937999964
1560.0	0.0002033	122.984999895
1560.0	0.000203	123.016000032
1560.0	0.0002028	123.062999964
1560.0	0.0002028	123.094000101
1560.0	0.0002028	123.141000032
1560.0	0.0002025	123.187999964
1560.0	0.0002025	123.219000101
1560.0	0.0002025	123.266000032
1560.0	0.0002025	123.312999964
1560.0	0.0002025	123.344000101
1560.0	0.0002028	123.391000032
1560.0	0.0002028	123.421999931
1570.0	0.0001995	123.703000069
1570.0	0.000199	123.734999895
1570.0	0.000198	123.782000065
1570.0	0.0001975	123.828000069
1570.0	0.0001968	123.859999895
1570.0	0.0001963	123.907000065
1570.0	0.0001963	123.953000069
1570.0	0.0001958	123.984999895
1570.0	0.0001958	124.032000065
1570.0	0.0001958	124.062999964
1570.0	0.0001955	124.109999895
1570.0	0.0001955	124.157000065
1570.0	0.0001955	124.187999964
1570.0	0.0001953	124.234999895
1570.0	0.0001953	124.282000065
1570.0	0.0001955	124.312999964
1570.0	0.0001955	124.359999895
1570.0	0.0001955	124.407000065
1570.0	0.0001955	124.437999964
1570.0	0.0001955	124.484999895
1570.0	0.0001955	124.532000065
1570.0	0.0001955	124.562999964
1570.0	0.0001955	124.609999895
1570.0	0.0001955	124.641000032
1570.0	0.0001953	124.687999964
1570.0	0.000195	124.734999895
1570.0	0.000195	124.766000032
1570.0	0.0001953	124.812999964
1570.0	0.000195	124.859999895
1570.0	0.000195	124.891000032
1570.0	0.000195	124.937999964
1570.0	0.000195	124.984999895
1570.0	0.000195	125.016000032
1570.0	0.0001953	125.062999964
1570.0	0.0001953	125.109999895
1570.0	0.0001953	125.141000032
1570.0	0.0001953	125.187999964
1580.0	0.000192	125.469000101
1580.0	0.0001908	125.5
1580.0	0.00019	125.546999931
1580.0	0.0001893	125.578000069
1580.0	0.0001888	125.625
1580.0	0.000188	125.671999931
1580.0	0.000188	125.703000069
1580.0	0.000188	125.75
1580.0	0.000188	125.796999931
1580.0	0.000188	125.828000069
1580.0	0.000188	125.875
1580.0	0.0001883	125.907000065
1580.0	0.000188	125.953000069
1580.0	0.0001878	126.0
1580.0	0.0001878	126.032000065
1580.0	0.000188	126.078000069
1580.0	0.0001878	126.125
1580.0	0.0001878	126.157000065
1580.0	0.0001875	126.203000069
1580.0	0.0001875	126.234999895
1580.0	0.0001875	126.282000065
1580.0	0.0001875	126.328000069
1580.0	0.000187	126.359999895
1580.0	0.000187	126.407000065
1580.0	0.000187	126.453000069
1580.0	0.000187	126.484999895
1580.0	0.000187	126.532000065
1580.0	0.0001868	126.578000069
1580.0	0.0001868	126.609999895
1580.0	0.0001868	126.657000065
1580.0	0.0001868	126.687999964
1580.0	0.0001865	126.734999895
1580.0	0.0001868	126.782000065
1580.0	0.0001868	126.812999964
1580.0	0.0001865	126.859999895
1580.0	0.0001868	126.907000065
1580.0	0.0001868	126.937999964
1590.0	0.000183	127.219000101
1590.0	0.0001818	127.25
1590.0	0.0001808	127.296999931
1590.0	0.00018	127.344000101
1590.0	0.0001793	127.375
1590.0	0.0001788	127.421999931
1590.0	0.0001783	127.469000101
1590.0	0.000178	127.5
1590.0	0.0001775	127.546999931
1590.0	0.000177	127.578000069
1590.0	0.0001768	127.625
1590.0	0.0001765	127.671999931
1590.0	0.0001763	127.703000069
1590.0	0.0001758	127.75
1590.0	0.0001758	127.796999931
1590.0	0.0001758	127.828000069
1590.0	0.0001763	127.875
1590.0	0.0001763	127.907000065
1590.0	0.0001763	127.953000069
1590.0	0.0001763	128.0
1590.0	0.0001763	128.046999931
1590.0	0.0001758	128.078000069
1590.0	0.0001758	128.125
1590.0	0.0001758	128.157000065
1590.0	0.0001758	128.203000069
1590.0	0.0001763	128.25
1590.0	0.0001763	128.282000065
1590.0	0.0001763	128.328000069
1590.0	0.0001758	128.375
1590.0	0.0001755	128.407000065
1590.0	0.0001755	128.453000069
1590.0	0.0001755	128.5
1590.0	0.0001755	128.532000065
1590.0	0.0001755	128.578000069
1590.0	0.0001755	128.609999895
1590.0	0.0001755	128.657000065
1590.0	0.0001755	128.703000069
1600.0	0.0001715	128.969000101
1600.0	0.00017	129.016000032
1600.0	0.0001683	129.062999964
1600.0	0.0001675	129.094000101
1600.0	0.0001668	129.141000032
1600.0	0.0001658	129.171999931
1600.0	0.0001653	129.219000101
1600.0	0.000165	129.266000032
1600.0	0.0001645	129.296999931
1600.0	0.0001645	129.344000101
1600.0	0.0001643	129.391000032
1600.0	0.0001645	129.421999931
1600.0	0.000165	129.469000101
1600.0	0.0001653	129.5
1600.0	0.000165	129.546999931
1600.0	0.0001645	129.594000101
1600.0	0.0001643	129.625
1600.0	0.0001643	129.671999931
1600.0	0.0001643	129.719000101
1600.0	0.000164	129.75
1600.0	0.000164	129.796999931
1600.0	0.000164	129.844000101
1600.0	0.0001643	129.875
1600.0	0.0001643	129.921999931
1600.0	0.0001643	129.953000069
1600.0	0.0001645	130.0
1600.0	0.0001643	130.046999931
1600.0	0.0001643	130.078000069
1600.0	0.0001645	130.125
1600.0	0.0001643	130.157000065
1600.0	0.0001643	130.203000069
1600.0	0.000164	130.25
1600.0	0.000164	130.282000065
1600.0	0.000164	130.328000069
1600.0	0.000164	130.375
1600.0	0.000164	130.407000065
1600.0	0.0001643	130.453000069
1610.0	0.0001595	130.734999895
1610.0	0.000158	130.782000065
1610.0	0.0001565	130.812999964
1610.0	0.0001555	130.859999895
1610.0	0.0001545	130.907000065
1610.0	0.000154	130.937999964
1610.0	0.000154	130.984999895
1610.0	0.0001538	131.016000032
1610.0	0.000153	131.062999964
1610.0	0.000153	131.109999895
1610.0	0.0001528	131.141000032
1610.0	0.0001525	131.187999964
1610.0	0.000152	131.234999895
1610.0	0.000152	131.266000032
1610.0	0.0001518	131.312999964
1610.0	0.0001518	131.344000101
1610.0	0.0001515	131.391000032
1610.0	0.0001515	131.437999964
1610.0	0.0001513	131.469000101
1610.0	0.0001513	131.516000032
1610.0	0.0001513	131.562999964
1610.0	0.0001513	131.594000101
1610.0	0.0001513	131.641000032
1610.0	0.0001513	131.687999964
1610.0	0.0001513	131.719000101
1610.0	0.0001513	131.766000032
1610.0	0.0001513	131.796999931
1610.0	0.0001515	131.844000101
1610.0	0.0001515	131.891000032
1610.0	0.0001513	131.921999931
1610.0	0.0001513	131.969000101
1610.0	0.0001513	132.016000032
1610.0	0.0001515	132.046999931
1610.0	0.0001518	132.094000101
1610.0	0.0001515	132.125
1610.0	0.0001518	132.171999931
1610.0	0.0001518	132.219000101
1620.0	0.0001463	132.5
1620.0	0.0001443	132.532000065
1620.0	0.0001425	132.578000069
1620.0	0.0001415	132.609999895
1620.0	0.0001403	132.657000065
1620.0	0.0001393	132.703000069
1620.0	0.000139	132.734999895
1620.0	0.0001383	132.782000065
1620.0	0.000138	132.828000069
1620.0	0.0001378	132.859999895
1620.0	0.0001375	132.907000065
1620.0	0.0001375	132.937999964
1620.0	0.0001375	132.984999895
1620.0	0.0001375	133.032000065
1620.0	0.000137	133.062999964
1620.0	0.0001375	133.109999895
1620.0	0.000137	133.157000065
1620.0	0.000137	133.187999964
1620.0	0.0001375	133.234999895
1620.0	0.0001375	133.266000032
1620.0	0.0001375	133.312999964
1620.0	0.0001375	133.359999895
1620.0	0.0001375	133.391000032
1620.0	0.0001378	133.437999964
1620.0	0.0001378	133.484999895
1620.0	0.0001383	133.516000032
1620.0	0.0001383	133.562999964
1620.0	0.0001383	133.609999895
1620.0	0.000138	133.641000032
1620.0	0.000138	133.687999964
1620.0	0.000138	133.719000101
1620.0	0.000138	133.766000032
1620.0	0.0001383	133.812999964
1620.0	0.000139	133.844000101
1620.0	0.000139	133.891000032
1620.0	0.000139	133.937999964
1620.0	0.000139	133.969000101
1630.0	0.000133	134.25
1630.0	0.0001315	134.296999931
1630.0	0.00013	134.344000101
1630.0	0.0001288	134.375
1630.0	0.0001275	134.421999931
1630.0	0.0001263	134.453000069
1630.0	0.0001258	134.5
1630.0	0.0001255	134.546999931
1630.0	0.0001253	134.578000069
1630.0	0.0001255	134.625
1630.0	0.0001255	134.671999931
1630.0	0.0001255	134.703000069
1630.0	0.0001255	134.75
1630.0	0.0001255	134.782000065
1630.0	0.0001253	134.828000069
1630.0	0.000125	134.875
1630.0	0.0001245	134.907000065
1630.0	0.0001245	134.953000069
1630.0	0.0001245	135.0
1630.0	0.0001245	135.032000065
1630.0	0.000125	135.078000069
1630.0	0.0001245	135.109999895
1630.0	0.000125	135.157000065
1630.0	0.0001245	135.203000069
1630.0	0.0001245	135.234999895
1630.0	0.0001245	135.282000065
1630.0	0.0001243	135.328000069
1630.0	0.000124	135.359999895
1630.0	0.0001238	135.407000065
1630.0	0.0001238	135.453000069
1630.0	0.000124	135.484999895
1630.0	0.0001238	135.532000065
1630.0	0.0001238	135.562999964
1630.0	0.0001238	135.609999895
1630.0	0.000124	135.657000065
1630.0	0.0001238	135.687999964
1630.0	0.0001238	135.734999895
1640.0	0.0001193	136.016000032
1640.0	0.0001178	136.062999964
1640.0	0.0001163	136.094000101
1640.0	0.0001153	136.141000032
1640.0	0.0001143	136.187999964
1640.0	0.0001138	136.219000101
1640.0	0.0001133	136.266000032
1640.0	0.0001128	136.312999964
1640.0	0.0001125	136.344000101
1640.0	0.000112	136.391000032
1640.0	0.0001118	136.437999964
1640.0	0.000112	136.484999895
1640.0	0.0001118	136.516000032
1640.0	0.0001115	136.562999964
1640.0	0.0001113	136.594000101
1640.0	0.0001108	136.641000032
1640.0	0.0001105	136.687999964
1640.0	0.0001105	136.719000101
1640.0	0.0001105	136.766000032
1640.0	0.0001105	136.812999964
1640.0	0.0001103	136.844000101
1640.0	0.0001105	136.891000032
1640.0	0.0001105	136.937999964
1640.0	0.0001105	136.969000101
1640.0	0.0001105	137.016000032
1640.0	0.0001105	137.062999964
1640.0	0.0001105	137.094000101
1640.0	0.0001103	137.141000032
1640.0	0.0001103	137.171999931
1640.0	0.0001103	137.219000101
1640.0	0.0001105	137.266000032
1640.0	0.0001108	137.296999931
1640.0	0.0001113	137.344000101
1640.0	0.0001113	137.391000032
1640.0	0.0001113	137.421999931
1640.0	0.0001113	137.469000101
1650.0	0.0001068	137.75
1650.0	0.0001058	137.796999931
1650.0	0.0001043	137.828000069
1650.0	0.0001028	137.875
1650.0	0.0001018	137.921999931
1650.0	0.0001005	137.953000069
1650.0	0.0001003	138.0
1650.0	0.0001003	138.032000065
1650.0	0.0001003	138.078000069
1650.0	0.0001003	138.125
1650.0	0.0001	138.157000065
1650.0	9.95e-05	138.203000069
1650.0	0.0001	138.25
1650.0	0.0001	138.282000065
1650.0	0.0001	138.328000069
1650.0	0.0001	138.359999895
1650.0	9.95e-05	138.407000065
1650.0	9.93e-05	138.453000069
1650.0	9.9e-05	138.484999895
1650.0	9.9e-05	138.532000065
1650.0	9.93e-05	138.578000069
1650.0	9.95e-05	138.609999895
1650.0	9.95e-05	138.657000065
1650.0	9.95e-05	138.687999964
1650.0	9.93e-05	138.734999895
1650.0	9.95e-05	138.782000065
1650.0	9.95e-05	138.812999964
1650.0	0.0001	138.859999895
1650.0	0.0001003	138.907000065
1650.0	0.0001003	138.937999964
1650.0	0.0001005	138.984999895
1650.0	0.0001005	139.032000065
1650.0	0.0001	139.062999964
1650.0	0.0001003	139.109999895
1650.0	0.0001003	139.141000032
1650.0	0.0001003	139.187999964
1650.0	0.0001003	139.234999895
1660.0	9.58e-05	139.516000032
1660.0	9.43e-05	139.546999931
1660.0	9.3e-05	139.594000101
1660.0	9.18e-05	139.641000032
1660.0	9.08e-05	139.671999931
1660.0	9.05e-05	139.719000101
1660.0	9.05e-05	139.766000032
1660.0	9.03e-05	139.796999931
1660.0	9.03e-05	139.844000101
1660.0	9e-05	139.891000032
1660.0	8.95e-05	139.921999931
1660.0	8.93e-05	139.969000101
1660.0	8.9e-05	140.0
1660.0	8.9e-05	140.046999931
1660.0	8.9e-05	140.094000101
1660.0	8.9e-05	140.141000032
1660.0	8.9e-05	140.171999931
1660.0	8.9e-05	140.219000101
1660.0	8.9e-05	140.25
1660.0	8.9e-05	140.296999931
1660.0	8.9e-05	140.344000101
1660.0	8.93e-05	140.375
1660.0	8.9e-05	140.421999931
1660.0	8.88e-05	140.469000101
1660.0	8.83e-05	140.5
1660.0	8.8e-05	140.546999931
1660.0	8.8e-05	140.578000069
1660.0	8.8e-05	140.625
1660.0	8.8e-05	140.671999931
1660.0	8.78e-05	140.703000069
1660.0	8.8e-05	140.75
1660.0	8.8e-05	140.796999931
1660.0	8.8e-05	140.828000069
1660.0	8.78e-05	140.875
1660.0	8.78e-05	140.921999931
1660.0	8.78e-05	140.953000069
1660.0	8.78e-05	141.0
1670.0	8.43e-05	141.282000065
1670.0	8.3e-05	141.328000069
1670.0	8.18e-05	141.375
1670.0	8.13e-05	141.407000065
1670.0	8.03e-05	141.453000069
1670.0	7.93e-05	141.484999895
1670.0	7.88e-05	141.532000065
1670.0	7.88e-05	141.578000069
1670.0	7.88e-05	141.609999895
1670.0	7.88e-05	141.657000065
1670.0	7.83e-05	141.703000069
1670.0	7.8e-05	141.734999895
1670.0	7.78e-05	141.782000065
1670.0	7.78e-05	141.828000069
1670.0	7.78e-05	141.859999895
1670.0	7.75e-05	141.907000065
1670.0	7.78e-05	141.937999964
1670.0	7.8e-05	141.984999895
1670.0	7.83e-05	142.032000065
1670.0	7.9e-05	142.062999964
1670.0	7.9e-05	142.109999895
1670.0	7.9e-05	142.157000065
1670.0	7.9e-05	142.187999964
1670.0	7.93e-05	142.234999895
1670.0	7.93e-05	142.282000065
1670.0	7.93e-05	142.312999964
1670.0	7.93e-05	142.359999895
1670.0	7.9e-05	142.407000065
1670.0	7.93e-05	142.437999964
1670.0	7.93e-05	142.484999895
1670.0	7.93e-05	142.516000032
1670.0	7.9e-05	142.562999964
1670.0	7.9e-05	142.609999895
1670.0	7.93e-05	142.641000032
1670.0	7.93e-05	142.687999964
1670.0	7.93e-05	142.734999895
1670.0	7.95e-05	142.766000032
1680.0	7.58e-05	143.062999964
1680.0	7.45e-05	143.094000101
1680.0	7.38e-05	143.141000032
1680.0	7.28e-05	143.187999964
1680.0	7.25e-05	143.219000101
1680.0	7.2e-05	143.266000032
1680.0	7.18e-05	143.312999964
1680.0	7.13e-05	143.344000101
1680.0	7.08e-05	143.391000032
1680.0	7.05e-05	143.437999964
1680.0	7.03e-05	143.469000101
1680.0	7.03e-05	143.516000032
1680.0	7.03e-05	143.546999931
1680.0	7.03e-05	143.594000101
1680.0	7.03e-05	143.641000032
1680.0	7.03e-05	143.671999931
1680.0	7.03e-05	143.719000101
1680.0	7.03e-05	143.766000032
1680.0	7.05e-05	143.796999931
1680.0	7.05e-05	143.844000101
1680.0	7.05e-05	143.891000032
1680.0	7.05e-05	143.921999931
1680.0	7.08e-05	143.969000101
1680.0	7.08e-05	144.0
1680.0	7.08e-05	144.046999931
1680.0	7.05e-05	144.094000101
1680.0	7.03e-05	144.125
1680.0	7e-05	144.171999931
1680.0	6.95e-05	144.219000101
1680.0	6.95e-05	144.25
1680.0	6.95e-05	144.296999931
1680.0	6.93e-05	144.328000069
1680.0	6.9e-05	144.375
1680.0	6.9e-05	144.421999931
1680.0	6.9e-05	144.453000069
1680.0	6.9e-05	144.5
1680.0	6.9e-05	144.546999931
1690.0	6.65e-05	144.828000069
1690.0	6.58e-05	144.875
1690.0	6.53e-05	144.907000065
1690.0	6.45e-05	144.953000069
1690.0	6.4e-05	144.984999895
1690.0	6.38e-05	145.032000065
1690.0	6.38e-05	145.078000069
1690.0	6.3e-05	145.109999895
1690.0	6.28e-05	145.157000065
1690.0	6.28e-05	145.203000069
1690.0	6.3e-05	145.234999895
1690.0	6.3e-05	145.282000065
1690.0	6.3e-05	145.312999964
1690.0	6.33e-05	145.359999895
1690.0	6.33e-05	145.407000065
1690.0	6.3e-05	145.437999964
1690.0	6.3e-05	145.484999895
1690.0	6.28e-05	145.532000065
1690.0	6.28e-05	145.562999964
1690.0	6.28e-05	145.609999895
1690.0	6.28e-05	145.657000065
1690.0	6.25e-05	145.687999964
1690.0	6.25e-05	145.734999895
1690.0	6.28e-05	145.766000032
1690.0	6.28e-05	145.812999964
1690.0	6.28e-05	145.859999895
1690.0	6.28e-05	145.891000032
1690.0	6.28e-05	145.937999964
1690.0	6.28e-05	145.984999895
1690.0	6.28e-05	146.016000032
1690.0	6.28e-05	146.062999964
1690.0	6.25e-05	146.094000101
1690.0	6.25e-05	146.141000032
1690.0	6.2e-05	146.187999964
1690.0	6.2e-05	146.219000101
1690.0	6.2e-05	146.266000032
1690.0	6.2e-05	146.312999964
1700.0	6.05e-05	146.594000101
1700.0	6.03e-05	146.641000032
1700.0	5.95e-05	146.671999931
1700.0	5.93e-05	146.719000101
1700.0	5.83e-05	146.766000032
1700.0	5.78e-05	146.796999931
1700.0	5.7e-05	146.844000101
1700.0	5.68e-05	146.875
1700.0	5.68e-05	146.921999931
1700.0	5.63e-05	146.969000101
1700.0	5.63e-05	147.0
1700.0	5.63e-05	147.046999931
1700.0	5.63e-05	147.094000101
1700.0	5.65e-05	147.125
1700.0	5.68e-05	147.171999931
1700.0	5.68e-05	147.203000069
1700.0	5.65e-05	147.25
1700.0	5.65e-05	147.296999931
1700.0	5.65e-05	147.328000069
1700.0	5.65e-05	147.375
1700.0	5.58e-05	147.421999931
1700.0	5.58e-05	147.453000069
1700.0	5.63e-05	147.5
1700.0	5.63e-05	147.532000065
1700.0	5.63e-05	147.578000069
1700.0	5.63e-05	147.625
1700.0	5.63e-05	147.657000065
1700.0	5.63e-05	147.703000069
1700.0	5.63e-05	147.75
1700.0	5.58e-05	147.782000065
1700.0	5.58e-05	147.828000069
1700.0	5.58e-05	147.859999895
1700.0	5.58e-05	147.907000065
1700.0	5.58e-05	147.953000069
1700.0	5.58e-05	147.984999895
1700.0	5.63e-05	148.032000065
1700.0	5.63e-05	148.078000069
1710.0	5.3e-05	148.359999895
1710.0	5.25e-05	148.407000065
1710.0	5.2e-05	148.437999964
1710.0	5.18e-05	148.484999895
1710.0	5.15e-05	148.532000065
1710.0	5.13e-05	148.562999964
1710.0	5.05e-05	148.609999895
1710.0	5.03e-05	148.641000032
1710.0	5.03e-05	148.687999964
1710.0	5.03e-05	148.734999895
1710.0	5e-05	148.766000032
1710.0	5.03e-05	148.812999964
1710.0	5.03e-05	148.859999895
1710.0	5.03e-05	148.891000032
1710.0	5.03e-05	148.937999964
1710.0	5e-05	148.969000101
1710.0	5e-05	149.016000032
1710.0	5e-05	149.062999964
1710.0	5e-05	149.094000101
1710.0	5e-05	149.141000032
1710.0	5.03e-05	149.187999964
1710.0	5.03e-05	149.219000101
1710.0	5.05e-05	149.266000032
1710.0	5.03e-05	149.296999931
1710.0	5.05e-05	149.344000101
1710.0	5.05e-05	149.391000032
1710.0	5.05e-05	149.421999931
1710.0	5.05e-05	149.469000101
1710.0	5.03e-05	149.516000032
1710.0	5.03e-05	149.562999964
1710.0	5.05e-05	149.594000101
1710.0	5.05e-05	149.641000032
1710.0	5.05e-05	149.671999931
1710.0	5.03e-05	149.719000101
1710.0	5e-05	149.766000032
1710.0	5e-05	149.796999931
1710.0	5e-05	149.844000101
1720.0	4.88e-05	150.125
1720.0	4.78e-05	150.171999931
1720.0	4.7e-05	150.219000101
1720.0	4.68e-05	150.25
1720.0	4.65e-05	150.296999931
1720.0	4.63e-05	150.328000069
1720.0	4.63e-05	150.375
1720.0	4.63e-05	150.421999931
1720.0	4.65e-05	150.453000069
1720.0	4.68e-05	150.5
1720.0	4.65e-05	150.546999931
1720.0	4.65e-05	150.578000069
1720.0	4.65e-05	150.625
1720.0	4.68e-05	150.657000065
1720.0	4.68e-05	150.703000069
1720.0	4.65e-05	150.75
1720.0	4.63e-05	150.782000065
1720.0	4.63e-05	150.828000069
1720.0	4.58e-05	150.875
1720.0	4.55e-05	150.907000065
1720.0	4.55e-05	150.953000069
1720.0	4.55e-05	151.0
1720.0	4.55e-05	151.032000065
1720.0	4.55e-05	151.078000069
1720.0	4.58e-05	151.109999895
1720.0	4.58e-05	151.157000065
1720.0	4.58e-05	151.203000069
1720.0	4.55e-05	151.234999895
1720.0	4.55e-05	151.282000065
1720.0	4.58e-05	151.328000069
1720.0	4.55e-05	151.359999895
1720.0	4.55e-05	151.407000065
1720.0	4.55e-05	151.437999964
1720.0	4.53e-05	151.484999895
1720.0	4.53e-05	151.532000065
1720.0	4.53e-05	151.562999964
1720.0	4.53e-05	151.609999895
1730.0	4.43e-05	151.891000032
1730.0	4.4e-05	151.937999964
1730.0	4.38e-05	151.984999895
1730.0	4.33e-05	152.016000032
1730.0	4.25e-05	152.062999964
1730.0	4.2e-05	152.109999895
1730.0	4.2e-05	152.141000032
1730.0	4.2e-05	152.187999964
1730.0	4.18e-05	152.219000101
1730.0	4.15e-05	152.266000032
1730.0	4.15e-05	152.312999964
1730.0	4.15e-05	152.344000101
1730.0	4.15e-05	152.391000032
1730.0	4.15e-05	152.437999964
1730.0	4.15e-05	152.469000101
1730.0	4.13e-05	152.516000032
1730.0	4.15e-05	152.546999931
1730.0	4.15e-05	152.594000101
1730.0	4.15e-05	152.641000032
1730.0	4.13e-05	152.671999931
1730.0	4.08e-05	152.719000101
1730.0	4.08e-05	152.766000032
1730.0	4.08e-05	152.796999931
1730.0	4.08e-05	152.844000101
1730.0	4.08e-05	152.875
1730.0	4.13e-05	152.921999931
1730.0	4.13e-05	152.969000101
1730.0	4.08e-05	153.016000032
1730.0	4.08e-05	153.046999931
1730.0	4.08e-05	153.094000101
1730.0	4.08e-05	153.125
1730.0	4.05e-05	153.171999931
1730.0	4.05e-05	153.219000101
1730.0	4.03e-05	153.266000032
1730.0	4.03e-05	153.296999931
1730.0	4.03e-05	153.344000101
1730.0	4.03e-05	153.391000032
1740.0	4e-05	153.671999931
1740.0	3.93e-05	153.719000101
1740.0	3.93e-05	153.75
1740.0	3.9e-05	153.796999931
1740.0	3.88e-05	153.828000069
1740.0	3.88e-05	153.875
1740.0	3.83e-05	153.921999931
1740.0	3.83e-05	153.953000069
1740.0	3.8e-05	154.0
1740.0	3.8e-05	154.046999931
1740.0	3.83e-05	154.078000069
1740.0	3.9e-05	154.125
1740.0	3.9e-05	154.157000065
1740.0	3.9e-05	154.203000069
1740.0	3.93e-05	154.25
1740.0	3.93e-05	154.282000065
1740.0	3.9e-05	154.328000069
1740.0	3.88e-05	154.375
1740.0	3.88e-05	154.407000065
1740.0	3.88e-05	154.453000069
1740.0	3.83e-05	154.484999895
1740.0	3.88e-05	154.532000065
1740.0	3.88e-05	154.578000069
1740.0	3.88e-05	154.609999895
1740.0	3.88e-05	154.657000065
1740.0	3.88e-05	154.703000069
1740.0	3.88e-05	154.734999895
1740.0	3.88e-05	154.782000065
1740.0	3.83e-05	154.812999964
1740.0	3.88e-05	154.859999895
1740.0	3.88e-05	154.907000065
1740.0	3.88e-05	154.937999964
1740.0	3.88e-05	154.984999895
1740.0	3.88e-05	155.032000065
1740.0	3.88e-05	155.078000069
1740.0	3.88e-05	155.109999895
1740.0	3.9e-05	155.157000065
1750.0	3.7e-05	155.437999964
1750.0	3.68e-05	155.484999895
1750.0	3.65e-05	155.516000032
1750.0	3.63e-05	155.562999964
1750.0	3.58e-05	155.609999895
1750.0	3.58e-05	155.641000032
1750.0	3.55e-05	155.687999964
1750.0	3.55e-05	155.734999895
1750.0	3.55e-05	155.766000032
1750.0	3.53e-05	155.812999964
1750.0	3.55e-05	155.844000101
1750.0	3.53e-05	155.891000032
1750.0	3.45e-05	155.937999964
1750.0	3.43e-05	155.969000101
1750.0	3.4e-05	156.016000032
1750.0	3.4e-05	156.062999964
1750.0	3.4e-05	156.094000101
1750.0	3.38e-05	156.141000032
1750.0	3.38e-05	156.187999964
1750.0	3.38e-05	156.219000101
1750.0	3.38e-05	156.266000032
1750.0	3.33e-05	156.296999931
1750.0	3.33e-05	156.344000101
1750.0	3.38e-05	156.391000032
1750.0	3.38e-05	156.421999931
1750.0	3.4e-05	156.469000101
1750.0	3.43e-05	156.516000032
1750.0	3.45e-05	156.546999931
1750.0	3.45e-05	156.594000101
1750.0	3.45e-05	156.625
1750.0	3.45e-05	156.671999931
1750.0	3.45e-05	156.719000101
1750.0	3.43e-05	156.75
1750.0	3.43e-05	156.796999931
1750.0	3.5e-05	156.844000101
1750.0	3.53e-05	156.875
1750.0	3.5e-05	156.921999931
1760.0	3.38e-05	157.203000069
1760.0	3.33e-05	157.25
1760.0	3.3e-05	157.282000065
1760.0	3.25e-05	157.328000069
1760.0	3.2e-05	157.375
1760.0	3.18e-05	157.407000065
1760.0	3.15e-05	157.453000069
1760.0	3.15e-05	157.5
1760.0	3.15e-05	157.532000065
1760.0	3.18e-05	157.578000069
1760.0	3.2e-05	157.609999895
1760.0	3.2e-05	157.657000065
1760.0	3.2e-05	157.703000069
1760.0	3.2e-05	157.734999895
1760.0	3.18e-05	157.782000065
1760.0	3.2e-05	157.828000069
1760.0	3.2e-05	157.859999895
1760.0	3.2e-05	157.907000065
1760.0	3.2e-05	157.953000069
1760.0	3.2e-05	157.984999895
1760.0	3.25e-05	158.032000065
1760.0	3.2e-05	158.062999964
1760.0	3.2e-05	158.109999895
1760.0	3.18e-05	158.157000065
1760.0	3.2e-05	158.187999964
1760.0	3.25e-05	158.234999895
1760.0	3.25e-05	158.282000065
1760.0	3.25e-05	158.312999964
1760.0	3.25e-05	158.359999895
1760.0	3.25e-05	158.391000032
1760.0	3.2e-05	158.437999964
1760.0	3.18e-05	158.484999895
1760.0	3.18e-05	158.516000032
1760.0	3.18e-05	158.562999964
1760.0	3.2e-05	158.609999895
1760.0	3.25e-05	158.641000032
1760.0	3.28e-05	158.687999964
1770.0	3.2e-05	158.984999895
1770.0	3.15e-05	159.016000032
1770.0	3.08e-05	159.062999964
1770.0	3.05e-05	159.094000101
1770.0	3.03e-05	159.141000032
1770.0	3e-05	159.187999964
1770.0	3e-05	159.219000101
1770.0	2.95e-05	159.266000032
1770.0	2.93e-05	159.312999964
1770.0	2.9e-05	159.344000101
1770.0	2.93e-05	159.391000032
1770.0	2.93e-05	159.437999964
1770.0	2.93e-05	159.469000101
1770.0	2.93e-05	159.516000032
1770.0	2.93e-05	159.562999964
1770.0	2.95e-05	159.594000101
1770.0	2.95e-05	159.641000032
1770.0	2.93e-05	159.671999931
1770.0	2.93e-05	159.719000101
1770.0	2.9e-05	159.766000032
1770.0	2.88e-05	159.796999931
1770.0	2.83e-05	159.844000101
1770.0	2.88e-05	159.891000032
1770.0	2.88e-05	159.937999964
1770.0	2.9e-05	159.969000101
1770.0	2.9e-05	160.016000032
1770.0	2.9e-05	160.046999931
1770.0	2.88e-05	160.094000101
1770.0	2.83e-05	160.141000032
1770.0	2.8e-05	160.171999931
1770.0	2.8e-05	160.219000101
1770.0	2.8e-05	160.266000032
1770.0	2.8e-05	160.296999931
1770.0	2.8e-05	160.344000101
1770.0	2.83e-05	160.375
1770.0	2.83e-05	160.421999931
1770.0	2.88e-05	160.469000101
1780.0	2.75e-05	160.75
1780.0	2.68e-05	160.796999931
1780.0	2.68e-05	160.828000069
1780.0	2.65e-05	160.875
1780.0	2.68e-05	160.921999931
1780.0	2.68e-05	160.953000069
1780.0	2.65e-05	161.0
1780.0	2.65e-05	161.032000065
1780.0	2.65e-05	161.078000069
1780.0	2.65e-05	161.125
1780.0	2.65e-05	161.157000065
1780.0	2.68e-05	161.203000069
1780.0	2.68e-05	161.25
1780.0	2.7e-05	161.282000065
1780.0	2.68e-05	161.328000069
1780.0	2.7e-05	161.375
1780.0	2.75e-05	161.407000065
1780.0	2.75e-05	161.453000069
1780.0	2.7e-05	161.484999895
1780.0	2.68e-05	161.532000065
1780.0	2.68e-05	161.578000069
1780.0	2.65e-05	161.609999895
1780.0	2.63e-05	161.657000065
1780.0	2.63e-05	161.703000069
1780.0	2.63e-05	161.734999895
1780.0	2.65e-05	161.782000065
1780.0	2.68e-05	161.812999964
1780.0	2.65e-05	161.859999895
1780.0	2.68e-05	161.907000065
1780.0	2.68e-05	161.937999964
1780.0	2.7e-05	161.984999895
1780.0	2.7e-05	162.032000065
1780.0	2.7e-05	162.062999964
1780.0	2.68e-05	162.109999895
1780.0	2.68e-05	162.141000032
1780.0	2.65e-05	162.187999964
1780.0	2.63e-05	162.234999895
1790.0	2.58e-05	162.516000032
1790.0	2.55e-05	162.562999964
1790.0	2.55e-05	162.594000101
1790.0	2.5e-05	162.641000032
1790.0	2.53e-05	162.687999964
1790.0	2.5e-05	162.719000101
1790.0	2.5e-05	162.766000032
1790.0	2.45e-05	162.812999964
1790.0	2.43e-05	162.844000101
1790.0	2.4e-05	162.891000032
1790.0	2.4e-05	162.921999931
1790.0	2.4e-05	162.969000101
1790.0	2.45e-05	163.016000032
1790.0	2.45e-05	163.046999931
1790.0	2.45e-05	163.094000101
1790.0	2.43e-05	163.141000032
1790.0	2.43e-05	163.171999931
1790.0	2.4e-05	163.219000101
1790.0	2.4e-05	163.25
1790.0	2.43e-05	163.296999931
1790.0	2.43e-05	163.344000101
1790.0	2.4e-05	163.375
1790.0	2.4e-05	163.421999931
1790.0	2.43e-05	163.469000101
1790.0	2.4e-05	163.5
1790.0	2.4e-05	163.546999931
1790.0	2.4e-05	163.578000069
1790.0	2.4e-05	163.625
1790.0	2.4e-05	163.671999931
1790.0	2.4e-05	163.703000069
1790.0	2.38e-05	163.75
1790.0	2.38e-05	163.796999931
1790.0	2.38e-05	163.828000069
1790.0	2.38e-05	163.875
1790.0	2.38e-05	163.907000065
1790.0	2.38e-05	163.953000069
1790.0	2.38e-05	164.0
1800.0	2.33e-05	164.282000065
1800.0	2.28e-05	164.328000069
1800.0	2.28e-05	164.375
1800.0	2.2e-05	164.407000065
1800.0	2.18e-05	164.453000069
1800.0	2.18e-05	164.5
1800.0	2.15e-05	164.532000065
1800.0	2.18e-05	164.578000069
1800.0	2.15e-05	164.625
1800.0	2.18e-05	164.657000065
1800.0	2.18e-05	164.703000069
1800.0	2.18e-05	164.75
1800.0	2.15e-05	164.782000065
1800.0	2.15e-05	164.828000069
1800.0	2.15e-05	164.859999895
1800.0	2.13e-05	164.907000065
1800.0	2.08e-05	164.953000069
1800.0	2.08e-05	165.0
1800.0	2.05e-05	165.032000065
1800.0	2.03e-05	165.078000069
1800.0	2.03e-05	165.109999895
1800.0	2.05e-05	165.157000065
1800.0	2.05e-05	165.203000069
1800.0	2.08e-05	165.25
1800.0	2.13e-05	165.282000065
1800.0	2.15e-05	165.328000069
1800.0	2.15e-05	165.375
1800.0	2.13e-05	165.407000065
1800.0	2.15e-05	165.453000069
1800.0	2.13e-05	165.484999895
1800.0	2.15e-05	165.532000065
1800.0	2.15e-05	165.578000069
1800.0	2.15e-05	165.609999895
1800.0	2.15e-05	165.657000065
1800.0	2.18e-05	165.703000069
1800.0	2.2e-05	165.734999895
1800.0	2.25e-05	165.782000065
