Your edit line - do NOT delete this line
Wavelength [nm], Voltage [V], Elapsed time [s]
900.0	9.05e-05	14.0149998665
900.0	8.9e-05	14.0460000038
900.0	8.7e-05	14.0929999352
900.0	8.58e-05	14.1399998665
900.0	8.53e-05	14.1710000038
900.0	8.5e-05	14.2179999352
900.0	8.5e-05	14.2649998665
900.0	8.45e-05	14.2960000038
900.0	8.4e-05	14.3429999352
900.0	8.33e-05	14.375
900.0	8.28e-05	14.4210000038
900.0	8.28e-05	14.4679999352
900.0	8.3e-05	14.5
900.0	8.3e-05	14.5460000038
900.0	8.3e-05	14.5929999352
900.0	8.3e-05	14.625
900.0	8.28e-05	14.6710000038
900.0	8.25e-05	14.7029998302
900.0	8.25e-05	14.75
900.0	8.28e-05	14.7960000038
900.0	8.3e-05	14.8279998302
900.0	8.28e-05	14.875
900.0	8.28e-05	14.9210000038
900.0	8.3e-05	14.9529998302
900.0	8.28e-05	15.0
900.0	8.28e-05	15.0460000038
900.0	8.25e-05	15.0779998302
900.0	8.2e-05	15.125
900.0	8.2e-05	15.1559998989
900.0	8.18e-05	15.2029998302
900.0	8.15e-05	15.25
900.0	8.13e-05	15.2809998989
900.0	8.13e-05	15.3279998302
900.0	8.13e-05	15.375
900.0	8.13e-05	15.4059998989
900.0	8.18e-05	15.4529998302
900.0	8.18e-05	15.4839999676
910.0	8.63e-05	15.7960000038
910.0	8.7e-05	15.8429999352
910.0	8.8e-05	15.875
910.0	8.93e-05	15.9210000038
910.0	9.05e-05	15.9679999352
910.0	9.08e-05	16.0
910.0	9.08e-05	16.0460000038
910.0	9.13e-05	16.0779998302
910.0	9.13e-05	16.125
910.0	9.15e-05	16.1710000038
910.0	9.15e-05	16.2029998302
910.0	9.13e-05	16.25
910.0	9.13e-05	16.2960000038
910.0	9.15e-05	16.3429999352
910.0	9.15e-05	16.375
910.0	9.18e-05	16.4210000038
910.0	9.18e-05	16.4529998302
910.0	9.18e-05	16.5
910.0	9.2e-05	16.5460000038
910.0	9.2e-05	16.5779998302
910.0	9.2e-05	16.625
910.0	9.25e-05	16.6710000038
910.0	9.2e-05	16.7029998302
910.0	9.25e-05	16.75
910.0	9.25e-05	16.7809998989
910.0	9.25e-05	16.8279998302
910.0	9.28e-05	16.875
910.0	9.3e-05	16.9059998989
910.0	9.33e-05	16.9529998302
910.0	9.33e-05	17.0
910.0	9.33e-05	17.0309998989
910.0	9.38e-05	17.0779998302
910.0	9.33e-05	17.125
910.0	9.33e-05	17.1559998989
910.0	9.38e-05	17.2029998302
910.0	9.4e-05	17.25
920.0	9.75e-05	17.5460000038
920.0	9.8e-05	17.5929999352
920.0	9.9e-05	17.6399998665
920.0	9.95e-05	17.6710000038
920.0	0.0001	17.7179999352
920.0	0.0001005	17.75
920.0	0.0001008	17.7960000038
920.0	0.0001013	17.8429999352
920.0	0.0001013	17.875
920.0	0.0001015	17.9210000038
920.0	0.0001013	17.9679999352
920.0	0.0001013	18.0
920.0	0.0001013	18.0460000038
920.0	0.0001015	18.0779998302
920.0	0.0001015	18.125
920.0	0.0001013	18.1710000038
920.0	0.0001013	18.2029998302
920.0	0.0001013	18.25
920.0	0.0001015	18.2960000038
920.0	0.0001015	18.3279998302
920.0	0.0001013	18.375
920.0	0.0001013	18.4210000038
920.0	0.0001008	18.4529998302
920.0	0.0001008	18.5
920.0	0.0001013	18.5309998989
920.0	0.0001013	18.5779998302
920.0	0.0001013	18.625
920.0	0.0001015	18.6559998989
920.0	0.0001015	18.7029998302
920.0	0.0001015	18.75
920.0	0.0001015	18.7809998989
920.0	0.0001015	18.8279998302
920.0	0.0001015	18.8589999676
920.0	0.0001015	18.9059998989
920.0	0.0001013	18.9529998302
920.0	0.0001013	18.9839999676
920.0	0.0001013	19.0309998989
930.0	0.0001068	19.3279998302
930.0	0.0001083	19.375
930.0	0.0001095	19.4210000038
930.0	0.0001105	19.4529998302
930.0	0.0001108	19.5
930.0	0.0001115	19.5460000038
930.0	0.0001115	19.5779998302
930.0	0.0001115	19.625
930.0	0.0001118	19.6559998989
930.0	0.000112	19.7029998302
930.0	0.0001125	19.75
930.0	0.0001128	19.7960000038
930.0	0.0001128	19.8279998302
930.0	0.0001128	19.875
930.0	0.0001128	19.9210000038
930.0	0.0001128	19.9529998302
930.0	0.0001125	20.0
930.0	0.000113	20.0309998989
930.0	0.000113	20.0779998302
930.0	0.0001133	20.125
930.0	0.0001133	20.1559998989
930.0	0.000113	20.2029998302
930.0	0.0001133	20.25
930.0	0.000113	20.2809998989
930.0	0.0001133	20.3279998302
930.0	0.0001138	20.3589999676
930.0	0.0001138	20.4059998989
930.0	0.000114	20.4529998302
930.0	0.000114	20.4839999676
930.0	0.000114	20.5309998989
930.0	0.000114	20.5779998302
930.0	0.0001138	20.6089999676
930.0	0.0001138	20.6559998989
930.0	0.0001138	20.7029998302
930.0	0.0001133	20.7339999676
930.0	0.0001133	20.7809998989
930.0	0.0001138	20.8279998302
940.0	0.0001183	21.125
940.0	0.0001195	21.1559998989
940.0	0.0001203	21.2029998302
940.0	0.0001213	21.25
940.0	0.000122	21.2809998989
940.0	0.0001228	21.3279998302
940.0	0.000123	21.375
940.0	0.000123	21.4059998989
940.0	0.000123	21.4529998302
940.0	0.0001233	21.4839999676
940.0	0.0001238	21.5309998989
940.0	0.0001238	21.5779998302
940.0	0.0001233	21.6089999676
940.0	0.0001233	21.6559998989
940.0	0.0001233	21.7029998302
940.0	0.000123	21.7339999676
940.0	0.000123	21.7809998989
940.0	0.000123	21.8120000362
940.0	0.000123	21.8589999676
940.0	0.000123	21.9059998989
940.0	0.000123	21.9370000362
940.0	0.0001228	21.9839999676
940.0	0.0001225	22.0309998989
940.0	0.0001225	22.0620000362
940.0	0.0001225	22.1089999676
940.0	0.0001228	22.1559998989
940.0	0.0001225	22.1870000362
940.0	0.0001228	22.2339999676
940.0	0.0001228	22.2649998665
940.0	0.0001228	22.3120000362
940.0	0.000123	22.3589999676
940.0	0.000123	22.3899998665
940.0	0.000123	22.4370000362
940.0	0.0001233	22.4839999676
940.0	0.0001238	22.5149998665
940.0	0.0001238	22.5620000362
940.0	0.0001238	22.6089999676
950.0	0.0001293	22.8899998665
950.0	0.0001305	22.9370000362
950.0	0.0001318	22.9839999676
950.0	0.000133	23.0149998665
950.0	0.0001338	23.0620000362
950.0	0.0001343	23.0929999352
950.0	0.0001345	23.1399998665
950.0	0.000135	23.1870000362
950.0	0.0001353	23.2179999352
950.0	0.0001358	23.2649998665
950.0	0.0001363	23.3120000362
950.0	0.0001363	23.3429999352
950.0	0.0001363	23.3899998665
950.0	0.0001363	23.4210000038
950.0	0.0001363	23.4679999352
950.0	0.0001363	23.5149998665
950.0	0.0001365	23.5460000038
950.0	0.0001363	23.5929999352
950.0	0.0001363	23.6399998665
950.0	0.0001363	23.6710000038
950.0	0.0001363	23.7179999352
950.0	0.0001363	23.7649998665
950.0	0.0001358	23.7960000038
950.0	0.0001358	23.8429999352
950.0	0.0001363	23.875
950.0	0.0001363	23.9210000038
950.0	0.0001363	23.9679999352
950.0	0.0001358	24.0149998665
950.0	0.0001358	24.0460000038
950.0	0.0001358	24.0929999352
950.0	0.0001355	24.125
950.0	0.0001355	24.1710000038
950.0	0.0001355	24.2179999352
950.0	0.0001353	24.25
950.0	0.000135	24.2960000038
950.0	0.000135	24.3429999352
950.0	0.0001353	24.375
960.0	0.000139	24.6710000038
960.0	0.0001405	24.7029998302
960.0	0.000142	24.75
960.0	0.000143	24.7960000038
960.0	0.000144	24.8279998302
960.0	0.000145	24.875
960.0	0.0001458	24.9059998989
960.0	0.0001465	24.9529998302
960.0	0.0001465	25.0
960.0	0.0001465	25.0309998989
960.0	0.0001463	25.0779998302
960.0	0.0001455	25.125
960.0	0.0001455	25.1559998989
960.0	0.0001455	25.2029998302
960.0	0.0001455	25.25
960.0	0.0001458	25.2809998989
960.0	0.0001463	25.3279998302
960.0	0.0001463	25.375
960.0	0.0001463	25.4059998989
960.0	0.0001463	25.4529998302
960.0	0.0001458	25.5
960.0	0.0001463	25.5309998989
960.0	0.0001458	25.5779998302
960.0	0.0001458	25.6089999676
960.0	0.0001458	25.6559998989
960.0	0.0001458	25.7029998302
960.0	0.0001458	25.7339999676
960.0	0.0001458	25.7809998989
960.0	0.0001458	25.8120000362
960.0	0.0001458	25.8589999676
960.0	0.0001458	25.9059998989
960.0	0.0001455	25.9370000362
960.0	0.0001458	25.9839999676
960.0	0.0001458	26.0309998989
960.0	0.0001458	26.0620000362
960.0	0.0001463	26.1089999676
960.0	0.0001455	26.1559998989
970.0	0.0001515	26.4370000362
970.0	0.000153	26.4679999352
970.0	0.0001543	26.5149998665
970.0	0.0001553	26.5620000362
970.0	0.0001558	26.5929999352
970.0	0.0001568	26.6399998665
970.0	0.000157	26.6710000038
970.0	0.0001578	26.7179999352
970.0	0.000158	26.7649998665
970.0	0.000158	26.7960000038
970.0	0.0001588	26.8429999352
970.0	0.000159	26.8899998665
970.0	0.0001593	26.9370000362
970.0	0.0001593	26.9679999352
970.0	0.0001593	27.0149998665
970.0	0.000159	27.0460000038
970.0	0.000159	27.0929999352
970.0	0.000159	27.1399998665
970.0	0.0001588	27.1710000038
970.0	0.0001588	27.2179999352
970.0	0.000159	27.25
970.0	0.000159	27.2960000038
970.0	0.000159	27.3429999352
970.0	0.000159	27.375
970.0	0.000159	27.4210000038
970.0	0.0001588	27.4679999352
970.0	0.0001588	27.5
970.0	0.000159	27.5460000038
970.0	0.000159	27.5929999352
970.0	0.000159	27.625
970.0	0.000159	27.6710000038
970.0	0.000159	27.7029998302
970.0	0.000159	27.75
970.0	0.000159	27.7960000038
970.0	0.000159	27.8279998302
970.0	0.0001588	27.875
970.0	0.0001588	27.9210000038
980.0	0.0001628	28.1870000362
980.0	0.0001643	28.2339999676
980.0	0.0001655	28.2809998989
980.0	0.0001668	28.3120000362
980.0	0.0001675	28.3589999676
980.0	0.0001678	28.4059998989
980.0	0.0001678	28.4370000362
980.0	0.0001683	28.4839999676
980.0	0.0001688	28.5149998665
980.0	0.0001688	28.5620000362
980.0	0.0001688	28.6089999676
980.0	0.0001683	28.6399998665
980.0	0.0001683	28.6870000362
980.0	0.000168	28.7339999676
980.0	0.0001683	28.7649998665
980.0	0.0001683	28.8120000362
980.0	0.0001688	28.8589999676
980.0	0.0001688	28.8899998665
980.0	0.0001683	28.9370000362
980.0	0.0001683	28.9679999352
980.0	0.0001688	29.0149998665
980.0	0.000169	29.0620000362
980.0	0.000169	29.0929999352
980.0	0.000169	29.1399998665
980.0	0.000169	29.1710000038
980.0	0.0001693	29.2179999352
980.0	0.000169	29.2649998665
980.0	0.000169	29.2960000038
980.0	0.0001693	29.3429999352
980.0	0.0001695	29.3899998665
980.0	0.0001695	29.4210000038
980.0	0.00017	29.4679999352
980.0	0.0001703	29.5149998665
980.0	0.00017	29.5460000038
980.0	0.00017	29.5929999352
980.0	0.00017	29.625
980.0	0.00017	29.6710000038
990.0	0.0001745	29.9529998302
990.0	0.0001765	30.0
990.0	0.0001775	30.0309998989
990.0	0.0001788	30.0779998302
990.0	0.0001795	30.1089999676
990.0	0.0001805	30.1559998989
990.0	0.0001808	30.2029998302
990.0	0.0001813	30.2339999676
990.0	0.0001818	30.2809998989
990.0	0.000182	30.3279998302
990.0	0.0001825	30.3589999676
990.0	0.0001825	30.4059998989
990.0	0.0001825	30.4529998302
990.0	0.000182	30.4839999676
990.0	0.0001825	30.5309998989
990.0	0.0001825	30.5620000362
990.0	0.0001828	30.6089999676
990.0	0.0001828	30.6559998989
990.0	0.0001828	30.6870000362
990.0	0.0001828	30.7339999676
990.0	0.0001828	30.7809998989
990.0	0.0001825	30.8120000362
990.0	0.0001825	30.8589999676
990.0	0.0001818	30.8899998665
990.0	0.0001818	30.9370000362
990.0	0.0001815	30.9839999676
990.0	0.0001815	31.0149998665
990.0	0.0001815	31.0620000362
990.0	0.0001818	31.1089999676
990.0	0.000182	31.1399998665
990.0	0.000182	31.1870000362
990.0	0.0001818	31.2179999352
990.0	0.0001818	31.2649998665
990.0	0.0001818	31.3120000362
990.0	0.000182	31.3429999352
990.0	0.000182	31.3899998665
990.0	0.000182	31.4370000362
1000.0	0.0001865	31.7029998302
1000.0	0.0001878	31.75
1000.0	0.000189	31.7960000038
1000.0	0.0001903	31.8279998302
1000.0	0.0001908	31.875
1000.0	0.0001915	31.9210000038
1000.0	0.000192	31.9529998302
1000.0	0.0001928	32.0
1000.0	0.000193	32.0309998989
1000.0	0.000194	32.0779998302
1000.0	0.0001943	32.125
1000.0	0.0001943	32.1559998989
1000.0	0.0001943	32.2029998302
1000.0	0.000194	32.25
1000.0	0.000194	32.2809998989
1000.0	0.0001933	32.3279998302
1000.0	0.0001933	32.375
1000.0	0.0001933	32.4059998989
1000.0	0.0001933	32.4529998302
1000.0	0.000193	32.4839999676
1000.0	0.0001928	32.5309998989
1000.0	0.0001925	32.5779998302
1000.0	0.0001925	32.6089999676
1000.0	0.0001925	32.6559998989
1000.0	0.0001925	32.7029998302
1000.0	0.0001928	32.7339999676
1000.0	0.0001925	32.7809998989
1000.0	0.000192	32.8120000362
1000.0	0.000192	32.8589999676
1000.0	0.0001925	32.9059998989
1000.0	0.0001928	32.9370000362
1000.0	0.000193	32.9839999676
1000.0	0.000193	33.0309998989
1000.0	0.0001933	33.0620000362
1000.0	0.0001938	33.1089999676
1000.0	0.0001938	33.1399998665
1000.0	0.000194	33.1870000362
1010.0	0.0001988	33.4679999352
1010.0	0.0002003	33.5149998665
1010.0	0.0002018	33.5460000038
1010.0	0.0002028	33.5929999352
1010.0	0.0002038	33.625
1010.0	0.0002045	33.6710000038
1010.0	0.000205	33.7179999352
1010.0	0.0002055	33.75
1010.0	0.0002058	33.7960000038
1010.0	0.0002063	33.8429999352
1010.0	0.0002063	33.875
1010.0	0.0002063	33.9210000038
1010.0	0.0002063	33.9529998302
1010.0	0.0002063	34.0
1010.0	0.0002065	34.0460000038
1010.0	0.0002065	34.0779998302
1010.0	0.0002065	34.125
1010.0	0.0002068	34.1710000038
1010.0	0.0002068	34.2029998302
1010.0	0.0002065	34.25
1010.0	0.0002063	34.2960000038
1010.0	0.0002063	34.3279998302
1010.0	0.0002063	34.375
1010.0	0.0002063	34.4059998989
1010.0	0.0002065	34.4529998302
1010.0	0.0002065	34.5
1010.0	0.0002068	34.5309998989
1010.0	0.0002065	34.5779998302
1010.0	0.0002065	34.625
1010.0	0.0002065	34.6559998989
1010.0	0.0002065	34.7029998302
1010.0	0.0002065	34.7339999676
1010.0	0.0002065	34.7809998989
1010.0	0.0002068	34.8279998302
1010.0	0.0002068	34.8589999676
1010.0	0.0002065	34.9059998989
1010.0	0.0002063	34.9529998302
1020.0	0.0002115	35.2339999676
1020.0	0.0002133	35.2649998665
1020.0	0.000215	35.3120000362
1020.0	0.0002155	35.3589999676
1020.0	0.0002163	35.3899998665
1020.0	0.0002165	35.4370000362
1020.0	0.0002168	35.4679999352
1020.0	0.0002168	35.5149998665
1020.0	0.000217	35.5620000362
1020.0	0.0002175	35.5929999352
1020.0	0.000218	35.6399998665
1020.0	0.000218	35.6870000362
1020.0	0.0002178	35.7179999352
1020.0	0.000218	35.7649998665
1020.0	0.000218	35.7960000038
1020.0	0.000218	35.8429999352
1020.0	0.0002183	35.8899998665
1020.0	0.0002183	35.9210000038
1020.0	0.0002188	35.9679999352
1020.0	0.0002183	36.0149998665
1020.0	0.0002183	36.0460000038
1020.0	0.0002183	36.0929999352
1020.0	0.0002183	36.1399998665
1020.0	0.0002183	36.1710000038
1020.0	0.0002188	36.2179999352
1020.0	0.0002188	36.25
1020.0	0.0002188	36.2960000038
1020.0	0.0002188	36.3429999352
1020.0	0.0002188	36.375
1020.0	0.0002188	36.4210000038
1020.0	0.000219	36.4679999352
1020.0	0.0002193	36.5
1020.0	0.0002193	36.5460000038
1020.0	0.0002193	36.5779998302
1020.0	0.0002193	36.625
1020.0	0.0002193	36.6710000038
1020.0	0.0002193	36.7029998302
1030.0	0.0002243	36.9839999676
1030.0	0.0002258	37.0309998989
1030.0	0.0002275	37.0620000362
1030.0	0.0002288	37.1089999676
1030.0	0.0002303	37.1559998989
1030.0	0.0002313	37.1870000362
1030.0	0.0002318	37.2339999676
1030.0	0.0002325	37.2809998989
1030.0	0.0002328	37.3120000362
1030.0	0.0002333	37.3589999676
1030.0	0.0002338	37.4059998989
1030.0	0.0002338	37.4370000362
1030.0	0.000234	37.4839999676
1030.0	0.000234	37.5309998989
1030.0	0.0002338	37.5620000362
1030.0	0.0002333	37.6089999676
1030.0	0.000233	37.6559998989
1030.0	0.000233	37.6870000362
1030.0	0.000233	37.7339999676
1030.0	0.000233	37.7649998665
1030.0	0.000233	37.8120000362
1030.0	0.0002328	37.8589999676
1030.0	0.0002328	37.8899998665
1030.0	0.0002325	37.9370000362
1030.0	0.0002325	37.9839999676
1030.0	0.0002325	38.0149998665
1030.0	0.0002325	38.0620000362
1030.0	0.0002325	38.0929999352
1030.0	0.0002328	38.1399998665
1030.0	0.000233	38.1870000362
1030.0	0.0002333	38.2179999352
1030.0	0.0002333	38.2649998665
1030.0	0.000233	38.3120000362
1030.0	0.0002325	38.3429999352
1030.0	0.0002325	38.3899998665
1030.0	0.000232	38.4210000038
1040.0	0.0002375	38.7179999352
1040.0	0.000239	38.75
1040.0	0.0002403	38.7960000038
1040.0	0.0002415	38.8279998302
1040.0	0.0002425	38.875
1040.0	0.0002438	38.9210000038
1040.0	0.0002443	38.9529998302
1040.0	0.000245	39.0
1040.0	0.0002455	39.0460000038
1040.0	0.0002463	39.0779998302
1040.0	0.0002465	39.125
1040.0	0.0002463	39.1710000038
1040.0	0.0002458	39.2029998302
1040.0	0.0002458	39.25
1040.0	0.0002458	39.2809998989
1040.0	0.0002455	39.3279998302
1040.0	0.0002458	39.375
1040.0	0.0002463	39.4059998989
1040.0	0.0002463	39.4529998302
1040.0	0.0002465	39.5
1040.0	0.0002465	39.5309998989
1040.0	0.0002465	39.5779998302
1040.0	0.0002468	39.6089999676
1040.0	0.0002468	39.6559998989
1040.0	0.0002468	39.7029998302
1040.0	0.0002465	39.7339999676
1040.0	0.0002465	39.7809998989
1040.0	0.0002465	39.8279998302
1040.0	0.0002465	39.8589999676
1040.0	0.0002468	39.9059998989
1040.0	0.000247	39.9529998302
1040.0	0.0002475	39.9839999676
1040.0	0.0002475	40.0309998989
1040.0	0.0002475	40.0620000362
1040.0	0.0002475	40.1089999676
1040.0	0.000247	40.1559998989
1040.0	0.000247	40.1870000362
1050.0	0.000252	40.4679999352
1050.0	0.0002543	40.5149998665
1050.0	0.0002558	40.5620000362
1050.0	0.0002575	40.5929999352
1050.0	0.0002588	40.6399998665
1050.0	0.0002595	40.6710000038
1050.0	0.0002603	40.7179999352
1050.0	0.0002613	40.7649998665
1050.0	0.0002615	40.7960000038
1050.0	0.0002615	40.8429999352
1050.0	0.0002615	40.8899998665
1050.0	0.0002618	40.9210000038
1050.0	0.000262	40.9679999352
1050.0	0.000262	41.0149998665
1050.0	0.000262	41.0460000038
1050.0	0.000262	41.0929999352
1050.0	0.0002625	41.125
1050.0	0.0002625	41.1710000038
1050.0	0.000262	41.2179999352
1050.0	0.000262	41.25
1050.0	0.0002625	41.2960000038
1050.0	0.000262	41.3429999352
1050.0	0.000262	41.375
1050.0	0.0002618	41.4210000038
1050.0	0.0002615	41.4529998302
1050.0	0.0002613	41.5
1050.0	0.0002613	41.5460000038
1050.0	0.0002613	41.5779998302
1050.0	0.0002615	41.625
1050.0	0.0002615	41.6710000038
1050.0	0.0002613	41.7029998302
1050.0	0.0002613	41.75
1050.0	0.0002613	41.7960000038
1050.0	0.0002613	41.8279998302
1050.0	0.0002615	41.875
1050.0	0.0002613	41.9210000038
1060.0	0.0002663	42.2029998302
1060.0	0.000268	42.2339999676
1060.0	0.00027	42.2809998989
1060.0	0.0002713	42.3279998302
1060.0	0.000272	42.3589999676
1060.0	0.0002728	42.4059998989
1060.0	0.000273	42.4529998302
1060.0	0.0002738	42.4839999676
1060.0	0.0002743	42.5309998989
1060.0	0.000275	42.5779998302
1060.0	0.0002753	42.6089999676
1060.0	0.0002753	42.6559998989
1060.0	0.000275	42.7029998302
1060.0	0.0002745	42.7339999676
1060.0	0.0002745	42.7809998989
1060.0	0.0002745	42.8120000362
1060.0	0.0002743	42.8589999676
1060.0	0.0002745	42.9059998989
1060.0	0.000275	42.9370000362
1060.0	0.0002753	42.9839999676
1060.0	0.0002753	43.0309998989
1060.0	0.0002755	43.0620000362
1060.0	0.0002758	43.1089999676
1060.0	0.0002755	43.1559998989
1060.0	0.0002753	43.1870000362
1060.0	0.000275	43.2339999676
1060.0	0.0002745	43.2649998665
1060.0	0.0002743	43.3120000362
1060.0	0.0002743	43.3589999676
1060.0	0.0002743	43.3899998665
1060.0	0.0002745	43.4370000362
1060.0	0.000275	43.4839999676
1060.0	0.000275	43.5149998665
1060.0	0.0002753	43.5620000362
1060.0	0.0002755	43.5929999352
1060.0	0.0002755	43.6399998665
1060.0	0.0002755	43.6870000362
1070.0	0.0002813	43.9679999352
1070.0	0.0002838	44.0
1070.0	0.000285	44.0460000038
1070.0	0.0002863	44.0779998302
1070.0	0.000287	44.125
1070.0	0.0002878	44.1710000038
1070.0	0.0002883	44.2179999352
1070.0	0.000289	44.25
1070.0	0.0002893	44.2960000038
1070.0	0.0002895	44.3279998302
1070.0	0.00029	44.375
1070.0	0.00029	44.4210000038
1070.0	0.0002903	44.4679999352
1070.0	0.00029	44.5
1070.0	0.00029	44.5460000038
1070.0	0.00029	44.5779998302
1070.0	0.0002895	44.625
1070.0	0.0002903	44.6710000038
1070.0	0.0002903	44.7029998302
1070.0	0.0002905	44.75
1070.0	0.0002908	44.7960000038
1070.0	0.0002913	44.8279998302
1070.0	0.0002908	44.875
1070.0	0.0002908	44.9210000038
1070.0	0.0002905	44.9529998302
1070.0	0.0002905	45.0
1070.0	0.0002905	45.0309998989
1070.0	0.0002908	45.0779998302
1070.0	0.0002908	45.125
1070.0	0.0002908	45.1559998989
1070.0	0.0002908	45.2029998302
1070.0	0.0002908	45.25
1070.0	0.0002908	45.2809998989
1070.0	0.0002908	45.3279998302
1070.0	0.0002905	45.3589999676
1070.0	0.0002905	45.4059998989
1070.0	0.0002905	45.4529998302
1080.0	0.0002955	45.7339999676
1080.0	0.0002978	45.7649998665
1080.0	0.000299	45.8120000362
1080.0	0.0003003	45.8589999676
1080.0	0.0003013	45.8899998665
1080.0	0.000302	45.9370000362
1080.0	0.0003028	45.9679999352
1080.0	0.0003033	46.0149998665
1080.0	0.0003038	46.0620000362
1080.0	0.0003038	46.0929999352
1080.0	0.0003038	46.1399998665
1080.0	0.0003033	46.1710000038
1080.0	0.000303	46.2179999352
1080.0	0.000303	46.2649998665
1080.0	0.000303	46.2960000038
1080.0	0.0003033	46.3429999352
1080.0	0.0003033	46.3899998665
1080.0	0.000303	46.4210000038
1080.0	0.0003028	46.4679999352
1080.0	0.0003025	46.5149998665
1080.0	0.0003025	46.5460000038
1080.0	0.000302	46.5929999352
1080.0	0.000302	46.625
1080.0	0.0003018	46.6710000038
1080.0	0.0003018	46.7179999352
1080.0	0.0003018	46.75
1080.0	0.0003025	46.7960000038
1080.0	0.0003025	46.8429999352
1080.0	0.0003025	46.875
1080.0	0.0003028	46.9210000038
1080.0	0.0003028	46.9529998302
1080.0	0.0003025	47.0
1080.0	0.0003028	47.0460000038
1080.0	0.000303	47.0929999352
1080.0	0.0003028	47.125
1080.0	0.0003028	47.1710000038
1080.0	0.0003028	47.2029998302
1090.0	0.0003065	47.4839999676
1090.0	0.000308	47.5309998989
1090.0	0.0003095	47.5620000362
1090.0	0.0003113	47.6089999676
1090.0	0.0003118	47.6559998989
1090.0	0.0003128	47.6870000362
1090.0	0.0003138	47.7339999676
1090.0	0.0003143	47.7809998989
1090.0	0.000315	47.8120000362
1090.0	0.0003153	47.8589999676
1090.0	0.0003155	47.8899998665
1090.0	0.0003155	47.9370000362
1090.0	0.0003153	47.9839999676
1090.0	0.0003153	48.0149998665
1090.0	0.0003153	48.0620000362
1090.0	0.000315	48.1089999676
1090.0	0.000315	48.1399998665
1090.0	0.000315	48.1870000362
1090.0	0.000315	48.2179999352
1090.0	0.0003153	48.2649998665
1090.0	0.0003155	48.3120000362
1090.0	0.0003153	48.3429999352
1090.0	0.000315	48.3899998665
1090.0	0.0003153	48.4370000362
1090.0	0.0003145	48.4679999352
1090.0	0.0003143	48.5149998665
1090.0	0.0003143	48.5460000038
1090.0	0.0003143	48.5929999352
1090.0	0.0003143	48.6399998665
1090.0	0.0003145	48.6710000038
1090.0	0.000315	48.7179999352
1090.0	0.000315	48.7649998665
1090.0	0.0003153	48.7960000038
1090.0	0.0003153	48.8429999352
1090.0	0.000315	48.875
1090.0	0.0003145	48.9210000038
1090.0	0.000315	48.9679999352
1100.0	0.0003193	49.2339999676
1100.0	0.0003203	49.2809998989
1100.0	0.0003215	49.3120000362
1100.0	0.0003225	49.3589999676
1100.0	0.0003233	49.4059998989
1100.0	0.000324	49.4370000362
1100.0	0.000325	49.4839999676
1100.0	0.0003253	49.5149998665
1100.0	0.0003255	49.5620000362
1100.0	0.0003258	49.6089999676
1100.0	0.0003263	49.6399998665
1100.0	0.0003265	49.6870000362
1100.0	0.0003265	49.7339999676
1100.0	0.0003263	49.7649998665
1100.0	0.0003258	49.8120000362
1100.0	0.0003258	49.8589999676
1100.0	0.0003255	49.8899998665
1100.0	0.0003253	49.9370000362
1100.0	0.0003253	49.9679999352
1100.0	0.0003253	50.0149998665
1100.0	0.0003253	50.0620000362
1100.0	0.0003255	50.0929999352
1100.0	0.0003258	50.1399998665
1100.0	0.0003258	50.1870000362
1100.0	0.0003255	50.2179999352
1100.0	0.0003253	50.2649998665
1100.0	0.0003253	50.2960000038
1100.0	0.0003253	50.3429999352
1100.0	0.0003255	50.3899998665
1100.0	0.0003258	50.4210000038
1100.0	0.0003258	50.4679999352
1100.0	0.0003253	50.5149998665
1100.0	0.000325	50.5460000038
1100.0	0.000325	50.5929999352
1100.0	0.000325	50.625
1100.0	0.000325	50.6710000038
1100.0	0.0003253	50.7179999352
1110.0	0.0003283	50.9839999676
1110.0	0.0003293	51.0309998989
1110.0	0.0003303	51.0620000362
1110.0	0.0003305	51.1089999676
1110.0	0.0003308	51.1559998989
1110.0	0.0003313	51.1870000362
1110.0	0.0003315	51.2339999676
1110.0	0.0003318	51.2649998665
1110.0	0.0003318	51.3120000362
1110.0	0.0003315	51.3589999676
1110.0	0.0003318	51.3899998665
1110.0	0.000332	51.4370000362
1110.0	0.000332	51.4839999676
1110.0	0.0003325	51.5149998665
1110.0	0.0003325	51.5620000362
1110.0	0.000332	51.6089999676
1110.0	0.0003325	51.6399998665
1110.0	0.000333	51.6870000362
1110.0	0.000333	51.7179999352
1110.0	0.000333	51.7649998665
1110.0	0.0003328	51.8120000362
1110.0	0.0003328	51.8429999352
1110.0	0.0003325	51.8899998665
1110.0	0.000332	51.9210000038
1110.0	0.0003318	51.9679999352
1110.0	0.0003315	52.0149998665
1110.0	0.0003315	52.0460000038
1110.0	0.0003318	52.0929999352
1110.0	0.0003318	52.1399998665
1110.0	0.0003318	52.1710000038
1110.0	0.000332	52.2179999352
1110.0	0.000332	52.25
1110.0	0.000332	52.2960000038
1110.0	0.0003325	52.3429999352
1110.0	0.0003328	52.375
1110.0	0.0003325	52.4210000038
1110.0	0.0003325	52.4679999352
1120.0	0.0003353	52.7339999676
1120.0	0.0003363	52.7649998665
1120.0	0.0003368	52.8120000362
1120.0	0.000337	52.8589999676
1120.0	0.000337	52.8899998665
1120.0	0.0003368	52.9370000362
1120.0	0.0003368	52.9839999676
1120.0	0.000337	53.0149998665
1120.0	0.0003368	53.0620000362
1120.0	0.000337	53.0929999352
1120.0	0.0003375	53.1399998665
1120.0	0.0003375	53.1870000362
1120.0	0.0003378	53.2179999352
1120.0	0.0003378	53.2649998665
1120.0	0.0003378	53.3120000362
1120.0	0.0003378	53.3429999352
1120.0	0.0003378	53.3899998665
1120.0	0.0003375	53.4210000038
1120.0	0.0003375	53.4679999352
1120.0	0.0003378	53.5149998665
1120.0	0.0003378	53.5460000038
1120.0	0.000338	53.5929999352
1120.0	0.000338	53.6399998665
1120.0	0.0003383	53.6710000038
1120.0	0.000338	53.7179999352
1120.0	0.0003378	53.75
1120.0	0.0003378	53.7960000038
1120.0	0.0003375	53.8429999352
1120.0	0.0003375	53.875
1120.0	0.0003378	53.9210000038
1120.0	0.0003378	53.9679999352
1120.0	0.000338	54.0
1120.0	0.0003383	54.0460000038
1120.0	0.0003383	54.0929999352
1120.0	0.0003388	54.125
1120.0	0.000339	54.1710000038
1120.0	0.000339	54.2179999352
1130.0	0.00034	54.4839999676
1130.0	0.0003405	54.5149998665
1130.0	0.0003415	54.5620000362
1130.0	0.000342	54.6089999676
1130.0	0.000342	54.6399998665
1130.0	0.0003425	54.6870000362
1130.0	0.000342	54.7339999676
1130.0	0.0003418	54.7649998665
1130.0	0.0003418	54.8120000362
1130.0	0.0003425	54.8429999352
1130.0	0.000343	54.8899998665
1130.0	0.0003433	54.9370000362
1130.0	0.0003433	54.9679999352
1130.0	0.000343	55.0149998665
1130.0	0.000343	55.0620000362
1130.0	0.0003433	55.0929999352
1130.0	0.0003438	55.1399998665
1130.0	0.0003438	55.1710000038
1130.0	0.0003433	55.2179999352
1130.0	0.0003433	55.2649998665
1130.0	0.0003438	55.2960000038
1130.0	0.000344	55.3429999352
1130.0	0.0003443	55.3899998665
1130.0	0.000344	55.4210000038
1130.0	0.000344	55.4679999352
1130.0	0.0003438	55.5
1130.0	0.000344	55.5460000038
1130.0	0.000344	55.5929999352
1130.0	0.000344	55.625
1130.0	0.000344	55.6710000038
1130.0	0.0003438	55.7179999352
1130.0	0.0003433	55.75
1130.0	0.000343	55.7960000038
1130.0	0.000343	55.8279998302
1130.0	0.0003428	55.875
1130.0	0.0003428	55.9210000038
1130.0	0.000343	55.9529998302
1140.0	0.000344	56.2179999352
1140.0	0.0003443	56.2649998665
1140.0	0.0003443	56.2960000038
1140.0	0.0003445	56.3429999352
1140.0	0.000345	56.3899998665
1140.0	0.0003445	56.4210000038
1140.0	0.0003445	56.4679999352
1140.0	0.0003445	56.5149998665
1140.0	0.0003445	56.5460000038
1140.0	0.0003445	56.5929999352
1140.0	0.0003445	56.625
1140.0	0.0003443	56.6710000038
1140.0	0.000344	56.7179999352
1140.0	0.000344	56.75
1140.0	0.0003443	56.7960000038
1140.0	0.0003445	56.8429999352
1140.0	0.0003445	56.875
1140.0	0.0003445	56.9210000038
1140.0	0.0003445	56.9529998302
1140.0	0.0003445	57.0
1140.0	0.0003445	57.0460000038
1140.0	0.0003445	57.0779998302
1140.0	0.0003445	57.125
1140.0	0.0003443	57.1710000038
1140.0	0.0003443	57.2029998302
1140.0	0.000344	57.25
1140.0	0.000344	57.2960000038
1140.0	0.000344	57.3279998302
1140.0	0.0003438	57.375
1140.0	0.0003433	57.4059998989
1140.0	0.0003438	57.4529998302
1140.0	0.0003438	57.5
1140.0	0.0003438	57.5309998989
1140.0	0.000344	57.5779998302
1140.0	0.000344	57.625
1140.0	0.000344	57.6559998989
1140.0	0.000344	57.7029998302
1150.0	0.0003443	57.9679999352
1150.0	0.0003445	58.0149998665
1150.0	0.0003445	58.0460000038
1150.0	0.0003445	58.0929999352
1150.0	0.0003443	58.125
1150.0	0.0003445	58.1710000038
1150.0	0.000345	58.2179999352
1150.0	0.0003453	58.25
1150.0	0.0003453	58.2960000038
1150.0	0.0003453	58.3429999352
1150.0	0.0003453	58.375
1150.0	0.0003458	58.4210000038
1150.0	0.0003458	58.4529998302
1150.0	0.0003455	58.5
1150.0	0.0003455	58.5460000038
1150.0	0.0003455	58.5779998302
1150.0	0.0003458	58.625
1150.0	0.0003463	58.6710000038
1150.0	0.0003463	58.7029998302
1150.0	0.0003465	58.75
1150.0	0.0003465	58.7809998989
1150.0	0.0003465	58.8279998302
1150.0	0.0003465	58.875
1150.0	0.0003465	58.9059998989
1150.0	0.0003465	58.9529998302
1150.0	0.0003463	59.0
1150.0	0.0003463	59.0309998989
1150.0	0.0003463	59.0779998302
1150.0	0.0003463	59.125
1150.0	0.0003463	59.1559998989
1150.0	0.0003463	59.2029998302
1150.0	0.0003463	59.2339999676
1150.0	0.0003468	59.2809998989
1150.0	0.000347	59.3279998302
1150.0	0.0003468	59.3589999676
1150.0	0.0003468	59.4059998989
1150.0	0.0003468	59.4529998302
1160.0	0.0003468	59.7179999352
1160.0	0.0003465	59.75
1160.0	0.0003463	59.7960000038
1160.0	0.0003463	59.8429999352
1160.0	0.0003458	59.875
1160.0	0.0003458	59.9210000038
1160.0	0.0003465	59.9529998302
1160.0	0.0003468	60.0
1160.0	0.000347	60.0460000038
1160.0	0.0003468	60.0779998302
1160.0	0.0003468	60.125
1160.0	0.0003465	60.1710000038
1160.0	0.0003465	60.2029998302
1160.0	0.0003465	60.25
1160.0	0.0003465	60.2809998989
1160.0	0.0003465	60.3279998302
1160.0	0.0003463	60.375
1160.0	0.0003458	60.4059998989
1160.0	0.0003458	60.4529998302
1160.0	0.0003455	60.5
1160.0	0.0003453	60.5309998989
1160.0	0.0003453	60.5779998302
1160.0	0.0003453	60.625
1160.0	0.0003453	60.6559998989
1160.0	0.0003455	60.7029998302
1160.0	0.0003455	60.75
1160.0	0.0003455	60.7809998989
1160.0	0.000345	60.8279998302
1160.0	0.0003445	60.875
1160.0	0.000345	60.9059998989
1160.0	0.000345	60.9529998302
1160.0	0.0003453	60.9839999676
1160.0	0.0003453	61.0309998989
1160.0	0.0003453	61.0779998302
1160.0	0.0003453	61.1089999676
1160.0	0.0003453	61.1559998989
1160.0	0.000345	61.2339999676
1170.0	0.0003443	61.5
1170.0	0.0003445	61.5460000038
1170.0	0.0003445	61.5779998302
1170.0	0.0003445	61.625
1170.0	0.0003445	61.6710000038
1170.0	0.0003443	61.7029998302
1170.0	0.0003443	61.75
1170.0	0.0003445	61.7960000038
1170.0	0.0003453	61.8279998302
1170.0	0.0003455	61.875
1170.0	0.0003458	61.9210000038
1170.0	0.0003458	61.9529998302
1170.0	0.0003458	62.0
1170.0	0.0003458	62.0309998989
1170.0	0.0003463	62.0779998302
1170.0	0.0003463	62.125
1170.0	0.0003463	62.1559998989
1170.0	0.0003465	62.2029998302
1170.0	0.0003468	62.25
1170.0	0.0003468	62.2809998989
1170.0	0.0003468	62.3279998302
1170.0	0.0003468	62.3589999676
1170.0	0.0003468	62.4059998989
1170.0	0.0003465	62.4529998302
1170.0	0.0003465	62.4839999676
1170.0	0.0003463	62.5309998989
1170.0	0.0003465	62.5779998302
1170.0	0.0003465	62.6089999676
1170.0	0.0003463	62.6559998989
1170.0	0.0003463	62.7029998302
1170.0	0.0003463	62.7339999676
1170.0	0.0003463	62.7809998989
1170.0	0.0003463	62.8120000362
1170.0	0.0003458	62.8589999676
1170.0	0.0003458	62.9059998989
1170.0	0.0003458	62.9529998302
1180.0	0.0003463	63.2179999352
1180.0	0.0003465	63.25
1180.0	0.0003465	63.2960000038
1180.0	0.0003465	63.3429999352
1180.0	0.0003465	63.375
1180.0	0.0003458	63.4210000038
1180.0	0.0003455	63.4679999352
1180.0	0.0003455	63.5
1180.0	0.0003453	63.5460000038
1180.0	0.0003455	63.5929999352
1180.0	0.0003453	63.625
1180.0	0.0003453	63.6710000038
1180.0	0.0003453	63.7029998302
1180.0	0.0003453	63.75
1180.0	0.0003453	63.7960000038
1180.0	0.0003453	63.8279998302
1180.0	0.000345	63.875
1180.0	0.000345	63.9210000038
1180.0	0.000345	63.9529998302
1180.0	0.0003453	64.0
1180.0	0.0003453	64.0309998989
1180.0	0.000345	64.0779998302
1180.0	0.000345	64.125
1180.0	0.000345	64.1559998989
1180.0	0.0003445	64.2029998302
1180.0	0.0003445	64.25
1180.0	0.0003445	64.2809998989
1180.0	0.000345	64.3279998302
1180.0	0.000345	64.3589999676
1180.0	0.0003453	64.4059998989
1180.0	0.0003453	64.4529998302
1180.0	0.0003453	64.4839999676
1180.0	0.000345	64.5309998989
1180.0	0.000345	64.5779998302
1180.0	0.000345	64.6089999676
1180.0	0.0003445	64.6559998989
1180.0	0.000345	64.7029998302
1190.0	0.0003453	64.9679999352
1190.0	0.0003458	65.0149998665
1190.0	0.0003463	65.0460000038
1190.0	0.0003463	65.0929999352
1190.0	0.0003465	65.1399998665
1190.0	0.0003463	65.1710000038
1190.0	0.0003463	65.2179999352
1190.0	0.0003468	65.2649998665
1190.0	0.0003468	65.2960000038
1190.0	0.0003468	65.3429999352
1190.0	0.0003468	65.3899998665
1190.0	0.0003468	65.4210000038
1190.0	0.0003468	65.4679999352
1190.0	0.000347	65.5149998665
1190.0	0.0003468	65.5460000038
1190.0	0.0003468	65.5929999352
1190.0	0.0003468	65.6399998665
1190.0	0.0003468	65.6710000038
1190.0	0.0003465	65.7179999352
1190.0	0.0003465	65.7649998665
1190.0	0.0003468	65.7960000038
1190.0	0.000347	65.8429999352
1190.0	0.000347	65.875
1190.0	0.000347	65.9210000038
1190.0	0.000347	65.9679999352
1190.0	0.0003475	66.0
1190.0	0.000347	66.0460000038
1190.0	0.0003468	66.0929999352
1190.0	0.000347	66.125
1190.0	0.000347	66.1710000038
1190.0	0.000347	66.2029998302
1190.0	0.000347	66.25
1190.0	0.000347	66.2960000038
1190.0	0.000347	66.3279998302
1190.0	0.000347	66.375
1190.0	0.000347	66.4210000038
1200.0	0.000347	66.6870000362
1200.0	0.0003478	66.7339999676
1200.0	0.000348	66.7649998665
1200.0	0.0003483	66.8120000362
1200.0	0.0003488	66.8589999676
1200.0	0.000349	66.8899998665
1200.0	0.000349	66.9370000362
1200.0	0.000349	66.9679999352
1200.0	0.0003488	67.0149998665
1200.0	0.0003488	67.0620000362
1200.0	0.0003483	67.0929999352
1200.0	0.000348	67.1399998665
1200.0	0.000348	67.1870000362
1200.0	0.0003478	67.2179999352
1200.0	0.0003478	67.2649998665
1200.0	0.0003475	67.2960000038
1200.0	0.0003475	67.3429999352
1200.0	0.000347	67.3899998665
1200.0	0.000347	67.4210000038
1200.0	0.000347	67.4679999352
1200.0	0.000347	67.5149998665
1200.0	0.0003468	67.5460000038
1200.0	0.0003468	67.5929999352
1200.0	0.000347	67.625
1200.0	0.000347	67.6710000038
1200.0	0.0003475	67.7179999352
1200.0	0.0003475	67.7649998665
1200.0	0.0003478	67.7960000038
1200.0	0.000348	67.8429999352
1200.0	0.0003483	67.875
1200.0	0.0003488	67.9210000038
1200.0	0.000349	67.9679999352
1200.0	0.0003493	68.0
1200.0	0.000349	68.0460000038
1200.0	0.0003493	68.0929999352
1200.0	0.000349	68.125
1200.0	0.000349	68.1710000038
1210.0	0.0003505	68.4370000362
1210.0	0.0003513	68.4839999676
1210.0	0.0003518	68.5149998665
1210.0	0.0003518	68.5620000362
1210.0	0.000352	68.6089999676
1210.0	0.000352	68.6399998665
1210.0	0.000352	68.6870000362
1210.0	0.0003525	68.7339999676
1210.0	0.0003525	68.7649998665
1210.0	0.0003525	68.8120000362
1210.0	0.0003525	68.8429999352
1210.0	0.0003528	68.8899998665
1210.0	0.0003528	68.9370000362
1210.0	0.0003525	68.9679999352
1210.0	0.0003525	69.0149998665
1210.0	0.0003525	69.0620000362
1210.0	0.0003525	69.0929999352
1210.0	0.0003525	69.1399998665
1210.0	0.000352	69.1870000362
1210.0	0.0003518	69.2179999352
1210.0	0.0003515	69.2649998665
1210.0	0.0003518	69.2960000038
1210.0	0.0003518	69.3429999352
1210.0	0.0003518	69.3899998665
1210.0	0.0003518	69.4210000038
1210.0	0.0003515	69.4679999352
1210.0	0.0003513	69.5149998665
1210.0	0.0003513	69.5460000038
1210.0	0.0003515	69.5929999352
1210.0	0.0003518	69.625
1210.0	0.0003518	69.6710000038
1210.0	0.0003513	69.7179999352
1210.0	0.0003508	69.75
1210.0	0.0003508	69.7960000038
1210.0	0.0003503	69.8429999352
1210.0	0.00035	69.875
1210.0	0.0003495	69.9210000038
1220.0	0.0003525	70.1870000362
1220.0	0.0003533	70.2339999676
1220.0	0.0003543	70.2649998665
1220.0	0.000355	70.3120000362
1220.0	0.000355	70.3429999352
1220.0	0.0003553	70.3899998665
1220.0	0.0003558	70.4370000362
1220.0	0.0003565	70.4679999352
1220.0	0.0003568	70.5149998665
1220.0	0.0003575	70.5620000362
1220.0	0.0003578	70.5929999352
1220.0	0.0003578	70.6399998665
1220.0	0.0003575	70.6710000038
1220.0	0.0003568	70.7179999352
1220.0	0.0003568	70.7649998665
1220.0	0.0003568	70.7960000038
1220.0	0.0003568	70.8429999352
1220.0	0.0003568	70.8899998665
1220.0	0.000357	70.9210000038
1220.0	0.000357	70.9679999352
1220.0	0.000357	71.0
1220.0	0.0003568	71.0460000038
1220.0	0.000357	71.0929999352
1220.0	0.000357	71.125
1220.0	0.0003575	71.1710000038
1220.0	0.0003578	71.2179999352
1220.0	0.0003578	71.25
1220.0	0.0003575	71.2960000038
1220.0	0.0003575	71.3429999352
1220.0	0.0003575	71.375
1220.0	0.0003568	71.4210000038
1220.0	0.0003568	71.4529998302
1220.0	0.0003568	71.5
1220.0	0.0003568	71.5460000038
1220.0	0.0003568	71.5779998302
1220.0	0.0003568	71.625
1220.0	0.0003568	71.6710000038
1230.0	0.0003578	71.9370000362
1230.0	0.000358	71.9679999352
1230.0	0.0003588	72.0149998665
1230.0	0.000359	72.0620000362
1230.0	0.0003593	72.0929999352
1230.0	0.0003603	72.1399998665
1230.0	0.0003608	72.1870000362
1230.0	0.0003613	72.2179999352
1230.0	0.0003615	72.2649998665
1230.0	0.0003615	72.3120000362
1230.0	0.0003618	72.3429999352
1230.0	0.0003618	72.3899998665
1230.0	0.000362	72.4210000038
1230.0	0.000362	72.4679999352
1230.0	0.000362	72.5149998665
1230.0	0.000362	72.5460000038
1230.0	0.0003625	72.5929999352
1230.0	0.0003625	72.6399998665
1230.0	0.0003628	72.6710000038
1230.0	0.000363	72.7179999352
1230.0	0.0003638	72.75
1230.0	0.000364	72.7960000038
1230.0	0.000364	72.8429999352
1230.0	0.0003633	72.875
1230.0	0.000363	72.9210000038
1230.0	0.000363	72.9679999352
1230.0	0.0003628	73.0
1230.0	0.0003628	73.0460000038
1230.0	0.000363	73.0929999352
1230.0	0.0003633	73.125
1230.0	0.0003633	73.1710000038
1230.0	0.0003633	73.2029998302
1230.0	0.0003638	73.25
1230.0	0.0003638	73.2960000038
1230.0	0.0003633	73.3279998302
1230.0	0.0003638	73.375
1230.0	0.000364	73.4210000038
1240.0	0.0003643	73.6870000362
1240.0	0.0003653	73.7339999676
1240.0	0.0003663	73.7649998665
1240.0	0.0003668	73.8120000362
1240.0	0.0003675	73.8429999352
1240.0	0.0003678	73.8899998665
1240.0	0.0003678	73.9370000362
1240.0	0.0003678	73.9679999352
1240.0	0.000368	74.0149998665
1240.0	0.0003678	74.0620000362
1240.0	0.0003678	74.0929999352
1240.0	0.000368	74.1399998665
1240.0	0.000368	74.1710000038
1240.0	0.000368	74.2179999352
1240.0	0.0003683	74.2649998665
1240.0	0.0003688	74.2960000038
1240.0	0.0003688	74.3429999352
1240.0	0.0003683	74.3899998665
1240.0	0.000368	74.4210000038
1240.0	0.000368	74.4679999352
1240.0	0.0003678	74.5
1240.0	0.0003678	74.5460000038
1240.0	0.0003678	74.5929999352
1240.0	0.0003678	74.625
1240.0	0.0003678	74.6710000038
1240.0	0.000368	74.7179999352
1240.0	0.000368	74.75
1240.0	0.000368	74.7960000038
1240.0	0.000368	74.8429999352
1240.0	0.0003678	74.875
1240.0	0.000368	74.9210000038
1240.0	0.000368	74.9529998302
1240.0	0.0003683	75.0
1240.0	0.0003683	75.0460000038
1240.0	0.0003683	75.0779998302
1240.0	0.000368	75.125
1240.0	0.000368	75.1710000038
1250.0	0.000372	75.4370000362
1250.0	0.0003728	75.4839999676
1250.0	0.0003738	75.5149998665
1250.0	0.000374	75.5620000362
1250.0	0.0003743	75.5929999352
1250.0	0.000375	75.6399998665
1250.0	0.0003755	75.6870000362
1250.0	0.0003755	75.7179999352
1250.0	0.0003755	75.7649998665
1250.0	0.0003763	75.8120000362
1250.0	0.0003758	75.8429999352
1250.0	0.0003758	75.8899998665
1250.0	0.0003758	75.9210000038
1250.0	0.0003758	75.9679999352
1250.0	0.0003755	76.0149998665
1250.0	0.0003753	76.0460000038
1250.0	0.000375	76.0929999352
1250.0	0.000375	76.1399998665
1250.0	0.000375	76.1710000038
1250.0	0.0003745	76.2179999352
1250.0	0.0003743	76.25
1250.0	0.0003743	76.2960000038
1250.0	0.0003743	76.3429999352
1250.0	0.0003743	76.375
1250.0	0.0003743	76.4210000038
1250.0	0.000374	76.4679999352
1250.0	0.0003743	76.5
1250.0	0.0003743	76.5460000038
1250.0	0.000374	76.5779998302
1250.0	0.000374	76.625
1250.0	0.000374	76.6710000038
1250.0	0.000374	76.7029998302
1250.0	0.000374	76.75
1250.0	0.000374	76.7960000038
1250.0	0.0003738	76.8279998302
1250.0	0.0003738	76.875
1250.0	0.0003733	76.9059998989
1260.0	0.0003763	77.1870000362
1260.0	0.0003778	77.2179999352
1260.0	0.0003788	77.2649998665
1260.0	0.0003793	77.3120000362
1260.0	0.0003795	77.3429999352
1260.0	0.00038	77.3899998665
1260.0	0.0003805	77.4370000362
1260.0	0.0003805	77.4839999676
1260.0	0.0003808	77.5149998665
1260.0	0.0003808	77.5620000362
1260.0	0.0003813	77.5929999352
1260.0	0.0003815	77.6399998665
1260.0	0.0003818	77.6870000362
1260.0	0.0003818	77.7179999352
1260.0	0.000382	77.7649998665
1260.0	0.000382	77.8120000362
1260.0	0.000382	77.8429999352
1260.0	0.000382	77.8899998665
1260.0	0.0003818	77.9210000038
1260.0	0.0003818	77.9679999352
1260.0	0.0003818	78.0149998665
1260.0	0.000382	78.0460000038
1260.0	0.0003825	78.0929999352
1260.0	0.0003825	78.1399998665
1260.0	0.000382	78.1710000038
1260.0	0.000382	78.2179999352
1260.0	0.0003818	78.25
1260.0	0.0003815	78.2960000038
1260.0	0.0003815	78.3429999352
1260.0	0.0003815	78.375
1260.0	0.0003815	78.4210000038
1260.0	0.0003815	78.4679999352
1260.0	0.0003813	78.5
1260.0	0.0003808	78.5460000038
1260.0	0.0003808	78.5779998302
1260.0	0.0003805	78.625
1260.0	0.0003808	78.6710000038
1270.0	0.0003815	78.9370000362
1270.0	0.000382	78.9679999352
1270.0	0.000383	79.0149998665
1270.0	0.0003833	79.0620000362
1270.0	0.0003838	79.0929999352
1270.0	0.000384	79.1399998665
1270.0	0.0003845	79.1870000362
1270.0	0.0003853	79.2179999352
1270.0	0.0003855	79.2649998665
1270.0	0.0003855	79.2960000038
1270.0	0.0003863	79.3429999352
1270.0	0.0003863	79.3899998665
1270.0	0.0003863	79.4210000038
1270.0	0.0003865	79.4679999352
1270.0	0.0003865	79.5149998665
1270.0	0.0003868	79.5460000038
1270.0	0.0003865	79.5929999352
1270.0	0.0003865	79.6399998665
1270.0	0.0003863	79.6710000038
1270.0	0.0003863	79.7179999352
1270.0	0.0003863	79.75
1270.0	0.0003865	79.7960000038
1270.0	0.0003865	79.8429999352
1270.0	0.0003868	79.875
1270.0	0.000387	79.9210000038
1270.0	0.000387	79.9679999352
1270.0	0.0003875	80.0
1270.0	0.000387	80.0460000038
1270.0	0.0003868	80.0779998302
1270.0	0.0003868	80.125
1270.0	0.0003868	80.1710000038
1270.0	0.0003865	80.2029998302
1270.0	0.000387	80.25
1270.0	0.000387	80.2960000038
1270.0	0.0003875	80.3279998302
1270.0	0.0003875	80.375
1270.0	0.0003875	80.4059998989
1280.0	0.000388	80.6870000362
1280.0	0.0003888	80.7179999352
1280.0	0.0003893	80.7649998665
1280.0	0.00039	80.7960000038
1280.0	0.0003903	80.8429999352
1280.0	0.0003908	80.8899998665
1280.0	0.0003908	80.9370000362
1280.0	0.0003908	80.9679999352
1280.0	0.0003908	81.0149998665
1280.0	0.0003908	81.0460000038
1280.0	0.0003908	81.0929999352
1280.0	0.0003908	81.1399998665
1280.0	0.0003905	81.1710000038
1280.0	0.00039	81.2179999352
1280.0	0.00039	81.2649998665
1280.0	0.0003895	81.2960000038
1280.0	0.00039	81.3429999352
1280.0	0.0003893	81.375
1280.0	0.0003893	81.4210000038
1280.0	0.000389	81.4679999352
1280.0	0.0003888	81.5149998665
1280.0	0.0003883	81.5460000038
1280.0	0.0003888	81.5929999352
1280.0	0.0003888	81.6399998665
1280.0	0.0003888	81.6710000038
1280.0	0.0003883	81.7179999352
1280.0	0.0003883	81.75
1280.0	0.0003883	81.7960000038
1280.0	0.0003888	81.8429999352
1280.0	0.0003888	81.875
1280.0	0.0003888	81.9210000038
1280.0	0.000389	81.9679999352
1280.0	0.0003893	82.0
1280.0	0.0003893	82.0460000038
1280.0	0.0003895	82.0779998302
1280.0	0.00039	82.125
1280.0	0.00039	82.1710000038
1290.0	0.0003905	82.4370000362
1290.0	0.0003908	82.4679999352
1290.0	0.0003908	82.5149998665
1290.0	0.0003908	82.5620000362
1290.0	0.0003913	82.5929999352
1290.0	0.0003913	82.6399998665
1290.0	0.0003915	82.6870000362
1290.0	0.0003918	82.7179999352
1290.0	0.000392	82.7649998665
1290.0	0.0003925	82.7960000038
1290.0	0.0003925	82.8429999352
1290.0	0.0003928	82.8899998665
1290.0	0.0003928	82.9210000038
1290.0	0.000393	82.9679999352
1290.0	0.0003938	83.0149998665
1290.0	0.0003933	83.0460000038
1290.0	0.0003938	83.0929999352
1290.0	0.0003933	83.125
1290.0	0.0003933	83.1710000038
1290.0	0.000393	83.2179999352
1290.0	0.0003928	83.25
1290.0	0.0003925	83.2960000038
1290.0	0.000392	83.3429999352
1290.0	0.000392	83.375
1290.0	0.000392	83.4210000038
1290.0	0.0003918	83.4679999352
1290.0	0.0003918	83.5
1290.0	0.0003918	83.5460000038
1290.0	0.0003915	83.5779998302
1290.0	0.0003915	83.625
1290.0	0.0003913	83.6710000038
1290.0	0.0003908	83.7179999352
1290.0	0.0003913	83.75
1290.0	0.0003915	83.7960000038
1290.0	0.0003915	83.8279998302
1290.0	0.0003915	83.875
1290.0	0.0003918	83.9210000038
1300.0	0.0003918	84.1870000362
1300.0	0.0003918	84.2179999352
1300.0	0.0003915	84.2649998665
1300.0	0.0003915	84.3120000362
1300.0	0.0003915	84.3429999352
1300.0	0.0003913	84.3899998665
1300.0	0.0003913	84.4370000362
1300.0	0.0003905	84.4679999352
1300.0	0.0003905	84.5149998665
1300.0	0.0003903	84.5460000038
1300.0	0.00039	84.5929999352
1300.0	0.00039	84.6399998665
1300.0	0.00039	84.6870000362
1300.0	0.00039	84.7179999352
1300.0	0.0003903	84.7649998665
1300.0	0.00039	84.7960000038
1300.0	0.00039	84.8429999352
1300.0	0.0003903	84.8899998665
1300.0	0.0003905	84.9210000038
1300.0	0.0003908	84.9679999352
1300.0	0.0003903	85.0149998665
1300.0	0.0003905	85.0460000038
1300.0	0.0003913	85.0929999352
1300.0	0.0003915	85.125
1300.0	0.0003918	85.1710000038
1300.0	0.0003918	85.2179999352
1300.0	0.0003918	85.25
1300.0	0.0003915	85.2960000038
1300.0	0.0003913	85.3429999352
1300.0	0.0003913	85.375
1300.0	0.0003913	85.4210000038
1300.0	0.0003913	85.4679999352
1300.0	0.0003905	85.5
1300.0	0.0003905	85.5460000038
1300.0	0.0003905	85.5929999352
1300.0	0.0003905	85.625
1300.0	0.0003908	85.6710000038
1310.0	0.0003905	85.9370000362
1310.0	0.00039	85.9839999676
1310.0	0.0003893	86.0309998989
1310.0	0.0003888	86.0620000362
1310.0	0.0003883	86.1089999676
1310.0	0.000388	86.1399998665
1310.0	0.0003883	86.1870000362
1310.0	0.000389	86.2339999676
1310.0	0.0003893	86.2649998665
1310.0	0.0003893	86.3120000362
1310.0	0.0003893	86.3589999676
1310.0	0.000389	86.3899998665
1310.0	0.000389	86.4370000362
1310.0	0.000389	86.4679999352
1310.0	0.0003888	86.5149998665
1310.0	0.0003888	86.5620000362
1310.0	0.0003883	86.5929999352
1310.0	0.000388	86.6399998665
1310.0	0.0003883	86.6870000362
1310.0	0.0003883	86.7179999352
1310.0	0.0003888	86.7649998665
1310.0	0.0003888	86.7960000038
1310.0	0.0003883	86.8429999352
1310.0	0.0003883	86.8899998665
1310.0	0.0003883	86.9210000038
1310.0	0.000388	86.9679999352
1310.0	0.0003878	87.0149998665
1310.0	0.0003875	87.0460000038
1310.0	0.0003875	87.0929999352
1310.0	0.0003878	87.125
1310.0	0.0003878	87.1710000038
1310.0	0.0003875	87.2179999352
1310.0	0.000387	87.25
1310.0	0.0003868	87.2960000038
1310.0	0.000387	87.3429999352
1310.0	0.0003875	87.375
1310.0	0.0003875	87.4210000038
1320.0	0.0003833	87.6870000362
1320.0	0.0003825	87.7339999676
1320.0	0.0003815	87.7809998989
1320.0	0.0003813	87.8120000362
1320.0	0.0003805	87.8589999676
1320.0	0.0003803	87.8899998665
1320.0	0.00038	87.9370000362
1320.0	0.0003793	87.9839999676
1320.0	0.0003793	88.0149998665
1320.0	0.000379	88.0620000362
1320.0	0.000379	88.1089999676
1320.0	0.000379	88.1399998665
1320.0	0.000379	88.1870000362
1320.0	0.000379	88.2179999352
1320.0	0.0003783	88.2649998665
1320.0	0.000378	88.3120000362
1320.0	0.0003778	88.3429999352
1320.0	0.000378	88.3899998665
1320.0	0.0003783	88.4370000362
1320.0	0.0003788	88.4679999352
1320.0	0.0003788	88.5149998665
1320.0	0.000379	88.5460000038
1320.0	0.000379	88.5929999352
1320.0	0.000379	88.6399998665
1320.0	0.000379	88.6710000038
1320.0	0.0003793	88.7179999352
1320.0	0.000379	88.7649998665
1320.0	0.000379	88.7960000038
1320.0	0.0003793	88.8429999352
1320.0	0.0003795	88.8899998665
1320.0	0.00038	88.9210000038
1320.0	0.0003803	88.9679999352
1320.0	0.00038	89.0149998665
1320.0	0.0003803	89.0460000038
1320.0	0.0003803	89.0929999352
1320.0	0.0003805	89.125
1320.0	0.0003805	89.1710000038
1330.0	0.0003763	89.4529998302
1330.0	0.000375	89.4839999676
1330.0	0.0003738	89.5309998989
1330.0	0.0003725	89.5620000362
1330.0	0.0003718	89.6089999676
1330.0	0.0003708	89.6559998989
1330.0	0.0003705	89.6870000362
1330.0	0.0003705	89.7339999676
1330.0	0.0003705	89.7809998989
1330.0	0.0003705	89.8120000362
1330.0	0.0003703	89.8589999676
1330.0	0.00037	89.8899998665
1330.0	0.0003695	89.9370000362
1330.0	0.0003695	89.9839999676
1330.0	0.00037	90.0149998665
1330.0	0.0003695	90.0620000362
1330.0	0.000369	90.1089999676
1330.0	0.0003688	90.1399998665
1330.0	0.0003688	90.1870000362
1330.0	0.000369	90.2179999352
1330.0	0.0003693	90.2649998665
1330.0	0.0003695	90.3120000362
1330.0	0.00037	90.3589999676
1330.0	0.00037	90.3899998665
1330.0	0.0003695	90.4370000362
1330.0	0.0003695	90.4679999352
1330.0	0.0003693	90.5149998665
1330.0	0.0003693	90.5620000362
1330.0	0.0003693	90.5929999352
1330.0	0.0003693	90.6399998665
1330.0	0.0003693	90.6870000362
1330.0	0.0003695	90.7179999352
1330.0	0.0003693	90.7649998665
1330.0	0.0003693	90.8120000362
1330.0	0.0003693	90.8429999352
1330.0	0.0003693	90.8899998665
1330.0	0.0003695	90.9210000038
1340.0	0.0003643	91.2029998302
1340.0	0.0003618	91.2339999676
1340.0	0.00036	91.2809998989
1340.0	0.0003583	91.3279998302
1340.0	0.0003568	91.3589999676
1340.0	0.0003555	91.4059998989
1340.0	0.0003545	91.4529998302
1340.0	0.0003538	91.4839999676
1340.0	0.0003533	91.5309998989
1340.0	0.000353	91.5620000362
1340.0	0.000353	91.6089999676
1340.0	0.0003533	91.6559998989
1340.0	0.0003533	91.6870000362
1340.0	0.000353	91.7339999676
1340.0	0.000353	91.7809998989
1340.0	0.0003528	91.8120000362
1340.0	0.000353	91.8589999676
1340.0	0.0003533	91.9059998989
1340.0	0.0003538	91.9370000362
1340.0	0.0003533	91.9839999676
1340.0	0.000353	92.0309998989
1340.0	0.000353	92.0620000362
1340.0	0.0003528	92.1089999676
1340.0	0.0003528	92.1399998665
1340.0	0.0003525	92.1870000362
1340.0	0.000352	92.2339999676
1340.0	0.000352	92.2649998665
1340.0	0.0003525	92.3120000362
1340.0	0.0003525	92.3589999676
1340.0	0.000352	92.3899998665
1340.0	0.000352	92.4370000362
1340.0	0.0003518	92.4679999352
1340.0	0.000352	92.5149998665
1340.0	0.000352	92.5620000362
1340.0	0.000352	92.5929999352
1340.0	0.0003525	92.6399998665
1340.0	0.0003525	92.6870000362
1350.0	0.0003463	92.9529998302
1350.0	0.000344	92.9839999676
1350.0	0.0003418	93.0309998989
1350.0	0.0003403	93.0779998302
1350.0	0.0003388	93.1089999676
1350.0	0.0003375	93.1559998989
1350.0	0.0003368	93.2029998302
1350.0	0.0003363	93.2339999676
1350.0	0.0003355	93.2809998989
1350.0	0.0003353	93.3279998302
1350.0	0.000335	93.3589999676
1350.0	0.0003353	93.4059998989
1350.0	0.0003355	93.4529998302
1350.0	0.0003355	93.4839999676
1350.0	0.0003358	93.5309998989
1350.0	0.0003358	93.5620000362
1350.0	0.0003358	93.6089999676
1350.0	0.0003358	93.6559998989
1350.0	0.0003358	93.7029998302
1350.0	0.0003358	93.7339999676
1350.0	0.0003358	93.7809998989
1350.0	0.0003355	93.8120000362
1350.0	0.0003353	93.8589999676
1350.0	0.000335	93.9059998989
1350.0	0.000335	93.9370000362
1350.0	0.0003353	93.9839999676
1350.0	0.0003353	94.0309998989
1350.0	0.0003353	94.0620000362
1350.0	0.0003353	94.1089999676
1350.0	0.0003355	94.1399998665
1350.0	0.0003355	94.1870000362
1350.0	0.0003358	94.2339999676
1350.0	0.0003363	94.2649998665
1350.0	0.0003365	94.3120000362
1350.0	0.0003368	94.3589999676
1350.0	0.0003365	94.3899998665
1350.0	0.0003368	94.4370000362
1360.0	0.0003303	94.7029998302
1360.0	0.0003278	94.75
1360.0	0.0003258	94.7809998989
1360.0	0.0003243	94.8279998302
1360.0	0.0003233	94.8589999676
1360.0	0.0003228	94.9059998989
1360.0	0.000322	94.9529998302
1360.0	0.0003215	94.9839999676
1360.0	0.0003208	95.0309998989
1360.0	0.0003203	95.0779998302
1360.0	0.00032	95.1089999676
1360.0	0.0003193	95.1559998989
1360.0	0.0003193	95.1870000362
1360.0	0.0003195	95.2339999676
1360.0	0.0003195	95.2809998989
1360.0	0.0003195	95.3120000362
1360.0	0.0003195	95.3589999676
1360.0	0.0003193	95.4059998989
1360.0	0.0003193	95.4370000362
1360.0	0.0003195	95.4839999676
1360.0	0.0003195	95.5309998989
1360.0	0.0003195	95.5620000362
1360.0	0.0003195	95.6089999676
1360.0	0.0003195	95.6399998665
1360.0	0.0003195	95.6870000362
1360.0	0.0003195	95.7339999676
1360.0	0.0003195	95.7649998665
1360.0	0.0003193	95.8120000362
1360.0	0.000319	95.8589999676
1360.0	0.0003188	95.8899998665
1360.0	0.0003188	95.9370000362
1360.0	0.000319	95.9679999352
1360.0	0.0003188	96.0149998665
1360.0	0.0003188	96.0620000362
1360.0	0.0003183	96.0929999352
1360.0	0.0003183	96.1399998665
1360.0	0.0003183	96.1870000362
1370.0	0.0003118	96.4529998302
1370.0	0.0003093	96.4839999676
1370.0	0.0003075	96.5309998989
1370.0	0.0003058	96.5779998302
1370.0	0.0003045	96.6089999676
1370.0	0.0003033	96.6559998989
1370.0	0.0003025	96.6870000362
1370.0	0.0003025	96.7339999676
1370.0	0.000302	96.7809998989
1370.0	0.000302	96.8120000362
1370.0	0.0003015	96.8589999676
1370.0	0.0003008	96.9059998989
1370.0	0.0003005	96.9370000362
1370.0	0.0003003	96.9839999676
1370.0	0.0003003	97.0309998989
1370.0	0.0003	97.0620000362
1370.0	0.0002995	97.1089999676
1370.0	0.0002993	97.1399998665
1370.0	0.000299	97.1870000362
1370.0	0.000299	97.2339999676
1370.0	0.0002993	97.2649998665
1370.0	0.0002993	97.3120000362
1370.0	0.000299	97.3429999352
1370.0	0.000299	97.3899998665
1370.0	0.000299	97.4370000362
1370.0	0.0002993	97.4839999676
1370.0	0.0002995	97.5149998665
1370.0	0.0003	97.5620000362
1370.0	0.0003003	97.6089999676
1370.0	0.0003003	97.6399998665
1370.0	0.0003005	97.6870000362
1370.0	0.0003005	97.7179999352
1370.0	0.0003005	97.7649998665
1370.0	0.0003003	97.8120000362
1370.0	0.0003	97.8429999352
1370.0	0.0002995	97.8899998665
1370.0	0.0002995	97.9370000362
1380.0	0.000292	98.2029998302
1380.0	0.00029	98.2339999676
1380.0	0.0002878	98.2809998989
1380.0	0.0002858	98.3279998302
1380.0	0.000285	98.3589999676
1380.0	0.000284	98.4059998989
1380.0	0.0002833	98.4370000362
1380.0	0.0002833	98.4839999676
1380.0	0.000283	98.5309998989
1380.0	0.000283	98.5620000362
1380.0	0.000283	98.6089999676
1380.0	0.000283	98.6559998989
1380.0	0.0002825	98.6870000362
1380.0	0.000282	98.7339999676
1380.0	0.000282	98.7809998989
1380.0	0.000282	98.8120000362
1380.0	0.0002825	98.8589999676
1380.0	0.000282	98.9059998989
1380.0	0.0002825	98.9370000362
1380.0	0.0002825	98.9839999676
1380.0	0.0002825	99.0309998989
1380.0	0.0002828	99.0620000362
1380.0	0.0002828	99.1089999676
1380.0	0.0002828	99.1399998665
1380.0	0.000283	99.1870000362
1380.0	0.000283	99.2339999676
1380.0	0.000283	99.2649998665
1380.0	0.000283	99.3120000362
1380.0	0.0002833	99.3429999352
1380.0	0.0002833	99.3899998665
1380.0	0.000283	99.4370000362
1380.0	0.0002833	99.4839999676
1380.0	0.0002833	99.5149998665
1380.0	0.0002833	99.5620000362
1380.0	0.000283	99.6089999676
1380.0	0.000283	99.6399998665
1380.0	0.0002825	99.6870000362
1390.0	0.000277	99.9529998302
1390.0	0.0002753	100.0
1390.0	0.000274	100.030999899
1390.0	0.0002725	100.07799983
1390.0	0.0002715	100.125
1390.0	0.0002705	100.155999899
1390.0	0.0002703	100.20299983
1390.0	0.0002695	100.25
1390.0	0.0002693	100.280999899
1390.0	0.000269	100.32799983
1390.0	0.000269	100.358999968
1390.0	0.000269	100.405999899
1390.0	0.0002693	100.45299983
1390.0	0.000269	100.483999968
1390.0	0.0002688	100.530999899
1390.0	0.0002688	100.57799983
1390.0	0.0002683	100.608999968
1390.0	0.000268	100.655999899
1390.0	0.000268	100.70299983
1390.0	0.0002683	100.733999968
1390.0	0.0002683	100.780999899
1390.0	0.0002683	100.82799983
1390.0	0.0002688	100.858999968
1390.0	0.000268	100.905999899
1390.0	0.000268	100.95299983
1390.0	0.000268	100.983999968
1390.0	0.0002678	101.030999899
1390.0	0.0002678	101.07799983
1390.0	0.0002675	101.108999968
1390.0	0.0002675	101.155999899
1390.0	0.000267	101.20299983
1390.0	0.0002668	101.233999968
1390.0	0.0002675	101.280999899
1390.0	0.000267	101.32799983
1390.0	0.0002675	101.358999968
1390.0	0.0002675	101.405999899
1400.0	0.000262	101.671000004
1400.0	0.0002605	101.717999935
1400.0	0.0002593	101.75
1400.0	0.000258	101.796000004
1400.0	0.000257	101.842999935
1400.0	0.0002565	101.875
1400.0	0.0002555	101.921000004
1400.0	0.000255	101.967999935
1400.0	0.0002545	102.0
1400.0	0.0002545	102.046000004
1400.0	0.0002545	102.092999935
1400.0	0.000255	102.125
1400.0	0.0002545	102.171000004
1400.0	0.0002543	102.20299983
1400.0	0.000254	102.25
1400.0	0.000254	102.296000004
1400.0	0.000254	102.32799983
1400.0	0.000254	102.375
1400.0	0.0002538	102.421000004
1400.0	0.0002538	102.45299983
1400.0	0.0002538	102.5
1400.0	0.000254	102.530999899
1400.0	0.000254	102.57799983
1400.0	0.0002543	102.625
1400.0	0.0002543	102.655999899
1400.0	0.000254	102.70299983
1400.0	0.0002538	102.75
1400.0	0.0002538	102.780999899
1400.0	0.0002538	102.82799983
1400.0	0.0002538	102.875
1400.0	0.0002538	102.905999899
1400.0	0.0002538	102.95299983
1400.0	0.0002538	102.983999968
1400.0	0.0002538	103.030999899
1400.0	0.0002538	103.07799983
1400.0	0.0002538	103.108999968
1400.0	0.0002533	103.155999899
1410.0	0.0002508	103.421000004
1410.0	0.0002493	103.467999935
1410.0	0.0002488	103.5
1410.0	0.000248	103.546000004
1410.0	0.000247	103.592999935
1410.0	0.0002465	103.625
1410.0	0.0002458	103.671000004
1410.0	0.0002453	103.70299983
1410.0	0.0002453	103.75
1410.0	0.0002453	103.796000004
1410.0	0.0002453	103.82799983
1410.0	0.0002455	103.875
1410.0	0.0002463	103.921000004
1410.0	0.0002465	103.95299983
1410.0	0.0002468	104.0
1410.0	0.0002468	104.030999899
1410.0	0.0002463	104.07799983
1410.0	0.0002463	104.125
1410.0	0.0002458	104.155999899
1410.0	0.0002458	104.20299983
1410.0	0.0002458	104.25
1410.0	0.0002463	104.280999899
1410.0	0.0002463	104.32799983
1410.0	0.0002465	104.358999968
1410.0	0.0002465	104.405999899
1410.0	0.0002463	104.45299983
1410.0	0.0002463	104.483999968
1410.0	0.0002463	104.530999899
1410.0	0.0002463	104.57799983
1410.0	0.0002458	104.608999968
1410.0	0.0002463	104.655999899
1410.0	0.0002463	104.70299983
1410.0	0.0002465	104.733999968
1410.0	0.0002463	104.780999899
1410.0	0.0002463	104.82799983
1410.0	0.0002458	104.858999968
1410.0	0.0002458	104.905999899
1420.0	0.000244	105.171000004
1420.0	0.0002433	105.217999935
1420.0	0.000243	105.25
1420.0	0.0002428	105.296000004
1420.0	0.0002425	105.342999935
1420.0	0.000242	105.375
1420.0	0.000242	105.421000004
1420.0	0.0002418	105.45299983
1420.0	0.0002418	105.5
1420.0	0.0002413	105.546000004
1420.0	0.0002413	105.57799983
1420.0	0.0002413	105.625
1420.0	0.0002413	105.671000004
1420.0	0.0002413	105.70299983
1420.0	0.0002408	105.75
1420.0	0.0002408	105.780999899
1420.0	0.0002405	105.82799983
1420.0	0.0002405	105.875
1420.0	0.0002405	105.905999899
1420.0	0.0002413	105.95299983
1420.0	0.0002413	106.0
1420.0	0.0002413	106.030999899
1420.0	0.0002408	106.07799983
1420.0	0.0002405	106.108999968
1420.0	0.0002408	106.155999899
1420.0	0.0002405	106.20299983
1420.0	0.0002403	106.233999968
1420.0	0.00024	106.280999899
1420.0	0.0002395	106.32799983
1420.0	0.00024	106.358999968
1420.0	0.00024	106.405999899
1420.0	0.00024	106.45299983
1420.0	0.0002403	106.483999968
1420.0	0.0002403	106.530999899
1420.0	0.0002405	106.562000036
1420.0	0.0002408	106.608999968
1420.0	0.0002408	106.655999899
1430.0	0.000239	106.921000004
1430.0	0.000239	106.95299983
1430.0	0.0002388	107.0
1430.0	0.0002388	107.046000004
1430.0	0.0002388	107.07799983
1430.0	0.0002388	107.125
1430.0	0.0002388	107.155999899
1430.0	0.000239	107.20299983
1430.0	0.000239	107.25
1430.0	0.0002388	107.280999899
1430.0	0.0002383	107.32799983
1430.0	0.000238	107.375
1430.0	0.0002383	107.405999899
1430.0	0.0002383	107.45299983
1430.0	0.0002388	107.5
1430.0	0.0002388	107.530999899
1430.0	0.0002388	107.57799983
1430.0	0.000239	107.608999968
1430.0	0.000239	107.655999899
1430.0	0.0002393	107.70299983
1430.0	0.0002393	107.733999968
1430.0	0.0002393	107.780999899
1430.0	0.000239	107.82799983
1430.0	0.000239	107.858999968
1430.0	0.000239	107.905999899
1430.0	0.000239	107.937000036
1430.0	0.000239	107.983999968
1430.0	0.000239	108.030999899
1430.0	0.0002388	108.07799983
1430.0	0.0002383	108.108999968
1430.0	0.0002383	108.155999899
1430.0	0.000238	108.20299983
1430.0	0.0002378	108.233999968
1430.0	0.000238	108.280999899
1430.0	0.000238	108.32799983
1430.0	0.0002383	108.358999968
1430.0	0.0002383	108.405999899
1440.0	0.0002395	108.671000004
1440.0	0.00024	108.717999935
1440.0	0.0002403	108.75
1440.0	0.0002408	108.796000004
1440.0	0.0002413	108.82799983
1440.0	0.0002415	108.875
1440.0	0.0002415	108.921000004
1440.0	0.0002418	108.95299983
1440.0	0.000242	109.0
1440.0	0.0002418	109.046000004
1440.0	0.0002418	109.07799983
1440.0	0.0002418	109.125
1440.0	0.0002415	109.171000004
1440.0	0.0002415	109.20299983
1440.0	0.0002415	109.25
1440.0	0.0002418	109.296000004
1440.0	0.0002418	109.32799983
1440.0	0.0002418	109.375
1440.0	0.0002418	109.421000004
1440.0	0.000242	109.45299983
1440.0	0.000242	109.5
1440.0	0.0002418	109.530999899
1440.0	0.0002418	109.57799983
1440.0	0.0002418	109.625
1440.0	0.000242	109.655999899
1440.0	0.0002425	109.70299983
1440.0	0.0002425	109.75
1440.0	0.0002425	109.780999899
1440.0	0.000242	109.82799983
1440.0	0.000242	109.858999968
1440.0	0.000242	109.905999899
1440.0	0.000242	109.95299983
1440.0	0.0002425	109.983999968
1440.0	0.0002428	110.030999899
1440.0	0.0002428	110.07799983
1440.0	0.000243	110.108999968
1440.0	0.000243	110.155999899
1450.0	0.0002443	110.421000004
1450.0	0.000245	110.467999935
1450.0	0.0002455	110.5
1450.0	0.0002458	110.546000004
1450.0	0.0002465	110.57799983
1450.0	0.0002468	110.625
1450.0	0.0002468	110.671000004
1450.0	0.0002468	110.70299983
1450.0	0.0002468	110.75
1450.0	0.0002468	110.796000004
1450.0	0.0002468	110.82799983
1450.0	0.0002468	110.875
1450.0	0.0002468	110.905999899
1450.0	0.0002468	110.95299983
1450.0	0.000247	111.0
1450.0	0.0002475	111.030999899
1450.0	0.0002475	111.07799983
1450.0	0.0002478	111.125
1450.0	0.0002478	111.155999899
1450.0	0.000248	111.20299983
1450.0	0.0002478	111.25
1450.0	0.0002475	111.280999899
1450.0	0.000247	111.32799983
1450.0	0.000247	111.358999968
1450.0	0.000247	111.405999899
1450.0	0.0002475	111.45299983
1450.0	0.0002475	111.483999968
1450.0	0.000247	111.530999899
1450.0	0.000247	111.57799983
1450.0	0.0002468	111.608999968
1450.0	0.0002468	111.655999899
1450.0	0.0002465	111.687000036
1450.0	0.0002468	111.733999968
1450.0	0.0002468	111.780999899
1450.0	0.0002465	111.812000036
1450.0	0.0002463	111.858999968
1450.0	0.0002458	111.905999899
1460.0	0.0002488	112.171000004
1460.0	0.0002493	112.20299983
1460.0	0.00025	112.25
1460.0	0.0002503	112.296000004
1460.0	0.0002505	112.32799983
1460.0	0.0002508	112.375
1460.0	0.0002508	112.405999899
1460.0	0.0002513	112.45299983
1460.0	0.0002515	112.5
1460.0	0.0002513	112.530999899
1460.0	0.0002515	112.57799983
1460.0	0.0002515	112.625
1460.0	0.0002518	112.655999899
1460.0	0.0002518	112.70299983
1460.0	0.0002518	112.733999968
1460.0	0.000252	112.780999899
1460.0	0.000252	112.82799983
1460.0	0.000252	112.858999968
1460.0	0.000252	112.905999899
1460.0	0.0002525	112.95299983
1460.0	0.0002518	112.983999968
1460.0	0.0002518	113.030999899
1460.0	0.0002518	113.062000036
1460.0	0.0002518	113.108999968
1460.0	0.0002518	113.155999899
1460.0	0.0002515	113.187000036
1460.0	0.0002515	113.233999968
1460.0	0.0002515	113.280999899
1460.0	0.0002518	113.312000036
1460.0	0.000252	113.358999968
1460.0	0.0002525	113.405999899
1460.0	0.0002525	113.437000036
1460.0	0.0002525	113.483999968
1460.0	0.0002525	113.514999866
1460.0	0.000252	113.562000036
1460.0	0.000252	113.608999968
1460.0	0.0002518	113.639999866
1470.0	0.0002545	113.905999899
1470.0	0.0002553	113.95299983
1470.0	0.0002558	114.0
1470.0	0.0002565	114.030999899
1470.0	0.000257	114.07799983
1470.0	0.0002578	114.125
1470.0	0.0002583	114.155999899
1470.0	0.0002583	114.20299983
1470.0	0.0002583	114.233999968
1470.0	0.0002583	114.280999899
1470.0	0.0002583	114.32799983
1470.0	0.0002583	114.358999968
1470.0	0.0002588	114.405999899
1470.0	0.0002588	114.45299983
1470.0	0.0002588	114.483999968
1470.0	0.0002583	114.530999899
1470.0	0.0002588	114.562000036
1470.0	0.0002588	114.608999968
1470.0	0.0002588	114.655999899
1470.0	0.0002593	114.687000036
1470.0	0.0002593	114.733999968
1470.0	0.0002593	114.780999899
1470.0	0.0002593	114.812000036
1470.0	0.000259	114.858999968
1470.0	0.0002593	114.905999899
1470.0	0.0002595	114.937000036
1470.0	0.00026	114.983999968
1470.0	0.00026	115.014999866
1470.0	0.00026	115.062000036
1470.0	0.00026	115.108999968
1470.0	0.0002603	115.139999866
1470.0	0.0002603	115.187000036
1470.0	0.0002605	115.217999935
1470.0	0.0002608	115.264999866
1470.0	0.0002605	115.312000036
1470.0	0.0002603	115.342999935
1470.0	0.0002603	115.389999866
1480.0	0.0002628	115.655999899
1480.0	0.000263	115.70299983
1480.0	0.0002633	115.733999968
1480.0	0.0002633	115.780999899
1480.0	0.0002638	115.82799983
1480.0	0.000264	115.858999968
1480.0	0.0002643	115.905999899
1480.0	0.0002645	115.937000036
1480.0	0.0002645	115.983999968
1480.0	0.000265	116.030999899
1480.0	0.000265	116.062000036
1480.0	0.000265	116.108999968
1480.0	0.000265	116.155999899
1480.0	0.000265	116.187000036
1480.0	0.000265	116.233999968
1480.0	0.0002645	116.280999899
1480.0	0.0002643	116.312000036
1480.0	0.0002643	116.358999968
1480.0	0.0002645	116.389999866
1480.0	0.0002643	116.437000036
1480.0	0.000264	116.483999968
1480.0	0.000264	116.514999866
1480.0	0.0002638	116.562000036
1480.0	0.0002638	116.608999968
1480.0	0.0002638	116.639999866
1480.0	0.0002638	116.687000036
1480.0	0.0002638	116.717999935
1480.0	0.0002638	116.764999866
1480.0	0.0002638	116.812000036
1480.0	0.0002638	116.842999935
1480.0	0.000264	116.889999866
1480.0	0.0002643	116.937000036
1480.0	0.0002643	116.967999935
1480.0	0.0002645	117.014999866
1480.0	0.0002643	117.046000004
1480.0	0.0002643	117.092999935
1480.0	0.0002645	117.139999866
1490.0	0.000265	117.405999899
1490.0	0.0002653	117.45299983
1490.0	0.0002655	117.483999968
1490.0	0.0002658	117.530999899
1490.0	0.0002665	117.57799983
1490.0	0.0002668	117.608999968
1490.0	0.0002668	117.655999899
1490.0	0.0002665	117.70299983
1490.0	0.0002668	117.733999968
1490.0	0.0002668	117.780999899
1490.0	0.0002668	117.82799983
1490.0	0.0002668	117.858999968
1490.0	0.0002668	117.905999899
1490.0	0.0002665	117.937000036
1490.0	0.0002665	117.983999968
1490.0	0.0002668	118.030999899
1490.0	0.0002665	118.062000036
1490.0	0.0002665	118.108999968
1490.0	0.0002663	118.155999899
1490.0	0.0002663	118.187000036
1490.0	0.0002655	118.233999968
1490.0	0.0002653	118.280999899
1490.0	0.0002655	118.312000036
1490.0	0.0002655	118.358999968
1490.0	0.0002658	118.389999866
1490.0	0.0002665	118.437000036
1490.0	0.0002663	118.483999968
1490.0	0.0002663	118.514999866
1490.0	0.0002658	118.562000036
1490.0	0.0002658	118.608999968
1490.0	0.0002663	118.639999866
1490.0	0.0002663	118.687000036
1490.0	0.0002663	118.717999935
1490.0	0.0002663	118.764999866
1490.0	0.0002663	118.812000036
1490.0	0.0002663	118.842999935
1490.0	0.0002663	118.889999866
1500.0	0.0002663	119.155999899
1500.0	0.000267	119.20299983
1500.0	0.0002678	119.25
1500.0	0.0002678	119.280999899
1500.0	0.000268	119.32799983
1500.0	0.0002683	119.375
1500.0	0.0002683	119.405999899
1500.0	0.0002683	119.45299983
1500.0	0.0002683	119.5
1500.0	0.0002683	119.530999899
1500.0	0.0002683	119.57799983
1500.0	0.0002683	119.625
1500.0	0.0002683	119.655999899
1500.0	0.000268	119.70299983
1500.0	0.0002678	119.733999968
1500.0	0.0002678	119.780999899
1500.0	0.000268	119.82799983
1500.0	0.000268	119.858999968
1500.0	0.000268	119.905999899
1500.0	0.000268	119.95299983
1500.0	0.000268	119.983999968
1500.0	0.0002678	120.030999899
1500.0	0.0002678	120.062000036
1500.0	0.0002678	120.108999968
1500.0	0.000268	120.155999899
1500.0	0.0002688	120.187000036
1500.0	0.0002688	120.233999968
1500.0	0.0002683	120.280999899
1500.0	0.0002683	120.312000036
1500.0	0.0002683	120.358999968
1500.0	0.000268	120.389999866
1500.0	0.0002678	120.437000036
1500.0	0.000268	120.483999968
1500.0	0.000268	120.514999866
1500.0	0.0002683	120.562000036
1500.0	0.0002688	120.608999968
1500.0	0.0002683	120.639999866
1510.0	0.000268	120.921000004
1510.0	0.0002683	120.95299983
1510.0	0.0002688	121.0
1510.0	0.000269	121.046000004
1510.0	0.0002693	121.07799983
1510.0	0.0002695	121.125
1510.0	0.0002695	121.171000004
1510.0	0.0002693	121.20299983
1510.0	0.0002693	121.25
1510.0	0.0002693	121.280999899
1510.0	0.0002693	121.32799983
1510.0	0.0002695	121.375
1510.0	0.00027	121.405999899
1510.0	0.0002703	121.45299983
1510.0	0.0002703	121.5
1510.0	0.0002703	121.530999899
1510.0	0.0002703	121.57799983
1510.0	0.0002703	121.625
1510.0	0.0002703	121.655999899
1510.0	0.0002705	121.70299983
1510.0	0.0002705	121.75
1510.0	0.0002708	121.780999899
1510.0	0.0002705	121.82799983
1510.0	0.0002705	121.875
1510.0	0.0002703	121.905999899
1510.0	0.0002703	121.95299983
1510.0	0.00027	121.983999968
1510.0	0.00027	122.030999899
1510.0	0.00027	122.07799983
1510.0	0.00027	122.108999968
1510.0	0.0002703	122.155999899
1510.0	0.0002703	122.20299983
1510.0	0.00027	122.233999968
1510.0	0.00027	122.280999899
1510.0	0.0002695	122.312000036
1510.0	0.00027	122.358999968
1510.0	0.0002703	122.405999899
1520.0	0.0002715	122.671000004
1520.0	0.0002713	122.717999935
1520.0	0.0002713	122.75
1520.0	0.0002713	122.796000004
1520.0	0.0002708	122.842999935
1520.0	0.0002708	122.875
1520.0	0.0002703	122.921000004
1520.0	0.0002705	122.95299983
1520.0	0.0002703	123.0
1520.0	0.0002705	123.046000004
1520.0	0.0002708	123.07799983
1520.0	0.0002705	123.125
1520.0	0.0002705	123.171000004
1520.0	0.0002705	123.20299983
1520.0	0.0002705	123.25
1520.0	0.0002705	123.296000004
1520.0	0.0002705	123.32799983
1520.0	0.0002705	123.375
1520.0	0.0002705	123.421000004
1520.0	0.0002705	123.45299983
1520.0	0.0002705	123.5
1520.0	0.0002705	123.546000004
1520.0	0.0002703	123.57799983
1520.0	0.00027	123.625
1520.0	0.00027	123.655999899
1520.0	0.0002695	123.70299983
1520.0	0.0002695	123.75
1520.0	0.0002695	123.780999899
1520.0	0.00027	123.82799983
1520.0	0.00027	123.875
1520.0	0.00027	123.905999899
1520.0	0.0002703	123.95299983
1520.0	0.0002705	123.983999968
1520.0	0.0002705	124.030999899
1520.0	0.0002705	124.07799983
1520.0	0.00027	124.108999968
1520.0	0.00027	124.155999899
1530.0	0.0002693	124.437000036
1530.0	0.0002693	124.467999935
1530.0	0.0002693	124.514999866
1530.0	0.000269	124.546000004
1530.0	0.000269	124.592999935
1530.0	0.000269	124.639999866
1530.0	0.000269	124.671000004
1530.0	0.000269	124.717999935
1530.0	0.0002688	124.764999866
1530.0	0.0002688	124.796000004
1530.0	0.0002693	124.842999935
1530.0	0.0002693	124.875
1530.0	0.0002693	124.921000004
1530.0	0.0002695	124.967999935
1530.0	0.0002695	125.0
1530.0	0.0002695	125.046000004
1530.0	0.0002695	125.092999935
1530.0	0.0002695	125.139999866
1530.0	0.0002695	125.171000004
1530.0	0.0002695	125.217999935
1530.0	0.0002693	125.25
1530.0	0.0002693	125.296000004
1530.0	0.0002693	125.342999935
1530.0	0.0002693	125.375
1530.0	0.0002693	125.421000004
1530.0	0.0002695	125.467999935
1530.0	0.00027	125.5
1530.0	0.00027	125.546000004
1530.0	0.0002695	125.57799983
1530.0	0.0002693	125.625
1530.0	0.0002693	125.671000004
1530.0	0.0002693	125.70299983
1530.0	0.0002693	125.75
1530.0	0.000269	125.796000004
1530.0	0.000269	125.82799983
1530.0	0.000269	125.875
1530.0	0.0002693	125.905999899
1540.0	0.000269	126.187000036
1540.0	0.000269	126.233999968
1540.0	0.0002688	126.264999866
1540.0	0.0002688	126.312000036
1540.0	0.0002683	126.358999968
1540.0	0.0002683	126.389999866
1540.0	0.0002683	126.437000036
1540.0	0.000268	126.467999935
1540.0	0.000268	126.514999866
1540.0	0.000268	126.562000036
1540.0	0.0002678	126.592999935
1540.0	0.0002675	126.639999866
1540.0	0.000267	126.687000036
1540.0	0.0002668	126.717999935
1540.0	0.0002668	126.764999866
1540.0	0.000267	126.796000004
1540.0	0.0002668	126.842999935
1540.0	0.0002675	126.889999866
1540.0	0.0002675	126.921000004
1540.0	0.000267	126.967999935
1540.0	0.0002668	127.014999866
1540.0	0.0002668	127.046000004
1540.0	0.0002668	127.092999935
1540.0	0.0002668	127.139999866
1540.0	0.0002668	127.171000004
1540.0	0.0002668	127.217999935
1540.0	0.000267	127.25
1540.0	0.0002675	127.296000004
1540.0	0.0002675	127.342999935
1540.0	0.000267	127.375
1540.0	0.0002668	127.421000004
1540.0	0.0002668	127.467999935
1540.0	0.000267	127.5
1540.0	0.000267	127.546000004
1540.0	0.0002668	127.57799983
1540.0	0.0002675	127.625
1540.0	0.0002675	127.671000004
1550.0	0.0002678	127.95299983
1550.0	0.000267	127.983999968
1550.0	0.0002668	128.030999899
1550.0	0.0002665	128.062000036
1550.0	0.0002663	128.108999968
1550.0	0.0002663	128.155999899
1550.0	0.0002663	128.187000036
1550.0	0.0002663	128.233999968
1550.0	0.0002663	128.280999899
1550.0	0.0002658	128.312000036
1550.0	0.0002658	128.358999968
1550.0	0.0002655	128.405999899
1550.0	0.0002655	128.437000036
1550.0	0.0002655	128.483999968
1550.0	0.0002655	128.514999866
1550.0	0.0002655	128.562000036
1550.0	0.0002653	128.608999968
1550.0	0.0002653	128.639999866
1550.0	0.0002653	128.687000036
1550.0	0.0002655	128.717999935
1550.0	0.0002658	128.764999866
1550.0	0.0002655	128.812000036
1550.0	0.000265	128.842999935
1550.0	0.000265	128.889999866
1550.0	0.000265	128.937000036
1550.0	0.000265	128.967999935
1550.0	0.000265	129.014999866
1550.0	0.0002645	129.062000036
1550.0	0.0002645	129.092999935
1550.0	0.000265	129.139999866
1550.0	0.0002653	129.171000004
1550.0	0.0002653	129.217999935
1550.0	0.0002655	129.264999866
1550.0	0.0002655	129.296000004
1550.0	0.0002655	129.342999935
1550.0	0.0002655	129.389999866
1550.0	0.0002655	129.421000004
1560.0	0.0002633	129.70299983
1560.0	0.0002628	129.733999968
1560.0	0.000262	129.780999899
1560.0	0.0002613	129.82799983
1560.0	0.0002605	129.858999968
1560.0	0.00026	129.905999899
1560.0	0.0002593	129.95299983
1560.0	0.000259	129.983999968
1560.0	0.0002588	130.030999899
1560.0	0.0002583	130.062000036
1560.0	0.0002583	130.108999968
1560.0	0.0002588	130.155999899
1560.0	0.000258	130.187000036
1560.0	0.000258	130.233999968
1560.0	0.000258	130.280999899
1560.0	0.000258	130.312000036
1560.0	0.0002583	130.358999968
1560.0	0.000258	130.405999899
1560.0	0.0002583	130.437000036
1560.0	0.0002583	130.483999968
1560.0	0.0002583	130.514999866
1560.0	0.0002583	130.562000036
1560.0	0.0002588	130.608999968
1560.0	0.0002583	130.655999899
1560.0	0.0002588	130.687000036
1560.0	0.0002588	130.733999968
1560.0	0.0002588	130.764999866
1560.0	0.0002583	130.812000036
1560.0	0.0002583	130.858999968
1560.0	0.0002588	130.889999866
1560.0	0.0002583	130.937000036
1560.0	0.0002588	130.983999968
1560.0	0.0002588	131.014999866
1560.0	0.0002583	131.062000036
1560.0	0.0002588	131.092999935
1560.0	0.0002588	131.139999866
1560.0	0.000259	131.187000036
1570.0	0.0002553	131.45299983
1570.0	0.0002543	131.5
1570.0	0.0002533	131.546000004
1570.0	0.0002528	131.57799983
1570.0	0.000252	131.625
1570.0	0.000252	131.655999899
1570.0	0.0002518	131.70299983
1570.0	0.0002515	131.75
1570.0	0.0002513	131.780999899
1570.0	0.0002513	131.82799983
1570.0	0.0002515	131.875
1570.0	0.0002513	131.905999899
1570.0	0.0002513	131.95299983
1570.0	0.0002515	132.0
1570.0	0.0002518	132.030999899
1570.0	0.000252	132.07799983
1570.0	0.000252	132.108999968
1570.0	0.000252	132.155999899
1570.0	0.000252	132.20299983
1570.0	0.0002518	132.233999968
1570.0	0.0002518	132.280999899
1570.0	0.0002518	132.32799983
1570.0	0.0002518	132.358999968
1570.0	0.000252	132.405999899
1570.0	0.0002525	132.45299983
1570.0	0.0002528	132.483999968
1570.0	0.0002528	132.530999899
1570.0	0.0002528	132.57799983
1570.0	0.0002528	132.608999968
1570.0	0.0002525	132.655999899
1570.0	0.0002525	132.687000036
1570.0	0.000253	132.733999968
1570.0	0.000253	132.780999899
1570.0	0.0002533	132.812000036
1570.0	0.000253	132.858999968
1570.0	0.0002525	132.905999899
1570.0	0.000252	132.937000036
1580.0	0.000248	133.217999935
1580.0	0.0002468	133.25
1580.0	0.0002458	133.296000004
1580.0	0.000245	133.342999935
1580.0	0.000244	133.375
1580.0	0.0002433	133.421000004
1580.0	0.0002428	133.467999935
1580.0	0.0002425	133.5
1580.0	0.0002418	133.546000004
1580.0	0.0002418	133.57799983
1580.0	0.0002413	133.625
1580.0	0.0002408	133.671000004
1580.0	0.0002408	133.70299983
1580.0	0.0002408	133.75
1580.0	0.0002408	133.796000004
1580.0	0.0002413	133.82799983
1580.0	0.0002413	133.875
1580.0	0.0002408	133.921000004
1580.0	0.0002408	133.95299983
1580.0	0.0002408	134.0
1580.0	0.0002413	134.046000004
1580.0	0.0002413	134.07799983
1580.0	0.0002408	134.125
1580.0	0.0002408	134.171000004
1580.0	0.0002405	134.20299983
1580.0	0.0002403	134.25
1580.0	0.0002395	134.280999899
1580.0	0.0002395	134.32799983
1580.0	0.00024	134.375
1580.0	0.0002403	134.405999899
1580.0	0.0002403	134.45299983
1580.0	0.0002403	134.5
1580.0	0.0002405	134.530999899
1580.0	0.0002413	134.57799983
1580.0	0.0002418	134.608999968
1580.0	0.0002418	134.655999899
1580.0	0.000242	134.70299983
1590.0	0.0002363	134.967999935
1590.0	0.000235	135.014999866
1590.0	0.0002338	135.062000036
1590.0	0.0002325	135.092999935
1590.0	0.0002313	135.139999866
1590.0	0.0002305	135.171000004
1590.0	0.00023	135.217999935
1590.0	0.0002293	135.264999866
1590.0	0.0002293	135.296000004
1590.0	0.0002293	135.342999935
1590.0	0.000229	135.389999866
1590.0	0.0002293	135.421000004
1590.0	0.000229	135.467999935
1590.0	0.0002288	135.514999866
1590.0	0.0002288	135.546000004
1590.0	0.0002288	135.592999935
1590.0	0.0002288	135.625
1590.0	0.000229	135.671000004
1590.0	0.0002293	135.717999935
1590.0	0.0002293	135.764999866
1590.0	0.0002295	135.796000004
1590.0	0.00023	135.842999935
1590.0	0.00023	135.875
1590.0	0.0002303	135.921000004
1590.0	0.0002303	135.967999935
1590.0	0.0002305	136.0
1590.0	0.0002305	136.046000004
1590.0	0.0002308	136.092999935
1590.0	0.0002305	136.125
1590.0	0.00023	136.171000004
1590.0	0.00023	136.20299983
1590.0	0.0002303	136.25
1590.0	0.0002295	136.296000004
1590.0	0.0002295	136.32799983
1590.0	0.0002295	136.375
1590.0	0.0002295	136.421000004
1590.0	0.0002293	136.45299983
1600.0	0.0002233	136.733999968
1600.0	0.0002213	136.764999866
1600.0	0.0002193	136.812000036
1600.0	0.000218	136.858999968
1600.0	0.000217	136.889999866
1600.0	0.0002163	136.937000036
1600.0	0.0002155	136.983999968
1600.0	0.000215	137.014999866
1600.0	0.0002145	137.062000036
1600.0	0.0002143	137.092999935
1600.0	0.0002143	137.139999866
1600.0	0.0002138	137.187000036
1600.0	0.0002138	137.217999935
1600.0	0.000214	137.264999866
1600.0	0.000214	137.312000036
1600.0	0.0002143	137.342999935
1600.0	0.000214	137.389999866
1600.0	0.0002138	137.421000004
1600.0	0.0002138	137.467999935
1600.0	0.0002133	137.514999866
1600.0	0.0002138	137.546000004
1600.0	0.0002138	137.592999935
1600.0	0.0002138	137.639999866
1600.0	0.0002138	137.671000004
1600.0	0.0002138	137.717999935
1600.0	0.0002138	137.764999866
1600.0	0.000214	137.796000004
1600.0	0.0002143	137.842999935
1600.0	0.0002145	137.875
1600.0	0.0002145	137.921000004
1600.0	0.0002143	137.967999935
1600.0	0.0002143	138.0
1600.0	0.0002143	138.046000004
1600.0	0.000214	138.092999935
1600.0	0.000214	138.125
1600.0	0.000214	138.171000004
1600.0	0.0002143	138.20299983
1610.0	0.0002093	138.483999968
1610.0	0.000207	138.530999899
1610.0	0.0002055	138.57799983
1610.0	0.0002043	138.608999968
1610.0	0.000203	138.655999899
1610.0	0.0002025	138.687000036
1610.0	0.0002015	138.733999968
1610.0	0.0002003	138.780999899
1610.0	0.0001993	138.812000036
1610.0	0.000199	138.858999968
1610.0	0.000199	138.905999899
1610.0	0.0001993	138.937000036
1610.0	0.000199	138.983999968
1610.0	0.000199	139.030999899
1610.0	0.000199	139.062000036
1610.0	0.000199	139.108999968
1610.0	0.0001988	139.139999866
1610.0	0.0001988	139.187000036
1610.0	0.0001983	139.233999968
1610.0	0.0001983	139.264999866
1610.0	0.0001988	139.312000036
1610.0	0.0001988	139.358999968
1610.0	0.0001983	139.405999899
1610.0	0.0001983	139.437000036
1610.0	0.0001988	139.483999968
1610.0	0.0001983	139.530999899
1610.0	0.0001983	139.562000036
1610.0	0.0001983	139.608999968
1610.0	0.000198	139.639999866
1610.0	0.000198	139.687000036
1610.0	0.000198	139.733999968
1610.0	0.0001978	139.764999866
1610.0	0.0001975	139.812000036
1610.0	0.0001975	139.858999968
1610.0	0.0001978	139.889999866
1610.0	0.000198	139.937000036
1610.0	0.000198	139.967999935
1620.0	0.0001918	140.25
1620.0	0.0001893	140.296000004
1620.0	0.0001875	140.342999935
1620.0	0.0001858	140.375
1620.0	0.0001845	140.421000004
1620.0	0.000184	140.467999935
1620.0	0.0001833	140.5
1620.0	0.0001833	140.546000004
1620.0	0.0001833	140.57799983
1620.0	0.0001833	140.625
1620.0	0.000183	140.671000004
1620.0	0.0001828	140.717999935
1620.0	0.0001828	140.75
1620.0	0.0001828	140.796000004
1620.0	0.0001825	140.82799983
1620.0	0.0001825	140.875
1620.0	0.0001825	140.921000004
1620.0	0.000182	140.967999935
1620.0	0.0001818	141.0
1620.0	0.0001818	141.046000004
1620.0	0.0001815	141.07799983
1620.0	0.0001818	141.125
1620.0	0.0001818	141.171000004
1620.0	0.0001818	141.20299983
1620.0	0.0001818	141.25
1620.0	0.0001818	141.296000004
1620.0	0.000182	141.32799983
1620.0	0.0001825	141.375
1620.0	0.000182	141.421000004
1620.0	0.000182	141.45299983
1620.0	0.0001818	141.5
1620.0	0.0001815	141.546000004
1620.0	0.0001815	141.57799983
1620.0	0.0001815	141.625
1620.0	0.0001818	141.671000004
1620.0	0.0001818	141.70299983
1620.0	0.000182	141.75
1630.0	0.000175	142.030999899
1630.0	0.0001725	142.07799983
1630.0	0.0001705	142.108999968
1630.0	0.0001688	142.155999899
1630.0	0.0001675	142.187000036
1630.0	0.0001665	142.233999968
1630.0	0.0001658	142.280999899
1630.0	0.000165	142.312000036
1630.0	0.0001643	142.358999968
1630.0	0.000164	142.405999899
1630.0	0.0001638	142.437000036
1630.0	0.0001638	142.483999968
1630.0	0.0001638	142.514999866
1630.0	0.0001638	142.562000036
1630.0	0.0001638	142.608999968
1630.0	0.0001638	142.639999866
1630.0	0.000164	142.687000036
1630.0	0.000164	142.733999968
1630.0	0.0001643	142.764999866
1630.0	0.0001643	142.812000036
1630.0	0.0001645	142.858999968
1630.0	0.0001645	142.889999866
1630.0	0.0001643	142.937000036
1630.0	0.0001643	142.983999968
1630.0	0.0001645	143.014999866
1630.0	0.000165	143.062000036
1630.0	0.000165	143.092999935
1630.0	0.000165	143.139999866
1630.0	0.0001645	143.187000036
1630.0	0.0001645	143.217999935
1630.0	0.000165	143.264999866
1630.0	0.000165	143.312000036
1630.0	0.000165	143.342999935
1630.0	0.000165	143.389999866
1630.0	0.0001653	143.437000036
1630.0	0.0001653	143.467999935
1630.0	0.0001655	143.514999866
1640.0	0.0001575	143.796000004
1640.0	0.0001553	143.842999935
1640.0	0.0001533	143.875
1640.0	0.0001515	143.921000004
1640.0	0.0001503	143.95299983
1640.0	0.0001493	144.0
1640.0	0.0001488	144.046000004
1640.0	0.0001483	144.07799983
1640.0	0.000148	144.125
1640.0	0.0001475	144.171000004
1640.0	0.0001478	144.20299983
1640.0	0.000147	144.25
1640.0	0.0001468	144.280999899
1640.0	0.000147	144.32799983
1640.0	0.0001468	144.375
1640.0	0.0001468	144.405999899
1640.0	0.0001468	144.45299983
1640.0	0.0001465	144.5
1640.0	0.0001465	144.530999899
1640.0	0.0001465	144.57799983
1640.0	0.0001465	144.625
1640.0	0.0001468	144.655999899
1640.0	0.0001465	144.70299983
1640.0	0.0001463	144.75
1640.0	0.0001463	144.780999899
1640.0	0.0001463	144.82799983
1640.0	0.0001463	144.875
1640.0	0.0001463	144.905999899
1640.0	0.0001463	144.95299983
1640.0	0.0001463	145.0
1640.0	0.0001463	145.030999899
1640.0	0.0001458	145.07799983
1640.0	0.0001458	145.125
1640.0	0.0001458	145.155999899
1640.0	0.0001463	145.20299983
1640.0	0.0001463	145.233999968
1640.0	0.0001465	145.280999899
1650.0	0.0001403	145.562000036
1650.0	0.0001383	145.608999968
1650.0	0.0001365	145.655999899
1650.0	0.0001353	145.687000036
1650.0	0.000134	145.733999968
1650.0	0.0001333	145.764999866
1650.0	0.0001328	145.812000036
1650.0	0.0001325	145.858999968
1650.0	0.0001325	145.889999866
1650.0	0.0001325	145.937000036
1650.0	0.0001328	145.967999935
1650.0	0.0001328	146.014999866
1650.0	0.000132	146.062000036
1650.0	0.000132	146.092999935
1650.0	0.0001325	146.139999866
1650.0	0.000132	146.187000036
1650.0	0.0001318	146.217999935
1650.0	0.0001315	146.264999866
1650.0	0.0001313	146.312000036
1650.0	0.0001313	146.342999935
1650.0	0.0001308	146.389999866
1650.0	0.0001305	146.421000004
1650.0	0.0001305	146.467999935
1650.0	0.0001305	146.514999866
1650.0	0.0001308	146.546000004
1650.0	0.0001308	146.592999935
1650.0	0.0001313	146.639999866
1650.0	0.0001313	146.671000004
1650.0	0.0001313	146.717999935
1650.0	0.0001308	146.75
1650.0	0.0001308	146.796000004
1650.0	0.0001313	146.842999935
1650.0	0.0001313	146.875
1650.0	0.0001313	146.921000004
1650.0	0.0001305	146.967999935
1650.0	0.0001303	147.0
1650.0	0.0001305	147.046000004
1660.0	0.000125	147.32799983
1660.0	0.0001233	147.358999968
1660.0	0.0001215	147.405999899
1660.0	0.00012	147.45299983
1660.0	0.0001188	147.483999968
1660.0	0.0001178	147.530999899
1660.0	0.000117	147.57799983
1660.0	0.0001165	147.608999968
1660.0	0.0001163	147.655999899
1660.0	0.0001163	147.687000036
1660.0	0.0001165	147.733999968
1660.0	0.0001163	147.780999899
1660.0	0.0001165	147.812000036
1660.0	0.0001165	147.858999968
1660.0	0.0001165	147.905999899
1660.0	0.0001165	147.937000036
1660.0	0.0001165	147.983999968
1660.0	0.0001163	148.014999866
1660.0	0.0001163	148.062000036
1660.0	0.0001158	148.108999968
1660.0	0.0001158	148.139999866
1660.0	0.0001163	148.187000036
1660.0	0.0001163	148.233999968
1660.0	0.0001165	148.264999866
1660.0	0.0001168	148.312000036
1660.0	0.0001168	148.342999935
1660.0	0.0001168	148.389999866
1660.0	0.0001168	148.437000036
1660.0	0.0001168	148.467999935
1660.0	0.0001168	148.514999866
1660.0	0.000117	148.562000036
1660.0	0.0001168	148.592999935
1660.0	0.0001168	148.639999866
1660.0	0.0001168	148.671000004
1660.0	0.000117	148.717999935
1660.0	0.0001175	148.764999866
1660.0	0.0001175	148.796000004
1670.0	0.0001113	149.092999935
1670.0	0.0001093	149.125
1670.0	0.000108	149.171000004
1670.0	0.0001068	149.20299983
1670.0	0.0001058	149.25
1670.0	0.000105	149.296000004
1670.0	0.000104	149.32799983
1670.0	0.0001038	149.375
1670.0	0.0001033	149.421000004
1670.0	0.000103	149.45299983
1670.0	0.0001028	149.5
1670.0	0.0001025	149.530999899
1670.0	0.0001025	149.57799983
1670.0	0.0001025	149.625
1670.0	0.000102	149.655999899
1670.0	0.000102	149.70299983
1670.0	0.000102	149.75
1670.0	0.000102	149.780999899
1670.0	0.0001025	149.82799983
1670.0	0.0001025	149.858999968
1670.0	0.0001025	149.905999899
1670.0	0.000102	149.95299983
1670.0	0.0001018	149.983999968
1670.0	0.0001018	150.030999899
1670.0	0.000102	150.07799983
1670.0	0.0001025	150.108999968
1670.0	0.0001025	150.155999899
1670.0	0.0001025	150.20299983
1670.0	0.0001028	150.233999968
1670.0	0.0001028	150.280999899
1670.0	0.0001025	150.312000036
1670.0	0.0001025	150.358999968
1670.0	0.0001028	150.405999899
1670.0	0.000103	150.437000036
1670.0	0.000103	150.483999968
1670.0	0.0001033	150.530999899
1670.0	0.0001038	150.562000036
1680.0	9.9e-05	150.858999968
1680.0	9.78e-05	150.889999866
1680.0	9.68e-05	150.937000036
1680.0	9.58e-05	150.967999935
1680.0	9.5e-05	151.014999866
1680.0	9.43e-05	151.062000036
1680.0	9.38e-05	151.092999935
1680.0	9.33e-05	151.139999866
1680.0	9.33e-05	151.187000036
1680.0	9.33e-05	151.217999935
1680.0	9.28e-05	151.264999866
1680.0	9.25e-05	151.296000004
1680.0	9.2e-05	151.342999935
1680.0	9.18e-05	151.389999866
1680.0	9.18e-05	151.421000004
1680.0	9.13e-05	151.467999935
1680.0	9.13e-05	151.514999866
1680.0	9.08e-05	151.546000004
1680.0	9.13e-05	151.592999935
1680.0	9.15e-05	151.625
1680.0	9.15e-05	151.671000004
1680.0	9.15e-05	151.717999935
1680.0	9.15e-05	151.75
1680.0	9.13e-05	151.796000004
1680.0	9.08e-05	151.842999935
1680.0	9.05e-05	151.875
1680.0	9.03e-05	151.921000004
1680.0	9e-05	151.967999935
1680.0	9e-05	152.0
1680.0	9e-05	152.046000004
1680.0	9e-05	152.07799983
1680.0	8.95e-05	152.125
1680.0	8.95e-05	152.171000004
1680.0	8.95e-05	152.20299983
1680.0	8.95e-05	152.25
1680.0	9e-05	152.296000004
1680.0	9e-05	152.32799983
1690.0	8.65e-05	152.625
1690.0	8.55e-05	152.655999899
1690.0	8.45e-05	152.70299983
1690.0	8.43e-05	152.733999968
1690.0	8.38e-05	152.780999899
1690.0	8.3e-05	152.82799983
1690.0	8.2e-05	152.858999968
1690.0	8.18e-05	152.905999899
1690.0	8.18e-05	152.95299983
1690.0	8.18e-05	152.983999968
1690.0	8.2e-05	153.030999899
1690.0	8.2e-05	153.07799983
1690.0	8.2e-05	153.108999968
1690.0	8.18e-05	153.155999899
1690.0	8.18e-05	153.187000036
1690.0	8.18e-05	153.233999968
1690.0	8.15e-05	153.280999899
1690.0	8.18e-05	153.312000036
1690.0	8.18e-05	153.358999968
1690.0	8.18e-05	153.405999899
1690.0	8.18e-05	153.437000036
1690.0	8.18e-05	153.483999968
1690.0	8.18e-05	153.514999866
1690.0	8.18e-05	153.562000036
1690.0	8.18e-05	153.608999968
1690.0	8.18e-05	153.639999866
1690.0	8.2e-05	153.687000036
1690.0	8.2e-05	153.733999968
1690.0	8.2e-05	153.764999866
1690.0	8.18e-05	153.812000036
1690.0	8.18e-05	153.842999935
1690.0	8.15e-05	153.889999866
1690.0	8.15e-05	153.937000036
1690.0	8.15e-05	153.967999935
1690.0	8.15e-05	154.014999866
1690.0	8.18e-05	154.062000036
1690.0	8.18e-05	154.092999935
1700.0	7.83e-05	154.389999866
1700.0	7.7e-05	154.421000004
1700.0	7.63e-05	154.467999935
1700.0	7.5e-05	154.5
1700.0	7.43e-05	154.546000004
1700.0	7.38e-05	154.592999935
1700.0	7.28e-05	154.639999866
1700.0	7.2e-05	154.671000004
1700.0	7.18e-05	154.717999935
1700.0	7.13e-05	154.764999866
1700.0	7.08e-05	154.796000004
1700.0	7.13e-05	154.842999935
1700.0	7.15e-05	154.889999866
1700.0	7.15e-05	154.921000004
1700.0	7.13e-05	154.967999935
1700.0	7.13e-05	155.014999866
1700.0	7.13e-05	155.046000004
1700.0	7.13e-05	155.092999935
1700.0	7.13e-05	155.125
1700.0	7.15e-05	155.171000004
1700.0	7.15e-05	155.217999935
1700.0	7.15e-05	155.25
1700.0	7.15e-05	155.296000004
1700.0	7.15e-05	155.342999935
1700.0	7.18e-05	155.375
1700.0	7.2e-05	155.421000004
1700.0	7.2e-05	155.467999935
1700.0	7.2e-05	155.5
1700.0	7.2e-05	155.546000004
1700.0	7.18e-05	155.592999935
1700.0	7.15e-05	155.625
1700.0	7.18e-05	155.671000004
1700.0	7.18e-05	155.717999935
1700.0	7.15e-05	155.75
1700.0	7.15e-05	155.796000004
1700.0	7.18e-05	155.82799983
1700.0	7.18e-05	155.875
1710.0	7.03e-05	156.155999899
1710.0	6.93e-05	156.20299983
1710.0	6.88e-05	156.25
1710.0	6.8e-05	156.280999899
1710.0	6.75e-05	156.32799983
1710.0	6.68e-05	156.375
1710.0	6.63e-05	156.405999899
1710.0	6.63e-05	156.45299983
1710.0	6.58e-05	156.483999968
1710.0	6.58e-05	156.530999899
1710.0	6.58e-05	156.57799983
1710.0	6.55e-05	156.608999968
1710.0	6.55e-05	156.655999899
1710.0	6.55e-05	156.70299983
1710.0	6.55e-05	156.733999968
1710.0	6.55e-05	156.780999899
1710.0	6.53e-05	156.812000036
1710.0	6.53e-05	156.858999968
1710.0	6.53e-05	156.905999899
1710.0	6.55e-05	156.937000036
1710.0	6.55e-05	156.983999968
1710.0	6.55e-05	157.030999899
1710.0	6.55e-05	157.062000036
1710.0	6.53e-05	157.108999968
1710.0	6.53e-05	157.155999899
1710.0	6.53e-05	157.187000036
1710.0	6.5e-05	157.233999968
1710.0	6.53e-05	157.264999866
1710.0	6.53e-05	157.312000036
1710.0	6.53e-05	157.358999968
1710.0	6.5e-05	157.389999866
1710.0	6.5e-05	157.437000036
1710.0	6.45e-05	157.483999968
1710.0	6.5e-05	157.514999866
1710.0	6.45e-05	157.562000036
1710.0	6.5e-05	157.592999935
1710.0	6.5e-05	157.639999866
1720.0	6.13e-05	157.921000004
1720.0	6.05e-05	157.967999935
1720.0	5.95e-05	158.014999866
1720.0	5.88e-05	158.062000036
1720.0	5.8e-05	158.092999935
1720.0	5.8e-05	158.139999866
1720.0	5.8e-05	158.171000004
1720.0	5.8e-05	158.217999935
1720.0	5.8e-05	158.264999866
1720.0	5.83e-05	158.296000004
1720.0	5.83e-05	158.342999935
1720.0	5.8e-05	158.389999866
1720.0	5.8e-05	158.421000004
1720.0	5.78e-05	158.467999935
1720.0	5.78e-05	158.514999866
1720.0	5.78e-05	158.546000004
1720.0	5.78e-05	158.592999935
1720.0	5.78e-05	158.639999866
1720.0	5.75e-05	158.671000004
1720.0	5.75e-05	158.717999935
1720.0	5.75e-05	158.764999866
1720.0	5.7e-05	158.796000004
1720.0	5.75e-05	158.842999935
1720.0	5.78e-05	158.875
1720.0	5.78e-05	158.921000004
1720.0	5.8e-05	158.967999935
1720.0	5.8e-05	159.0
1720.0	5.83e-05	159.046000004
1720.0	5.83e-05	159.092999935
1720.0	5.8e-05	159.125
1720.0	5.83e-05	159.171000004
1720.0	5.8e-05	159.20299983
1720.0	5.83e-05	159.25
1720.0	5.83e-05	159.296000004
1720.0	5.83e-05	159.32799983
1720.0	5.83e-05	159.375
1720.0	5.88e-05	159.421000004
1730.0	5.7e-05	159.70299983
1730.0	5.65e-05	159.75
1730.0	5.65e-05	159.796000004
1730.0	5.63e-05	159.82799983
1730.0	5.58e-05	159.875
1730.0	5.58e-05	159.905999899
1730.0	5.53e-05	159.95299983
1730.0	5.5e-05	160.0
1730.0	5.5e-05	160.030999899
1730.0	5.5e-05	160.07799983
1730.0	5.45e-05	160.125
1730.0	5.43e-05	160.171000004
1730.0	5.4e-05	160.20299983
1730.0	5.38e-05	160.25
1730.0	5.4e-05	160.280999899
1730.0	5.4e-05	160.32799983
1730.0	5.38e-05	160.375
1730.0	5.38e-05	160.405999899
1730.0	5.33e-05	160.45299983
1730.0	5.3e-05	160.5
1730.0	5.3e-05	160.530999899
1730.0	5.3e-05	160.57799983
1730.0	5.3e-05	160.608999968
1730.0	5.3e-05	160.655999899
1730.0	5.38e-05	160.70299983
1730.0	5.38e-05	160.733999968
1730.0	5.38e-05	160.780999899
1730.0	5.38e-05	160.82799983
1730.0	5.38e-05	160.858999968
1730.0	5.33e-05	160.905999899
1730.0	5.33e-05	160.937000036
1730.0	5.33e-05	160.983999968
1730.0	5.3e-05	161.030999899
1730.0	5.28e-05	161.062000036
1730.0	5.3e-05	161.108999968
1730.0	5.28e-05	161.155999899
1730.0	5.25e-05	161.187000036
1740.0	5.13e-05	161.483999968
1740.0	5.05e-05	161.514999866
1740.0	5.03e-05	161.562000036
1740.0	4.95e-05	161.592999935
1740.0	4.93e-05	161.639999866
1740.0	4.9e-05	161.687000036
1740.0	4.88e-05	161.717999935
1740.0	4.83e-05	161.764999866
1740.0	4.88e-05	161.812000036
1740.0	4.83e-05	161.842999935
1740.0	4.83e-05	161.889999866
1740.0	4.88e-05	161.921000004
1740.0	4.83e-05	161.967999935
1740.0	4.83e-05	162.014999866
1740.0	4.83e-05	162.046000004
1740.0	4.83e-05	162.092999935
1740.0	4.83e-05	162.139999866
1740.0	4.8e-05	162.171000004
1740.0	4.8e-05	162.217999935
1740.0	4.8e-05	162.264999866
1740.0	4.78e-05	162.296000004
1740.0	4.78e-05	162.342999935
1740.0	4.75e-05	162.375
1740.0	4.7e-05	162.421000004
1740.0	4.75e-05	162.467999935
1740.0	4.75e-05	162.5
1740.0	4.75e-05	162.546000004
1740.0	4.78e-05	162.592999935
1740.0	4.78e-05	162.625
1740.0	4.78e-05	162.671000004
1740.0	4.78e-05	162.70299983
1740.0	4.78e-05	162.75
1740.0	4.78e-05	162.796000004
1740.0	4.78e-05	162.82799983
1740.0	4.8e-05	162.875
1740.0	4.83e-05	162.921000004
1740.0	4.88e-05	162.95299983
1750.0	4.68e-05	163.25
1750.0	4.63e-05	163.280999899
1750.0	4.58e-05	163.32799983
1750.0	4.55e-05	163.375
1750.0	4.53e-05	163.405999899
1750.0	4.5e-05	163.45299983
1750.0	4.45e-05	163.5
1750.0	4.43e-05	163.530999899
1750.0	4.43e-05	163.57799983
1750.0	4.45e-05	163.625
1750.0	4.45e-05	163.655999899
1750.0	4.5e-05	163.70299983
1750.0	4.53e-05	163.733999968
1750.0	4.53e-05	163.780999899
1750.0	4.53e-05	163.82799983
1750.0	4.53e-05	163.858999968
1750.0	4.53e-05	163.905999899
1750.0	4.55e-05	163.95299983
1750.0	4.55e-05	163.983999968
1750.0	4.55e-05	164.030999899
1750.0	4.55e-05	164.062000036
1750.0	4.55e-05	164.108999968
1750.0	4.55e-05	164.155999899
1750.0	4.53e-05	164.187000036
1750.0	4.5e-05	164.233999968
1750.0	4.45e-05	164.280999899
1750.0	4.45e-05	164.312000036
1750.0	4.45e-05	164.358999968
1750.0	4.5e-05	164.389999866
1750.0	4.5e-05	164.437000036
1750.0	4.53e-05	164.483999968
1750.0	4.53e-05	164.514999866
1750.0	4.53e-05	164.562000036
1750.0	4.53e-05	164.608999968
1750.0	4.5e-05	164.639999866
1750.0	4.5e-05	164.687000036
1750.0	4.45e-05	164.717999935
1760.0	4.3e-05	165.014999866
1760.0	4.25e-05	165.046000004
1760.0	4.2e-05	165.092999935
1760.0	4.18e-05	165.139999866
1760.0	4.18e-05	165.171000004
1760.0	4.13e-05	165.217999935
1760.0	4.13e-05	165.264999866
1760.0	4.08e-05	165.296000004
1760.0	4.08e-05	165.342999935
1760.0	4.08e-05	165.389999866
1760.0	4.08e-05	165.421000004
1760.0	4.08e-05	165.467999935
1760.0	4.08e-05	165.5
1760.0	4.05e-05	165.546000004
1760.0	4.03e-05	165.592999935
1760.0	4.05e-05	165.639999866
1760.0	4.08e-05	165.671000004
1760.0	4.05e-05	165.717999935
1760.0	4.03e-05	165.75
1760.0	4e-05	165.796000004
1760.0	4e-05	165.842999935
1760.0	4.03e-05	165.875
1760.0	4.03e-05	165.921000004
1760.0	4.03e-05	165.967999935
1760.0	4.05e-05	166.0
1760.0	4.08e-05	166.046000004
1760.0	4.08e-05	166.07799983
1760.0	4.05e-05	166.125
1760.0	4.05e-05	166.171000004
1760.0	4.03e-05	166.20299983
1760.0	4e-05	166.25
1760.0	4e-05	166.296000004
1760.0	4e-05	166.32799983
1760.0	4.03e-05	166.375
1760.0	4.03e-05	166.421000004
1760.0	4e-05	166.45299983
1760.0	4e-05	166.5
1770.0	3.8e-05	166.780999899
1770.0	3.78e-05	166.82799983
1770.0	3.75e-05	166.858999968
1770.0	3.75e-05	166.905999899
1770.0	3.75e-05	166.95299983
1770.0	3.75e-05	167.0
1770.0	3.75e-05	167.030999899
1770.0	3.7e-05	167.07799983
1770.0	3.68e-05	167.125
1770.0	3.68e-05	167.155999899
1770.0	3.68e-05	167.20299983
1770.0	3.65e-05	167.233999968
1770.0	3.68e-05	167.280999899
1770.0	3.7e-05	167.32799983
1770.0	3.7e-05	167.358999968
1770.0	3.68e-05	167.405999899
1770.0	3.65e-05	167.45299983
1770.0	3.63e-05	167.483999968
1770.0	3.63e-05	167.530999899
1770.0	3.58e-05	167.562000036
1770.0	3.55e-05	167.608999968
1770.0	3.58e-05	167.655999899
1770.0	3.63e-05	167.687000036
1770.0	3.63e-05	167.733999968
1770.0	3.68e-05	167.780999899
1770.0	3.68e-05	167.812000036
1770.0	3.7e-05	167.858999968
1770.0	3.7e-05	167.889999866
1770.0	3.7e-05	167.937000036
1770.0	3.7e-05	167.983999968
1770.0	3.7e-05	168.014999866
1770.0	3.7e-05	168.062000036
1770.0	3.7e-05	168.108999968
1770.0	3.75e-05	168.139999866
1770.0	3.75e-05	168.187000036
1770.0	3.75e-05	168.217999935
1780.0	3.53e-05	168.514999866
1780.0	3.5e-05	168.546000004
1780.0	3.5e-05	168.592999935
1780.0	3.5e-05	168.639999866
1780.0	3.5e-05	168.687000036
1780.0	3.45e-05	168.717999935
1780.0	3.43e-05	168.764999866
1780.0	3.4e-05	168.812000036
1780.0	3.4e-05	168.842999935
1780.0	3.4e-05	168.889999866
1780.0	3.4e-05	168.921000004
1780.0	3.4e-05	168.967999935
1780.0	3.4e-05	169.014999866
1780.0	3.43e-05	169.046000004
1780.0	3.43e-05	169.092999935
1780.0	3.4e-05	169.139999866
1780.0	3.4e-05	169.171000004
1780.0	3.4e-05	169.217999935
1780.0	3.4e-05	169.25
1780.0	3.43e-05	169.296000004
1780.0	3.43e-05	169.342999935
1780.0	3.4e-05	169.375
1780.0	3.43e-05	169.421000004
1780.0	3.43e-05	169.467999935
1780.0	3.43e-05	169.5
1780.0	3.45e-05	169.546000004
1780.0	3.45e-05	169.57799983
1780.0	3.45e-05	169.625
1780.0	3.5e-05	169.671000004
1780.0	3.5e-05	169.70299983
1780.0	3.45e-05	169.75
1780.0	3.45e-05	169.796000004
1780.0	3.43e-05	169.82799983
1780.0	3.4e-05	169.875
1780.0	3.4e-05	169.905999899
1780.0	3.4e-05	169.95299983
1780.0	3.4e-05	170.0
1790.0	3.3e-05	170.280999899
1790.0	3.3e-05	170.32799983
1790.0	3.28e-05	170.358999968
1790.0	3.25e-05	170.405999899
1790.0	3.18e-05	170.45299983
1790.0	3.13e-05	170.5
1790.0	3.13e-05	170.530999899
1790.0	3.08e-05	170.57799983
1790.0	3.13e-05	170.608999968
1790.0	3.08e-05	170.655999899
1790.0	3.08e-05	170.70299983
1790.0	3.08e-05	170.733999968
1790.0	3.05e-05	170.780999899
1790.0	3.03e-05	170.82799983
1790.0	3e-05	170.858999968
1790.0	3e-05	170.905999899
1790.0	3e-05	170.937000036
1790.0	3.03e-05	170.983999968
1790.0	3.05e-05	171.030999899
1790.0	3.08e-05	171.062000036
1790.0	3.13e-05	171.108999968
1790.0	3.08e-05	171.155999899
1790.0	3.08e-05	171.187000036
1790.0	3.03e-05	171.233999968
1790.0	3e-05	171.280999899
1790.0	3e-05	171.312000036
1790.0	3e-05	171.358999968
1790.0	3e-05	171.389999866
1790.0	3e-05	171.437000036
1790.0	3e-05	171.483999968
1790.0	3e-05	171.514999866
1790.0	3e-05	171.562000036
1790.0	3e-05	171.592999935
1790.0	2.95e-05	171.639999866
1790.0	2.93e-05	171.687000036
1790.0	2.95e-05	171.717999935
1790.0	2.95e-05	171.764999866
1800.0	2.75e-05	172.062000036
1800.0	2.65e-05	172.092999935
1800.0	2.63e-05	172.139999866
1800.0	2.55e-05	172.187000036
1800.0	2.55e-05	172.217999935
1800.0	2.55e-05	172.264999866
1800.0	2.55e-05	172.296000004
1800.0	2.58e-05	172.342999935
1800.0	2.63e-05	172.389999866
1800.0	2.65e-05	172.421000004
1800.0	2.68e-05	172.467999935
1800.0	2.68e-05	172.514999866
1800.0	2.68e-05	172.546000004
1800.0	2.68e-05	172.592999935
1800.0	2.68e-05	172.639999866
1800.0	2.68e-05	172.671000004
1800.0	2.65e-05	172.717999935
1800.0	2.65e-05	172.75
1800.0	2.63e-05	172.796000004
1800.0	2.65e-05	172.842999935
1800.0	2.68e-05	172.875
1800.0	2.68e-05	172.921000004
1800.0	2.68e-05	172.967999935
1800.0	2.65e-05	173.0
1800.0	2.63e-05	173.046000004
1800.0	2.58e-05	173.07799983
1800.0	2.58e-05	173.125
1800.0	2.58e-05	173.171000004
1800.0	2.55e-05	173.20299983
1800.0	2.53e-05	173.25
1800.0	2.53e-05	173.296000004
1800.0	2.55e-05	173.32799983
1800.0	2.63e-05	173.375
1800.0	2.65e-05	173.405999899
1800.0	2.68e-05	173.45299983
1800.0	2.68e-05	173.5
1800.0	2.68e-05	173.530999899
