Your edit line - do NOT delete this line
Wavelength [nm], Voltage [V], Elapsed time [s]
800.0	7.55e-05	16.0160000324
800.0	7.53e-05	16.0469999313
800.0	7.43e-05	16.0940001011
800.0	7.33e-05	16.1410000324
800.0	7.33e-05	16.1719999313
800.0	7.38e-05	16.2190001011
800.0	7.4e-05	16.2660000324
800.0	7.38e-05	16.2969999313
800.0	7.3e-05	16.3440001011
800.0	7.28e-05	16.375
800.0	7.2e-05	16.4219999313
800.0	7.18e-05	16.4690001011
800.0	7.13e-05	16.5
800.0	7.03e-05	16.5469999313
800.0	7.03e-05	16.5940001011
800.0	7.05e-05	16.625
800.0	7.08e-05	16.6719999313
800.0	7.15e-05	16.7030000687
800.0	7.2e-05	16.75
800.0	7.2e-05	16.7969999313
800.0	7.18e-05	16.8280000687
800.0	7.2e-05	16.875
800.0	7.2e-05	16.9219999313
800.0	7.15e-05	16.9530000687
800.0	7.05e-05	17.0
800.0	7.03e-05	17.0309998989
800.0	6.95e-05	17.0780000687
800.0	6.95e-05	17.125
800.0	6.93e-05	17.1559998989
800.0	6.93e-05	17.2030000687
800.0	6.95e-05	17.25
800.0	7.03e-05	17.2809998989
800.0	7e-05	17.3280000687
800.0	7.05e-05	17.3599998951
800.0	7.15e-05	17.4059998989
800.0	7.18e-05	17.4530000687
800.0	7.18e-05	17.4849998951
810.0	7.33e-05	17.8280000687
810.0	7.38e-05	17.875
810.0	7.38e-05	17.9059998989
810.0	7.43e-05	17.9530000687
810.0	7.5e-05	18.0
810.0	7.58e-05	18.0309998989
810.0	7.55e-05	18.0780000687
810.0	7.55e-05	18.125
810.0	7.53e-05	18.1559998989
810.0	7.5e-05	18.2030000687
810.0	7.45e-05	18.2349998951
810.0	7.45e-05	18.2809998989
810.0	7.45e-05	18.3280000687
810.0	7.43e-05	18.3599998951
810.0	7.53e-05	18.4059998989
810.0	7.55e-05	18.4530000687
810.0	7.55e-05	18.4849998951
810.0	7.63e-05	18.5309998989
810.0	7.68e-05	18.5629999638
810.0	7.68e-05	18.6099998951
810.0	7.58e-05	18.6559998989
810.0	7.58e-05	18.6879999638
810.0	7.58e-05	18.7349998951
810.0	7.53e-05	18.7809998989
810.0	7.53e-05	18.8129999638
810.0	7.55e-05	18.8599998951
810.0	7.53e-05	18.9059998989
810.0	7.55e-05	18.9379999638
810.0	7.58e-05	18.9849998951
810.0	7.58e-05	19.0160000324
810.0	7.63e-05	19.0629999638
810.0	7.63e-05	19.1099998951
810.0	7.63e-05	19.1410000324
810.0	7.65e-05	19.1879999638
810.0	7.65e-05	19.2349998951
810.0	7.68e-05	19.2660000324
810.0	7.7e-05	19.3129999638
820.0	7.93e-05	19.6410000324
820.0	8.03e-05	19.6879999638
820.0	8.08e-05	19.7190001011
820.0	8.13e-05	19.7660000324
820.0	8.08e-05	19.8129999638
820.0	8.15e-05	19.8440001011
820.0	8.13e-05	19.8910000324
820.0	8.03e-05	19.9379999638
820.0	8.05e-05	19.9690001011
820.0	8.13e-05	20.0160000324
820.0	8.15e-05	20.0469999313
820.0	8.13e-05	20.0940001011
820.0	8.15e-05	20.1410000324
820.0	8.18e-05	20.1719999313
820.0	8.18e-05	20.2190001011
820.0	8.18e-05	20.2660000324
820.0	8.18e-05	20.2969999313
820.0	8.15e-05	20.3440001011
820.0	8.13e-05	20.375
820.0	8.05e-05	20.4219999313
820.0	8.13e-05	20.4690001011
820.0	8.2e-05	20.5
820.0	8.25e-05	20.5469999313
820.0	8.25e-05	20.5940001011
820.0	8.25e-05	20.625
820.0	8.28e-05	20.6719999313
820.0	8.28e-05	20.7030000687
820.0	8.3e-05	20.75
820.0	8.38e-05	20.7969999313
820.0	8.38e-05	20.8440001011
820.0	8.38e-05	20.875
820.0	8.33e-05	20.9219999313
820.0	8.28e-05	20.9690001011
820.0	8.2e-05	21.0
820.0	8.18e-05	21.0469999313
820.0	8.13e-05	21.0780000687
820.0	8.08e-05	21.125
830.0	8.58e-05	21.4530000687
830.0	8.68e-05	21.5
830.0	8.78e-05	21.5309998989
830.0	8.88e-05	21.5780000687
830.0	8.95e-05	21.625
830.0	8.95e-05	21.6559998989
830.0	9.05e-05	21.7030000687
830.0	9.13e-05	21.75
830.0	9.05e-05	21.7809998989
830.0	9.03e-05	21.8280000687
830.0	9e-05	21.875
830.0	8.95e-05	21.9059998989
830.0	9e-05	21.9530000687
830.0	9.03e-05	21.9849998951
830.0	9.03e-05	22.0309998989
830.0	9.03e-05	22.0780000687
830.0	9.05e-05	22.1099998951
830.0	9.15e-05	22.1559998989
830.0	9.15e-05	22.2030000687
830.0	9.13e-05	22.2349998951
830.0	9.05e-05	22.2809998989
830.0	9.03e-05	22.3129999638
830.0	8.95e-05	22.3599998951
830.0	8.9e-05	22.4059998989
830.0	8.83e-05	22.4379999638
830.0	8.83e-05	22.4849998951
830.0	8.78e-05	22.5309998989
830.0	8.78e-05	22.5780000687
830.0	8.88e-05	22.6099998951
830.0	8.88e-05	22.6559998989
830.0	8.8e-05	22.6879999638
830.0	8.8e-05	22.7349998951
830.0	8.8e-05	22.7809998989
830.0	8.78e-05	22.8129999638
830.0	8.75e-05	22.8599998951
830.0	8.78e-05	22.9059998989
840.0	9.2e-05	23.2349998951
840.0	9.33e-05	23.2660000324
840.0	9.43e-05	23.3129999638
840.0	9.53e-05	23.3440001011
840.0	9.63e-05	23.3910000324
840.0	9.7e-05	23.4379999638
840.0	9.7e-05	23.4690001011
840.0	9.7e-05	23.5160000324
840.0	9.75e-05	23.5629999638
840.0	9.75e-05	23.5940001011
840.0	9.75e-05	23.6410000324
840.0	9.78e-05	23.6879999638
840.0	9.83e-05	23.7190001011
840.0	9.83e-05	23.7660000324
840.0	9.8e-05	23.7969999313
840.0	9.8e-05	23.8440001011
840.0	9.75e-05	23.8910000324
840.0	9.68e-05	23.9219999313
840.0	9.63e-05	23.9690001011
840.0	9.58e-05	24.0160000324
840.0	9.5e-05	24.0469999313
840.0	9.45e-05	24.0940001011
840.0	9.5e-05	24.125
840.0	9.5e-05	24.1719999313
840.0	9.55e-05	24.2190001011
840.0	9.5e-05	24.25
840.0	9.45e-05	24.2969999313
840.0	9.53e-05	24.3440001011
840.0	9.58e-05	24.375
840.0	9.63e-05	24.4219999313
840.0	9.7e-05	24.4530000687
840.0	9.78e-05	24.5
840.0	9.78e-05	24.5469999313
840.0	9.78e-05	24.5780000687
840.0	9.78e-05	24.625
840.0	9.78e-05	24.6719999313
840.0	9.8e-05	24.7190001011
850.0	0.0001013	25.0309998989
850.0	0.000102	25.0780000687
850.0	0.000103	25.125
850.0	0.000104	25.1559998989
850.0	0.0001045	25.2030000687
850.0	0.0001055	25.2349998951
850.0	0.0001063	25.2809998989
850.0	0.0001065	25.3280000687
850.0	0.0001063	25.3599998951
850.0	0.0001063	25.4059998989
850.0	0.0001065	25.4530000687
850.0	0.0001078	25.4849998951
850.0	0.0001088	25.5309998989
850.0	0.000109	25.5629999638
850.0	0.0001088	25.6099998951
850.0	0.0001083	25.6559998989
850.0	0.0001078	25.6879999638
850.0	0.0001078	25.7349998951
850.0	0.0001075	25.7809998989
850.0	0.0001075	25.8129999638
850.0	0.0001078	25.8599998951
850.0	0.0001078	25.8910000324
850.0	0.000107	25.9379999638
850.0	0.0001068	25.9849998951
850.0	0.0001068	26.0160000324
850.0	0.0001065	26.0629999638
850.0	0.0001065	26.1099998951
850.0	0.0001065	26.1410000324
850.0	0.0001068	26.1879999638
850.0	0.0001065	26.2190001011
850.0	0.0001058	26.2660000324
850.0	0.0001058	26.3129999638
850.0	0.0001063	26.3440001011
850.0	0.0001065	26.3910000324
850.0	0.000107	26.4379999638
850.0	0.0001075	26.4690001011
850.0	0.0001075	26.5160000324
860.0	0.000115	26.8440001011
860.0	0.0001165	26.875
860.0	0.000117	26.9219999313
860.0	0.000117	26.9690001011
860.0	0.000117	27.0
860.0	0.0001175	27.0469999313
860.0	0.0001175	27.0780000687
860.0	0.0001178	27.125
860.0	0.0001183	27.1719999313
860.0	0.0001183	27.2030000687
860.0	0.0001183	27.25
860.0	0.0001183	27.2969999313
860.0	0.0001175	27.3280000687
860.0	0.000117	27.375
860.0	0.0001175	27.4059998989
860.0	0.0001175	27.4530000687
860.0	0.0001175	27.5
860.0	0.0001178	27.5309998989
860.0	0.000118	27.5780000687
860.0	0.0001175	27.625
860.0	0.000117	27.6559998989
860.0	0.000117	27.7030000687
860.0	0.0001168	27.7349998951
860.0	0.0001168	27.7809998989
860.0	0.0001165	27.8280000687
860.0	0.0001165	27.8599998951
860.0	0.0001168	27.9059998989
860.0	0.0001165	27.9530000687
860.0	0.0001165	27.9849998951
860.0	0.0001168	28.0309998989
860.0	0.000117	28.0629999638
860.0	0.000117	28.1099998951
860.0	0.0001178	28.1559998989
860.0	0.0001183	28.1879999638
860.0	0.0001183	28.2349998951
860.0	0.000118	28.2809998989
860.0	0.000118	28.3129999638
870.0	0.0001243	28.6410000324
870.0	0.0001253	28.6719999313
870.0	0.0001265	28.7190001011
870.0	0.0001275	28.75
870.0	0.000128	28.7969999313
870.0	0.0001288	28.8440001011
870.0	0.000129	28.875
870.0	0.0001293	28.9219999313
870.0	0.00013	28.9690001011
870.0	0.00013	29.0
870.0	0.0001303	29.0469999313
870.0	0.0001313	29.0780000687
870.0	0.0001315	29.125
870.0	0.0001313	29.1719999313
870.0	0.0001308	29.2030000687
870.0	0.0001313	29.25
870.0	0.0001315	29.2969999313
870.0	0.0001318	29.3280000687
870.0	0.000132	29.375
870.0	0.0001325	29.4219999313
870.0	0.0001325	29.4530000687
870.0	0.000133	29.5
870.0	0.0001328	29.5469999313
870.0	0.0001325	29.5780000687
870.0	0.0001315	29.625
870.0	0.0001308	29.6719999313
870.0	0.0001305	29.7030000687
870.0	0.0001305	29.75
870.0	0.0001308	29.7809998989
870.0	0.0001313	29.8280000687
870.0	0.0001315	29.875
870.0	0.000132	29.9059998989
870.0	0.000132	29.9530000687
870.0	0.000132	30.0
870.0	0.0001318	30.0309998989
870.0	0.0001315	30.0780000687
870.0	0.0001308	30.1099998951
880.0	0.0001375	30.4219999313
880.0	0.0001393	30.4690001011
880.0	0.0001413	30.5160000324
880.0	0.0001425	30.5469999313
880.0	0.0001438	30.5940001011
880.0	0.000145	30.6410000324
880.0	0.0001463	30.6719999313
880.0	0.0001468	30.7190001011
880.0	0.0001475	30.75
880.0	0.000148	30.7969999313
880.0	0.000149	30.8440001011
880.0	0.0001493	30.875
880.0	0.000149	30.9219999313
880.0	0.000149	30.9690001011
880.0	0.0001488	31.0
880.0	0.000148	31.0469999313
880.0	0.0001475	31.0780000687
880.0	0.0001465	31.125
880.0	0.0001463	31.1719999313
880.0	0.0001468	31.2030000687
880.0	0.0001475	31.25
880.0	0.0001478	31.2969999313
880.0	0.0001478	31.3280000687
880.0	0.000147	31.375
880.0	0.0001465	31.4059998989
880.0	0.0001463	31.4530000687
880.0	0.0001465	31.5
880.0	0.0001463	31.5309998989
880.0	0.0001465	31.5780000687
880.0	0.0001468	31.625
880.0	0.000147	31.6559998989
880.0	0.0001475	31.7030000687
880.0	0.000148	31.7349998951
880.0	0.0001475	31.7809998989
880.0	0.0001465	31.8280000687
880.0	0.0001463	31.8599998951
880.0	0.0001463	31.9059998989
890.0	0.0001545	32.2190001011
890.0	0.000157	32.2660000324
890.0	0.0001593	32.2969999313
890.0	0.0001605	32.3440001011
890.0	0.0001605	32.3910000324
890.0	0.0001605	32.4219999313
890.0	0.0001613	32.4690001011
890.0	0.0001618	32.5
890.0	0.0001613	32.5469999313
890.0	0.0001605	32.5940001011
890.0	0.0001605	32.625
890.0	0.0001603	32.6719999313
890.0	0.0001608	32.7190001011
890.0	0.0001618	32.75
890.0	0.000162	32.7969999313
890.0	0.0001628	32.8280000687
890.0	0.0001638	32.875
890.0	0.0001638	32.9219999313
890.0	0.000164	32.9530000687
890.0	0.0001645	33.0
890.0	0.000165	33.0469999313
890.0	0.000165	33.0780000687
890.0	0.0001643	33.125
890.0	0.0001633	33.1559998989
890.0	0.000163	33.2030000687
890.0	0.000163	33.25
890.0	0.000163	33.2809998989
890.0	0.000162	33.3280000687
890.0	0.000162	33.375
890.0	0.0001625	33.4059998989
890.0	0.0001628	33.4530000687
890.0	0.000163	33.4849998951
890.0	0.0001633	33.5309998989
890.0	0.0001638	33.5780000687
890.0	0.0001638	33.6099998951
890.0	0.0001643	33.6559998989
890.0	0.000164	33.7030000687
900.0	0.0001713	34.0
900.0	0.0001733	34.0469999313
900.0	0.0001745	34.0940001011
900.0	0.0001763	34.125
900.0	0.0001775	34.1719999313
900.0	0.0001783	34.2190001011
900.0	0.000179	34.25
900.0	0.0001793	34.2969999313
900.0	0.0001795	34.3280000687
900.0	0.0001793	34.375
900.0	0.0001795	34.4219999313
900.0	0.000179	34.4530000687
900.0	0.000179	34.5
900.0	0.0001788	34.5469999313
900.0	0.0001788	34.5780000687
900.0	0.0001793	34.625
900.0	0.00018	34.6719999313
900.0	0.0001808	34.7030000687
900.0	0.0001825	34.75
900.0	0.0001833	34.7969999313
900.0	0.0001833	34.8280000687
900.0	0.000183	34.875
900.0	0.0001828	34.9059998989
900.0	0.0001828	34.9530000687
900.0	0.0001825	35.0
900.0	0.000182	35.0309998989
900.0	0.0001818	35.0780000687
900.0	0.0001813	35.125
900.0	0.0001813	35.1559998989
900.0	0.0001813	35.2030000687
900.0	0.0001808	35.2349998951
900.0	0.0001815	35.2809998989
900.0	0.000182	35.3280000687
900.0	0.0001825	35.3599998951
900.0	0.000182	35.4059998989
900.0	0.0001815	35.4530000687
900.0	0.0001815	35.4849998951
910.0	0.00019	35.7969999313
910.0	0.000193	35.8440001011
910.0	0.0001955	35.875
910.0	0.0001975	35.9219999313
910.0	0.0001988	35.9530000687
910.0	0.0001993	36.0
910.0	0.0002003	36.0469999313
910.0	0.0002005	36.0780000687
910.0	0.0002013	36.125
910.0	0.000202	36.1719999313
910.0	0.0002028	36.2030000687
910.0	0.0002025	36.25
910.0	0.0002018	36.2809998989
910.0	0.0002018	36.3280000687
910.0	0.0002013	36.375
910.0	0.0002008	36.4219999313
910.0	0.0002013	36.4530000687
910.0	0.0002013	36.5
910.0	0.0002013	36.5469999313
910.0	0.0002008	36.5780000687
910.0	0.0002005	36.625
910.0	0.0002005	36.6559998989
910.0	0.0002008	36.7030000687
910.0	0.0002008	36.75
910.0	0.0002008	36.7809998989
910.0	0.0002008	36.8280000687
910.0	0.0002008	36.875
910.0	0.0002013	36.9059998989
910.0	0.0002025	36.9530000687
910.0	0.0002028	36.9849998951
910.0	0.0002028	37.0309998989
910.0	0.0002028	37.0780000687
910.0	0.0002028	37.1099998951
910.0	0.000203	37.1559998989
910.0	0.000203	37.2030000687
910.0	0.000203	37.2349998951
910.0	0.0002028	37.2809998989
920.0	0.0002115	37.5780000687
920.0	0.0002138	37.625
920.0	0.0002153	37.6719999313
920.0	0.0002168	37.7030000687
920.0	0.0002178	37.75
920.0	0.0002188	37.7809998989
920.0	0.00022	37.8280000687
920.0	0.0002205	37.875
920.0	0.0002208	37.9059998989
920.0	0.0002213	37.9530000687
920.0	0.0002215	38.0
920.0	0.0002213	38.0309998989
920.0	0.000222	38.0780000687
920.0	0.0002228	38.125
920.0	0.000223	38.1559998989
920.0	0.0002238	38.2030000687
920.0	0.0002243	38.25
920.0	0.0002243	38.2809998989
920.0	0.0002245	38.3280000687
920.0	0.0002243	38.3599998951
920.0	0.0002233	38.4059998989
920.0	0.000223	38.4530000687
920.0	0.0002233	38.4849998951
920.0	0.000223	38.5309998989
920.0	0.000223	38.5780000687
920.0	0.0002233	38.6099998951
920.0	0.0002238	38.6559998989
920.0	0.0002243	38.7030000687
920.0	0.000225	38.7349998951
920.0	0.0002253	38.7809998989
920.0	0.0002245	38.8129999638
920.0	0.0002243	38.8599998951
920.0	0.0002243	38.9059998989
920.0	0.0002238	38.9379999638
920.0	0.0002238	38.9849998951
920.0	0.0002233	39.0309998989
920.0	0.0002233	39.0629999638
930.0	0.000235	39.3599998951
930.0	0.0002383	39.4059998989
930.0	0.0002408	39.4530000687
930.0	0.000243	39.4849998951
930.0	0.0002445	39.5309998989
930.0	0.0002453	39.5780000687
930.0	0.0002453	39.6099998951
930.0	0.0002455	39.6559998989
930.0	0.0002458	39.6879999638
930.0	0.0002455	39.7349998951
930.0	0.0002455	39.7809998989
930.0	0.0002463	39.8129999638
930.0	0.0002468	39.8599998951
930.0	0.0002475	39.9059998989
930.0	0.0002478	39.9379999638
930.0	0.0002478	39.9849998951
930.0	0.0002488	40.0160000324
930.0	0.000249	40.0629999638
930.0	0.000249	40.1099998951
930.0	0.000249	40.1410000324
930.0	0.0002493	40.1879999638
930.0	0.0002493	40.2349998951
930.0	0.0002483	40.2660000324
930.0	0.0002478	40.3129999638
930.0	0.000248	40.3440001011
930.0	0.000248	40.3910000324
930.0	0.0002488	40.4379999638
930.0	0.000249	40.4690001011
930.0	0.0002488	40.5160000324
930.0	0.0002488	40.5629999638
930.0	0.000248	40.5940001011
930.0	0.0002478	40.6410000324
930.0	0.0002475	40.6879999638
930.0	0.000247	40.7190001011
930.0	0.0002465	40.7660000324
930.0	0.0002465	40.7969999313
930.0	0.0002463	40.8440001011
940.0	0.0002563	41.1410000324
940.0	0.0002595	41.1879999638
940.0	0.0002625	41.2190001011
940.0	0.0002643	41.2660000324
940.0	0.0002658	41.3129999638
940.0	0.0002675	41.3440001011
940.0	0.000268	41.3910000324
940.0	0.0002688	41.4379999638
940.0	0.000269	41.4690001011
940.0	0.000269	41.5160000324
940.0	0.0002683	41.5629999638
940.0	0.000268	41.5940001011
940.0	0.0002683	41.6410000324
940.0	0.0002688	41.6719999313
940.0	0.000269	41.7190001011
940.0	0.0002693	41.7660000324
940.0	0.0002693	41.8129999638
940.0	0.000269	41.8440001011
940.0	0.0002688	41.8910000324
940.0	0.0002683	41.9219999313
940.0	0.000268	41.9690001011
940.0	0.000268	42.0160000324
940.0	0.0002683	42.0469999313
940.0	0.0002688	42.0940001011
940.0	0.0002683	42.1410000324
940.0	0.0002683	42.1719999313
940.0	0.000268	42.2190001011
940.0	0.0002678	42.25
940.0	0.0002678	42.2969999313
940.0	0.0002675	42.3440001011
940.0	0.0002675	42.375
940.0	0.0002678	42.4219999313
940.0	0.0002683	42.4690001011
940.0	0.000269	42.5
940.0	0.0002693	42.5469999313
940.0	0.00027	42.5940001011
950.0	0.000278	42.8910000324
950.0	0.0002813	42.9219999313
950.0	0.0002838	42.9690001011
950.0	0.0002868	43.0160000324
950.0	0.0002888	43.0469999313
950.0	0.0002903	43.0940001011
950.0	0.000292	43.125
950.0	0.000293	43.1719999313
950.0	0.0002938	43.2190001011
950.0	0.000294	43.25
950.0	0.000294	43.2969999313
950.0	0.0002938	43.3440001011
950.0	0.0002938	43.375
950.0	0.000294	43.4219999313
950.0	0.000294	43.4530000687
950.0	0.0002938	43.5
950.0	0.0002938	43.5469999313
950.0	0.0002928	43.5780000687
950.0	0.0002925	43.625
950.0	0.000293	43.6719999313
950.0	0.000293	43.7030000687
950.0	0.000293	43.75
950.0	0.000293	43.7809998989
950.0	0.0002933	43.8280000687
950.0	0.000293	43.875
950.0	0.0002933	43.9059998989
950.0	0.0002938	43.9530000687
950.0	0.0002933	44.0
950.0	0.0002938	44.0309998989
950.0	0.000294	44.0780000687
950.0	0.000294	44.1099998951
950.0	0.000294	44.1559998989
950.0	0.0002943	44.2030000687
950.0	0.0002943	44.2349998951
950.0	0.0002945	44.2809998989
950.0	0.0002945	44.3280000687
950.0	0.000295	44.3599998951
960.0	0.0003018	44.6559998989
960.0	0.0003045	44.6879999638
960.0	0.0003068	44.7349998951
960.0	0.000308	44.7809998989
960.0	0.0003088	44.8129999638
960.0	0.0003095	44.8599998951
960.0	0.0003105	44.8910000324
960.0	0.0003105	44.9379999638
960.0	0.0003108	44.9849998951
960.0	0.0003118	45.0160000324
960.0	0.0003128	45.0629999638
960.0	0.000314	45.1099998951
960.0	0.0003153	45.1410000324
960.0	0.0003155	45.1879999638
960.0	0.0003163	45.2349998951
960.0	0.0003158	45.2660000324
960.0	0.0003158	45.3129999638
960.0	0.0003158	45.3599998951
960.0	0.0003163	45.3910000324
960.0	0.0003155	45.4379999638
960.0	0.0003155	45.4849998951
960.0	0.0003158	45.5160000324
960.0	0.0003155	45.5629999638
960.0	0.0003155	45.5940001011
960.0	0.0003158	45.6410000324
960.0	0.0003155	45.6879999638
960.0	0.0003153	45.7190001011
960.0	0.0003153	45.7660000324
960.0	0.0003153	45.8129999638
960.0	0.0003155	45.8440001011
960.0	0.0003153	45.8910000324
960.0	0.0003153	45.9219999313
960.0	0.0003158	45.9690001011
960.0	0.0003163	46.0160000324
960.0	0.0003168	46.0469999313
960.0	0.000317	46.0940001011
960.0	0.000317	46.1410000324
970.0	0.000323	46.4219999313
970.0	0.0003265	46.4530000687
970.0	0.0003288	46.5
970.0	0.00033	46.5469999313
970.0	0.0003318	46.5780000687
970.0	0.0003333	46.625
970.0	0.000335	46.6559998989
970.0	0.0003363	46.7030000687
970.0	0.0003368	46.75
970.0	0.0003368	46.7809998989
970.0	0.0003368	46.8280000687
970.0	0.000337	46.875
970.0	0.0003368	46.9059998989
970.0	0.0003365	46.9530000687
970.0	0.0003365	46.9849998951
970.0	0.0003365	47.0309998989
970.0	0.0003368	47.0780000687
970.0	0.000337	47.1099998951
970.0	0.0003375	47.1559998989
970.0	0.0003383	47.2030000687
970.0	0.000339	47.2349998951
970.0	0.0003393	47.2809998989
970.0	0.0003393	47.3280000687
970.0	0.0003395	47.3599998951
970.0	0.00034	47.4059998989
970.0	0.0003388	47.4379999638
970.0	0.0003388	47.4849998951
970.0	0.0003388	47.5309998989
970.0	0.000338	47.5780000687
970.0	0.0003368	47.6099998951
970.0	0.0003365	47.6559998989
970.0	0.0003363	47.6879999638
970.0	0.0003358	47.7349998951
970.0	0.0003363	47.7809998989
970.0	0.0003363	47.8129999638
970.0	0.0003365	47.8599998951
970.0	0.000337	47.9059998989
980.0	0.000345	48.1879999638
980.0	0.0003483	48.2190001011
980.0	0.0003513	48.2660000324
980.0	0.0003538	48.3129999638
980.0	0.0003555	48.3440001011
980.0	0.0003568	48.3910000324
980.0	0.0003583	48.4379999638
980.0	0.0003593	48.4690001011
980.0	0.0003595	48.5160000324
980.0	0.0003593	48.5469999313
980.0	0.0003588	48.5940001011
980.0	0.0003583	48.6410000324
980.0	0.000358	48.6719999313
980.0	0.000358	48.7190001011
980.0	0.000358	48.7660000324
980.0	0.0003578	48.7969999313
980.0	0.000358	48.8440001011
980.0	0.000359	48.875
980.0	0.000359	48.9219999313
980.0	0.0003593	48.9690001011
980.0	0.0003595	49.0
980.0	0.00036	49.0469999313
980.0	0.0003605	49.0940001011
980.0	0.0003603	49.125
980.0	0.00036	49.1719999313
980.0	0.0003593	49.2190001011
980.0	0.0003593	49.25
980.0	0.0003595	49.2969999313
980.0	0.0003595	49.3280000687
980.0	0.0003593	49.375
980.0	0.0003588	49.4219999313
980.0	0.0003575	49.4530000687
980.0	0.0003563	49.5
980.0	0.0003558	49.5309998989
980.0	0.0003563	49.5780000687
980.0	0.0003565	49.625
980.0	0.0003568	49.6559998989
990.0	0.000364	49.9379999638
990.0	0.0003668	49.9849998951
990.0	0.000369	50.0309998989
990.0	0.0003715	50.0629999638
990.0	0.000373	50.1099998951
990.0	0.0003733	50.1410000324
990.0	0.0003743	50.1879999638
990.0	0.000375	50.2349998951
990.0	0.0003755	50.2660000324
990.0	0.0003768	50.3129999638
990.0	0.0003778	50.3599998951
990.0	0.000378	50.3910000324
990.0	0.0003783	50.4379999638
990.0	0.000378	50.4690001011
990.0	0.0003775	50.5160000324
990.0	0.0003775	50.5629999638
990.0	0.0003775	50.5940001011
990.0	0.000377	50.6410000324
990.0	0.0003765	50.6879999638
990.0	0.000377	50.7190001011
990.0	0.0003775	50.7660000324
990.0	0.0003778	50.7969999313
990.0	0.000378	50.8440001011
990.0	0.0003783	50.8910000324
990.0	0.000378	50.9219999313
990.0	0.000378	50.9690001011
990.0	0.000378	51.0160000324
990.0	0.0003783	51.0469999313
990.0	0.0003783	51.0940001011
990.0	0.0003783	51.125
990.0	0.000378	51.1719999313
990.0	0.0003775	51.2190001011
990.0	0.0003775	51.25
990.0	0.0003775	51.2969999313
990.0	0.0003778	51.3440001011
990.0	0.0003778	51.375
990.0	0.000378	51.4219999313
1000.0	0.0003865	51.7030000687
1000.0	0.000389	51.7349998951
1000.0	0.0003905	51.7809998989
1000.0	0.0003925	51.8280000687
1000.0	0.000393	51.8599998951
1000.0	0.0003938	51.9059998989
1000.0	0.0003945	51.9530000687
1000.0	0.0003955	51.9849998951
1000.0	0.0003955	52.0309998989
1000.0	0.0003965	52.0629999638
1000.0	0.0003975	52.1099998951
1000.0	0.0003983	52.1559998989
1000.0	0.0003993	52.1879999638
1000.0	0.0004003	52.2349998951
1000.0	0.0004005	52.2809998989
1000.0	0.0004005	52.3129999638
1000.0	0.0004008	52.3599998951
1000.0	0.0004005	52.4059998989
1000.0	0.0004005	52.4379999638
1000.0	0.0004008	52.4849998951
1000.0	0.0004003	52.5309998989
1000.0	0.0004	52.5629999638
1000.0	0.0003993	52.6099998951
1000.0	0.0003988	52.6410000324
1000.0	0.0003983	52.6879999638
1000.0	0.000399	52.7349998951
1000.0	0.0003993	52.7660000324
1000.0	0.0004003	52.8129999638
1000.0	0.0004005	52.8599998951
1000.0	0.0004005	52.8910000324
1000.0	0.0004	52.9379999638
1000.0	0.0004003	52.9849998951
1000.0	0.0004003	53.0160000324
1000.0	0.0003993	53.0629999638
1000.0	0.0003993	53.0940001011
1000.0	0.0003993	53.1410000324
1000.0	0.0004	53.1879999638
1010.0	0.0004038	53.4690001011
1010.0	0.0004065	53.5
1010.0	0.0004093	53.5469999313
1010.0	0.0004115	53.5780000687
1010.0	0.0004138	53.625
1010.0	0.0004155	53.6719999313
1010.0	0.0004175	53.7030000687
1010.0	0.000419	53.75
1010.0	0.00042	53.7969999313
1010.0	0.0004203	53.8280000687
1010.0	0.0004203	53.875
1010.0	0.0004203	53.9059998989
1010.0	0.00042	53.9530000687
1010.0	0.00042	54.0
1010.0	0.0004203	54.0309998989
1010.0	0.0004208	54.0780000687
1010.0	0.0004205	54.125
1010.0	0.0004208	54.1559998989
1010.0	0.0004215	54.2030000687
1010.0	0.000422	54.2349998951
1010.0	0.000422	54.2809998989
1010.0	0.0004218	54.3280000687
1010.0	0.0004213	54.3599998951
1010.0	0.0004203	54.4059998989
1010.0	0.00042	54.4530000687
1010.0	0.0004195	54.4849998951
1010.0	0.000419	54.5309998989
1010.0	0.0004183	54.5629999638
1010.0	0.0004183	54.6099998951
1010.0	0.000418	54.6559998989
1010.0	0.0004183	54.6879999638
1010.0	0.000419	54.7349998951
1010.0	0.0004193	54.7809998989
1010.0	0.0004193	54.8129999638
1010.0	0.00042	54.8599998951
1010.0	0.00042	54.9059998989
1010.0	0.00042	54.9379999638
1020.0	0.0004278	55.2190001011
1020.0	0.0004313	55.2660000324
1020.0	0.0004338	55.3129999638
1020.0	0.000435	55.3440001011
1020.0	0.0004365	55.3910000324
1020.0	0.000438	55.4379999638
1020.0	0.0004383	55.4690001011
1020.0	0.000438	55.5160000324
1020.0	0.0004383	55.5629999638
1020.0	0.000438	55.5940001011
1020.0	0.0004378	55.6410000324
1020.0	0.0004378	55.6719999313
1020.0	0.0004388	55.7190001011
1020.0	0.0004388	55.7660000324
1020.0	0.000439	55.7969999313
1020.0	0.0004393	55.8440001011
1020.0	0.000439	55.8910000324
1020.0	0.0004395	55.9219999313
1020.0	0.00044	55.9690001011
1020.0	0.0004403	56.0160000324
1020.0	0.00044	56.0469999313
1020.0	0.0004403	56.0940001011
1020.0	0.0004405	56.125
1020.0	0.0004403	56.1719999313
1020.0	0.0004403	56.2190001011
1020.0	0.0004395	56.2660000324
1020.0	0.00044	56.2969999313
1020.0	0.0004405	56.3440001011
1020.0	0.0004413	56.375
1020.0	0.0004415	56.4219999313
1020.0	0.0004425	56.4690001011
1020.0	0.0004425	56.5
1020.0	0.000442	56.5469999313
1020.0	0.000442	56.5940001011
1020.0	0.0004418	56.625
1020.0	0.0004408	56.6719999313
1020.0	0.0004403	56.7190001011
1030.0	0.000447	57.0
1030.0	0.00045	57.0309998989
1030.0	0.0004518	57.0780000687
1030.0	0.000454	57.1099998951
1030.0	0.0004563	57.1559998989
1030.0	0.0004583	57.2030000687
1030.0	0.00046	57.2349998951
1030.0	0.0004613	57.2809998989
1030.0	0.0004615	57.3280000687
1030.0	0.0004615	57.3599998951
1030.0	0.0004615	57.4059998989
1030.0	0.0004613	57.4379999638
1030.0	0.0004605	57.4849998951
1030.0	0.00046	57.5309998989
1030.0	0.00046	57.5780000687
1030.0	0.0004595	57.6099998951
1030.0	0.00046	57.6559998989
1030.0	0.0004605	57.7030000687
1030.0	0.0004608	57.7349998951
1030.0	0.0004615	57.7809998989
1030.0	0.0004618	57.8129999638
1030.0	0.0004613	57.8599998951
1030.0	0.0004613	57.9059998989
1030.0	0.0004618	57.9379999638
1030.0	0.000462	57.9849998951
1030.0	0.000463	58.0309998989
1030.0	0.0004638	58.0629999638
1030.0	0.000464	58.1099998951
1030.0	0.0004645	58.1559998989
1030.0	0.0004655	58.1879999638
1030.0	0.0004653	58.2349998951
1030.0	0.0004643	58.2809998989
1030.0	0.000464	58.3129999638
1030.0	0.000463	58.3599998951
1030.0	0.0004625	58.3910000324
1030.0	0.0004628	58.4379999638
1030.0	0.000462	58.4849998951
1040.0	0.0004705	58.7660000324
1040.0	0.000472	58.8129999638
1040.0	0.0004738	58.8440001011
1040.0	0.0004755	58.8910000324
1040.0	0.0004775	58.9219999313
1040.0	0.0004783	58.9690001011
1040.0	0.0004793	59.0160000324
1040.0	0.0004805	59.0469999313
1040.0	0.0004818	59.0940001011
1040.0	0.000483	59.1410000324
1040.0	0.0004828	59.1719999313
1040.0	0.0004825	59.2190001011
1040.0	0.0004825	59.25
1040.0	0.000482	59.2969999313
1040.0	0.0004813	59.3440001011
1040.0	0.0004813	59.375
1040.0	0.0004815	59.4219999313
1040.0	0.0004815	59.4690001011
1040.0	0.000482	59.5
1040.0	0.0004825	59.5469999313
1040.0	0.000483	59.5940001011
1040.0	0.0004838	59.6410000324
1040.0	0.0004845	59.6719999313
1040.0	0.0004845	59.7190001011
1040.0	0.0004853	59.7660000324
1040.0	0.0004855	59.7969999313
1040.0	0.0004853	59.8440001011
1040.0	0.0004853	59.875
1040.0	0.0004858	59.9219999313
1040.0	0.0004855	59.9690001011
1040.0	0.000485	60.0
1040.0	0.000485	60.0469999313
1040.0	0.0004845	60.0940001011
1040.0	0.000485	60.125
1040.0	0.0004855	60.1719999313
1040.0	0.0004863	60.2030000687
1040.0	0.0004865	60.25
1050.0	0.0004928	60.5309998989
1050.0	0.0004955	60.5780000687
1050.0	0.0004978	60.6099998951
1050.0	0.0004993	60.6559998989
1050.0	0.0005013	60.6879999638
1050.0	0.000503	60.7349998951
1050.0	0.000504	60.7809998989
1050.0	0.000505	60.8129999638
1050.0	0.0005055	60.8599998951
1050.0	0.0005058	60.9059998989
1050.0	0.0005055	60.9379999638
1050.0	0.0005055	60.9849998951
1050.0	0.0005053	61.0160000324
1050.0	0.0005043	61.0629999638
1050.0	0.0005045	61.1099998951
1050.0	0.000505	61.1410000324
1050.0	0.0005045	61.1879999638
1050.0	0.000505	61.2349998951
1050.0	0.0005053	61.2660000324
1050.0	0.0005055	61.3129999638
1050.0	0.0005055	61.3599998951
1050.0	0.0005055	61.3910000324
1050.0	0.0005053	61.4379999638
1050.0	0.000505	61.4849998951
1050.0	0.0005045	61.5160000324
1050.0	0.0005043	61.5629999638
1050.0	0.0005043	61.6099998951
1050.0	0.0005043	61.6410000324
1050.0	0.000504	61.6879999638
1050.0	0.0005038	61.7190001011
1050.0	0.000504	61.7660000324
1050.0	0.0005043	61.8129999638
1050.0	0.000504	61.8440001011
1050.0	0.0005038	61.8910000324
1050.0	0.0005033	61.9379999638
1050.0	0.0005028	61.9690001011
1050.0	0.0005028	62.0160000324
1060.0	0.000512	62.2969999313
1060.0	0.0005145	62.3280000687
1060.0	0.0005165	62.375
1060.0	0.000518	62.4219999313
1060.0	0.0005193	62.4530000687
1060.0	0.0005203	62.5
1060.0	0.0005205	62.5309998989
1060.0	0.0005213	62.5780000687
1060.0	0.0005225	62.625
1060.0	0.0005225	62.6559998989
1060.0	0.0005228	62.7030000687
1060.0	0.0005238	62.75
1060.0	0.000523	62.7809998989
1060.0	0.0005233	62.8280000687
1060.0	0.0005238	62.8599998951
1060.0	0.0005238	62.9059998989
1060.0	0.0005243	62.9530000687
1060.0	0.000525	62.9849998951
1060.0	0.0005253	63.0309998989
1060.0	0.0005255	63.0780000687
1060.0	0.0005265	63.1099998951
1060.0	0.000527	63.1559998989
1060.0	0.0005275	63.2030000687
1060.0	0.0005278	63.2349998951
1060.0	0.000528	63.2809998989
1060.0	0.0005275	63.3129999638
1060.0	0.0005268	63.3599998951
1060.0	0.000527	63.4059998989
1060.0	0.0005268	63.4379999638
1060.0	0.0005263	63.4849998951
1060.0	0.0005263	63.5309998989
1060.0	0.0005265	63.5629999638
1060.0	0.0005268	63.6099998951
1060.0	0.0005278	63.6410000324
1060.0	0.0005278	63.6879999638
1060.0	0.000527	63.7349998951
1060.0	0.0005275	63.7660000324
1070.0	0.0005338	64.0469999313
1070.0	0.0005358	64.0940001011
1070.0	0.0005368	64.125
1070.0	0.0005378	64.1719999313
1070.0	0.0005388	64.2190001011
1070.0	0.0005393	64.25
1070.0	0.00054	64.2969999313
1070.0	0.0005408	64.3440001011
1070.0	0.0005415	64.375
1070.0	0.0005418	64.4219999313
1070.0	0.0005418	64.4530000687
1070.0	0.0005425	64.5
1070.0	0.0005428	64.5469999313
1070.0	0.0005428	64.5780000687
1070.0	0.0005433	64.625
1070.0	0.000543	64.6719999313
1070.0	0.0005433	64.7190001011
1070.0	0.0005438	64.75
1070.0	0.0005433	64.7969999313
1070.0	0.000543	64.8280000687
1070.0	0.000543	64.875
1070.0	0.0005433	64.9219999313
1070.0	0.0005443	64.9690001011
1070.0	0.0005443	65.0
1070.0	0.0005443	65.0469999313
1070.0	0.0005438	65.0780000687
1070.0	0.0005438	65.125
1070.0	0.0005438	65.1719999313
1070.0	0.0005433	65.2030000687
1070.0	0.000544	65.25
1070.0	0.000544	65.2969999313
1070.0	0.0005438	65.3280000687
1070.0	0.0005443	65.375
1070.0	0.0005443	65.4219999313
1070.0	0.0005438	65.4530000687
1070.0	0.0005438	65.5
1080.0	0.0005488	65.7809998989
1080.0	0.0005508	65.8129999638
1080.0	0.000552	65.8599998951
1080.0	0.0005543	65.9059998989
1080.0	0.0005563	65.9379999638
1080.0	0.0005568	65.9849998951
1080.0	0.0005568	66.0309998989
1080.0	0.0005575	66.0629999638
1080.0	0.0005578	66.1099998951
1080.0	0.000558	66.1559998989
1080.0	0.0005588	66.1879999638
1080.0	0.0005595	66.2349998951
1080.0	0.0005608	66.2660000324
1080.0	0.0005615	66.3129999638
1080.0	0.0005613	66.3599998951
1080.0	0.0005608	66.3910000324
1080.0	0.0005605	66.4379999638
1080.0	0.0005605	66.4849998951
1080.0	0.0005603	66.5160000324
1080.0	0.0005605	66.5629999638
1080.0	0.0005613	66.5940001011
1080.0	0.0005608	66.6410000324
1080.0	0.0005605	66.6879999638
1080.0	0.0005605	66.7190001011
1080.0	0.0005605	66.7660000324
1080.0	0.0005603	66.8129999638
1080.0	0.0005595	66.8440001011
1080.0	0.0005588	66.8910000324
1080.0	0.0005588	66.9219999313
1080.0	0.000559	66.9690001011
1080.0	0.0005588	67.0160000324
1080.0	0.0005583	67.0469999313
1080.0	0.000558	67.0940001011
1080.0	0.0005583	67.1410000324
1080.0	0.0005578	67.1719999313
1080.0	0.0005575	67.2190001011
1080.0	0.0005575	67.2660000324
1090.0	0.0005638	67.5309998989
1090.0	0.0005658	67.5780000687
1090.0	0.0005675	67.6099998951
1090.0	0.0005683	67.6559998989
1090.0	0.0005693	67.7030000687
1090.0	0.0005705	67.7349998951
1090.0	0.0005715	67.7809998989
1090.0	0.0005725	67.8280000687
1090.0	0.000573	67.8599998951
1090.0	0.000574	67.9059998989
1090.0	0.000574	67.9530000687
1090.0	0.0005738	67.9849998951
1090.0	0.000573	68.0309998989
1090.0	0.0005725	68.0780000687
1090.0	0.0005728	68.1099998951
1090.0	0.0005728	68.1559998989
1090.0	0.000573	68.1879999638
1090.0	0.0005733	68.2349998951
1090.0	0.0005738	68.2809998989
1090.0	0.0005733	68.3129999638
1090.0	0.0005733	68.3599998951
1090.0	0.000573	68.4059998989
1090.0	0.000573	68.4379999638
1090.0	0.0005733	68.4849998951
1090.0	0.000573	68.5160000324
1090.0	0.0005728	68.5629999638
1090.0	0.000573	68.6099998951
1090.0	0.0005733	68.6410000324
1090.0	0.0005733	68.6879999638
1090.0	0.000573	68.7349998951
1090.0	0.000573	68.7660000324
1090.0	0.0005728	68.8129999638
1090.0	0.000573	68.8440001011
1090.0	0.0005738	68.8910000324
1090.0	0.0005738	68.9379999638
1090.0	0.0005733	68.9690001011
1090.0	0.0005733	69.0160000324
1100.0	0.000577	69.2809998989
1100.0	0.0005788	69.3280000687
1100.0	0.00058	69.375
1100.0	0.0005803	69.4059998989
1100.0	0.0005805	69.4530000687
1100.0	0.0005808	69.4849998951
1100.0	0.0005808	69.5309998989
1100.0	0.0005813	69.5780000687
1100.0	0.0005813	69.6099998951
1100.0	0.0005813	69.6559998989
1100.0	0.0005815	69.7030000687
1100.0	0.000582	69.75
1100.0	0.0005818	69.7809998989
1100.0	0.0005813	69.8280000687
1100.0	0.0005808	69.8599998951
1100.0	0.0005813	69.9059998989
1100.0	0.0005813	69.9530000687
1100.0	0.0005813	69.9849998951
1100.0	0.0005813	70.0309998989
1100.0	0.0005813	70.0780000687
1100.0	0.0005808	70.1099998951
1100.0	0.0005803	70.1559998989
1100.0	0.00058	70.2030000687
1100.0	0.000579	70.2349998951
1100.0	0.0005788	70.2809998989
1100.0	0.000579	70.3280000687
1100.0	0.0005795	70.3599998951
1100.0	0.00058	70.4059998989
1100.0	0.00058	70.4379999638
1100.0	0.0005795	70.4849998951
1100.0	0.0005803	70.5309998989
1100.0	0.0005808	70.5629999638
1100.0	0.0005815	70.6099998951
1100.0	0.000582	70.6559998989
1100.0	0.0005818	70.7030000687
1100.0	0.0005815	70.7349998951
1100.0	0.0005815	70.7809998989
1110.0	0.0005845	71.0469999313
1110.0	0.0005855	71.0940001011
1110.0	0.0005863	71.125
1110.0	0.0005868	71.1719999313
1110.0	0.000588	71.2190001011
1110.0	0.000588	71.25
1110.0	0.0005878	71.2969999313
1110.0	0.000588	71.3440001011
1110.0	0.0005875	71.375
1110.0	0.000587	71.4219999313
1110.0	0.000587	71.4530000687
1110.0	0.0005875	71.5
1110.0	0.0005883	71.5469999313
1110.0	0.0005888	71.5780000687
1110.0	0.0005883	71.625
1110.0	0.0005875	71.6719999313
1110.0	0.0005865	71.7030000687
1110.0	0.0005863	71.75
1110.0	0.0005863	71.7969999313
1110.0	0.0005855	71.8280000687
1110.0	0.0005855	71.875
1110.0	0.0005855	71.9219999313
1110.0	0.0005865	71.9530000687
1110.0	0.0005875	72.0
1110.0	0.0005878	72.0309998989
1110.0	0.0005883	72.0780000687
1110.0	0.0005888	72.125
1110.0	0.0005883	72.1559998989
1110.0	0.0005878	72.2030000687
1110.0	0.0005878	72.25
1110.0	0.0005878	72.2809998989
1110.0	0.0005875	72.3280000687
1110.0	0.000587	72.3599998951
1110.0	0.0005868	72.4059998989
1110.0	0.0005865	72.4530000687
1110.0	0.0005868	72.4849998951
1110.0	0.000587	72.5309998989
1120.0	0.0005888	72.7969999313
1120.0	0.0005893	72.8440001011
1120.0	0.00059	72.875
1120.0	0.00059	72.9219999313
1120.0	0.0005893	72.9690001011
1120.0	0.0005893	73.0
1120.0	0.0005895	73.0469999313
1120.0	0.00059	73.0940001011
1120.0	0.0005905	73.125
1120.0	0.0005908	73.1719999313
1120.0	0.0005908	73.2030000687
1120.0	0.0005905	73.25
1120.0	0.0005905	73.2969999313
1120.0	0.0005905	73.3280000687
1120.0	0.0005913	73.375
1120.0	0.0005908	73.4219999313
1120.0	0.00059	73.4530000687
1120.0	0.00059	73.5
1120.0	0.0005903	73.5469999313
1120.0	0.00059	73.5780000687
1120.0	0.0005893	73.625
1120.0	0.00059	73.6719999313
1120.0	0.0005895	73.7030000687
1120.0	0.0005895	73.75
1120.0	0.00059	73.7809998989
1120.0	0.0005903	73.8280000687
1120.0	0.0005908	73.875
1120.0	0.0005915	73.9219999313
1120.0	0.0005918	73.9530000687
1120.0	0.0005918	74.0
1120.0	0.0005915	74.0309998989
1120.0	0.0005908	74.0780000687
1120.0	0.0005905	74.125
1120.0	0.0005903	74.1559998989
1120.0	0.00059	74.2030000687
1120.0	0.0005895	74.25
1130.0	0.0005913	74.5160000324
1130.0	0.0005913	74.5469999313
1130.0	0.0005913	74.5940001011
1130.0	0.0005913	74.6410000324
1130.0	0.0005915	74.6719999313
1130.0	0.0005918	74.7190001011
1130.0	0.0005933	74.7660000324
1130.0	0.0005928	74.7969999313
1130.0	0.0005918	74.8440001011
1130.0	0.0005913	74.8910000324
1130.0	0.0005908	74.9219999313
1130.0	0.0005908	74.9690001011
1130.0	0.0005908	75.0160000324
1130.0	0.0005905	75.0469999313
1130.0	0.0005905	75.0940001011
1130.0	0.0005915	75.125
1130.0	0.0005915	75.1719999313
1130.0	0.0005913	75.2190001011
1130.0	0.0005913	75.25
1130.0	0.0005908	75.2969999313
1130.0	0.00059	75.3440001011
1130.0	0.00059	75.375
1130.0	0.00059	75.4219999313
1130.0	0.0005895	75.4530000687
1130.0	0.0005895	75.5
1130.0	0.0005895	75.5469999313
1130.0	0.00059	75.5780000687
1130.0	0.0005903	75.625
1130.0	0.0005905	75.6719999313
1130.0	0.0005903	75.7030000687
1130.0	0.0005895	75.75
1130.0	0.0005895	75.7809998989
1130.0	0.0005893	75.8280000687
1130.0	0.00059	75.875
1130.0	0.00059	75.9059998989
1130.0	0.0005905	75.9530000687
1130.0	0.0005905	76.0
1140.0	0.0005905	76.2660000324
1140.0	0.0005908	76.2969999313
1140.0	0.0005903	76.3440001011
1140.0	0.00059	76.3910000324
1140.0	0.0005905	76.4219999313
1140.0	0.00059	76.4690001011
1140.0	0.0005895	76.5
1140.0	0.00059	76.5469999313
1140.0	0.0005895	76.5940001011
1140.0	0.0005895	76.625
1140.0	0.0005893	76.6719999313
1140.0	0.0005893	76.7190001011
1140.0	0.0005893	76.75
1140.0	0.0005893	76.7969999313
1140.0	0.0005893	76.8440001011
1140.0	0.0005895	76.875
1140.0	0.00059	76.9219999313
1140.0	0.00059	76.9530000687
1140.0	0.0005893	77.0
1140.0	0.0005895	77.0469999313
1140.0	0.0005905	77.0780000687
1140.0	0.0005905	77.125
1140.0	0.0005905	77.1719999313
1140.0	0.0005905	77.2030000687
1140.0	0.00059	77.25
1140.0	0.0005895	77.2969999313
1140.0	0.000589	77.3280000687
1140.0	0.000588	77.375
1140.0	0.0005875	77.4219999313
1140.0	0.000587	77.4530000687
1140.0	0.000587	77.5
1140.0	0.000587	77.5309998989
1140.0	0.0005875	77.5780000687
1140.0	0.000587	77.625
1140.0	0.0005868	77.6559998989
1140.0	0.0005875	77.7030000687
1140.0	0.000588	77.75
1150.0	0.0005878	78.0160000324
1150.0	0.0005878	78.0469999313
1150.0	0.0005878	78.0940001011
1150.0	0.0005875	78.1410000324
1150.0	0.0005875	78.1719999313
1150.0	0.0005875	78.2190001011
1150.0	0.0005875	78.2660000324
1150.0	0.0005875	78.2969999313
1150.0	0.0005878	78.3440001011
1150.0	0.000588	78.3910000324
1150.0	0.0005878	78.4219999313
1150.0	0.0005875	78.4690001011
1150.0	0.0005858	78.5
1150.0	0.000585	78.5469999313
1150.0	0.0005855	78.5940001011
1150.0	0.0005855	78.625
1150.0	0.0005858	78.6719999313
1150.0	0.0005863	78.7190001011
1150.0	0.0005863	78.75
1150.0	0.0005868	78.7969999313
1150.0	0.000587	78.8440001011
1150.0	0.000587	78.875
1150.0	0.0005868	78.9219999313
1150.0	0.000587	78.9530000687
1150.0	0.000587	79.0
1150.0	0.0005868	79.0469999313
1150.0	0.000587	79.0940001011
1150.0	0.0005875	79.125
1150.0	0.0005875	79.1719999313
1150.0	0.0005878	79.2030000687
1150.0	0.000588	79.25
1150.0	0.000588	79.2969999313
1150.0	0.0005888	79.3280000687
1150.0	0.0005883	79.375
1150.0	0.0005875	79.4219999313
1150.0	0.000587	79.4530000687
1150.0	0.0005868	79.5
1160.0	0.0005858	79.7660000324
1160.0	0.0005865	79.8129999638
1160.0	0.0005868	79.8440001011
1160.0	0.0005863	79.8910000324
1160.0	0.0005855	79.9379999638
1160.0	0.0005845	79.9690001011
1160.0	0.0005845	80.0160000324
1160.0	0.0005845	80.0629999638
1160.0	0.000585	80.0940001011
1160.0	0.0005845	80.1410000324
1160.0	0.0005845	80.1719999313
1160.0	0.0005843	80.2190001011
1160.0	0.0005838	80.2660000324
1160.0	0.000584	80.2969999313
1160.0	0.0005843	80.3440001011
1160.0	0.000584	80.3910000324
1160.0	0.0005843	80.4379999638
1160.0	0.000584	80.4690001011
1160.0	0.000584	80.5160000324
1160.0	0.0005838	80.5469999313
1160.0	0.0005833	80.5940001011
1160.0	0.0005833	80.6410000324
1160.0	0.0005838	80.6719999313
1160.0	0.0005838	80.7190001011
1160.0	0.0005833	80.7660000324
1160.0	0.0005833	80.7969999313
1160.0	0.000584	80.8440001011
1160.0	0.0005838	80.875
1160.0	0.0005833	80.9219999313
1160.0	0.0005833	80.9690001011
1160.0	0.0005828	81.0
1160.0	0.000582	81.0469999313
1160.0	0.0005813	81.0940001011
1160.0	0.0005808	81.125
1160.0	0.0005813	81.1719999313
1160.0	0.0005813	81.2030000687
1160.0	0.0005818	81.25
1170.0	0.0005833	81.5160000324
1170.0	0.0005845	81.5629999638
1170.0	0.0005853	81.6099998951
1170.0	0.0005855	81.6410000324
1170.0	0.0005855	81.6879999638
1170.0	0.0005855	81.7349998951
1170.0	0.0005843	81.7660000324
1170.0	0.0005838	81.8129999638
1170.0	0.0005833	81.8440001011
1170.0	0.0005833	81.8910000324
1170.0	0.000584	81.9379999638
1170.0	0.000585	81.9849998951
1170.0	0.0005855	82.0160000324
1170.0	0.0005855	82.0629999638
1170.0	0.0005863	82.0940001011
1170.0	0.0005855	82.1410000324
1170.0	0.000585	82.1879999638
1170.0	0.0005845	82.2349998951
1170.0	0.000584	82.2660000324
1170.0	0.0005843	82.3129999638
1170.0	0.000584	82.3599998951
1170.0	0.0005838	82.3910000324
1170.0	0.0005833	82.4379999638
1170.0	0.0005833	82.4690001011
1170.0	0.000583	82.5160000324
1170.0	0.000583	82.5629999638
1170.0	0.0005838	82.5940001011
1170.0	0.0005833	82.6410000324
1170.0	0.0005838	82.6879999638
1170.0	0.0005843	82.7190001011
1170.0	0.0005843	82.7660000324
1170.0	0.0005838	82.8129999638
1170.0	0.0005833	82.8440001011
1170.0	0.000583	82.8910000324
1170.0	0.0005825	82.9379999638
1170.0	0.0005825	82.9690001011
1170.0	0.0005825	83.0160000324
1180.0	0.0005833	83.2809998989
1180.0	0.0005838	83.3280000687
1180.0	0.0005833	83.3599998951
1180.0	0.0005838	83.4059998989
1180.0	0.0005845	83.4530000687
1180.0	0.0005855	83.4849998951
1180.0	0.0005858	83.5309998989
1180.0	0.0005863	83.5780000687
1180.0	0.0005865	83.6099998951
1180.0	0.0005865	83.6559998989
1180.0	0.000587	83.6879999638
1180.0	0.000587	83.7349998951
1180.0	0.0005875	83.7809998989
1180.0	0.000587	83.8280000687
1180.0	0.0005868	83.8599998951
1180.0	0.0005855	83.9059998989
1180.0	0.0005855	83.9379999638
1180.0	0.0005858	83.9849998951
1180.0	0.0005855	84.0309998989
1180.0	0.0005858	84.0629999638
1180.0	0.0005863	84.1099998951
1180.0	0.0005863	84.1559998989
1180.0	0.0005863	84.1879999638
1180.0	0.0005863	84.2349998951
1180.0	0.0005865	84.2809998989
1180.0	0.0005863	84.3129999638
1180.0	0.0005858	84.3599998951
1180.0	0.0005855	84.3910000324
1180.0	0.0005855	84.4379999638
1180.0	0.0005858	84.4849998951
1180.0	0.0005865	84.5160000324
1180.0	0.0005868	84.5629999638
1180.0	0.0005868	84.6099998951
1180.0	0.0005865	84.6410000324
1180.0	0.0005858	84.6879999638
1180.0	0.0005853	84.7190001011
1180.0	0.000585	84.7660000324
1190.0	0.000588	85.0309998989
1190.0	0.0005893	85.0780000687
1190.0	0.00059	85.125
1190.0	0.0005895	85.1559998989
1190.0	0.0005895	85.2030000687
1190.0	0.0005895	85.25
1190.0	0.0005908	85.2809998989
1190.0	0.0005918	85.3280000687
1190.0	0.0005928	85.3599998951
1190.0	0.0005933	85.4059998989
1190.0	0.0005933	85.4530000687
1190.0	0.0005938	85.4849998951
1190.0	0.0005938	85.5309998989
1190.0	0.000593	85.5780000687
1190.0	0.000593	85.6099998951
1190.0	0.0005925	85.6559998989
1190.0	0.000592	85.6879999638
1190.0	0.0005915	85.7349998951
1190.0	0.0005913	85.7809998989
1190.0	0.0005903	85.8129999638
1190.0	0.0005903	85.8599998951
1190.0	0.0005905	85.9059998989
1190.0	0.0005905	85.9379999638
1190.0	0.0005918	85.9849998951
1190.0	0.0005928	86.0309998989
1190.0	0.0005925	86.0629999638
1190.0	0.0005925	86.1099998951
1190.0	0.0005928	86.1410000324
1190.0	0.0005925	86.1879999638
1190.0	0.0005915	86.2349998951
1190.0	0.0005913	86.2660000324
1190.0	0.0005908	86.3129999638
1190.0	0.0005905	86.3599998951
1190.0	0.00059	86.3910000324
1190.0	0.00059	86.4379999638
1190.0	0.00059	86.4690001011
1190.0	0.00059	86.5160000324
1200.0	0.0005925	86.7809998989
1200.0	0.0005928	86.8280000687
1200.0	0.0005933	86.875
1200.0	0.0005933	86.9059998989
1200.0	0.0005933	86.9530000687
1200.0	0.0005943	87.0
1200.0	0.0005945	87.0309998989
1200.0	0.0005953	87.0780000687
1200.0	0.0005958	87.1099998951
1200.0	0.0005965	87.1559998989
1200.0	0.0005968	87.2030000687
1200.0	0.000597	87.2349998951
1200.0	0.0005975	87.2809998989
1200.0	0.0005975	87.3280000687
1200.0	0.000598	87.3599998951
1200.0	0.0005983	87.4059998989
1200.0	0.000598	87.4530000687
1200.0	0.000598	87.4849998951
1200.0	0.0005975	87.5309998989
1200.0	0.0005968	87.5780000687
1200.0	0.0005963	87.6099998951
1200.0	0.0005958	87.6559998989
1200.0	0.0005963	87.6879999638
1200.0	0.0005965	87.7349998951
1200.0	0.0005968	87.7809998989
1200.0	0.0005968	87.8129999638
1200.0	0.0005968	87.8599998951
1200.0	0.0005965	87.9059998989
1200.0	0.0005963	87.9379999638
1200.0	0.0005958	87.9849998951
1200.0	0.0005963	88.0309998989
1200.0	0.0005963	88.0629999638
1200.0	0.0005963	88.1099998951
1200.0	0.0005963	88.1559998989
1200.0	0.0005963	88.1879999638
1200.0	0.0005965	88.2349998951
1200.0	0.000597	88.2809998989
1210.0	0.0006003	88.5469999313
1210.0	0.0006018	88.5780000687
1210.0	0.0006033	88.625
1210.0	0.0006043	88.6559998989
1210.0	0.0006055	88.7030000687
1210.0	0.0006065	88.75
1210.0	0.0006068	88.7809998989
1210.0	0.0006065	88.8280000687
1210.0	0.0006065	88.875
1210.0	0.0006065	88.9059998989
1210.0	0.0006063	88.9530000687
1210.0	0.000605	89.0
1210.0	0.000605	89.0309998989
1210.0	0.000605	89.0780000687
1210.0	0.0006053	89.1099998951
1210.0	0.0006055	89.1559998989
1210.0	0.0006063	89.2030000687
1210.0	0.0006065	89.2349998951
1210.0	0.0006075	89.2809998989
1210.0	0.0006083	89.3280000687
1210.0	0.0006078	89.3599998951
1210.0	0.0006078	89.4059998989
1210.0	0.000608	89.4379999638
1210.0	0.000607	89.4849998951
1210.0	0.0006065	89.5309998989
1210.0	0.0006063	89.5629999638
1210.0	0.0006055	89.6099998951
1210.0	0.0006055	89.6559998989
1210.0	0.000605	89.6879999638
1210.0	0.000604	89.7349998951
1210.0	0.0006033	89.7660000324
1210.0	0.0006038	89.8129999638
1210.0	0.000604	89.8599998951
1210.0	0.000604	89.8910000324
1210.0	0.0006053	89.9379999638
1210.0	0.0006055	89.9849998951
1210.0	0.0006055	90.0160000324
1220.0	0.0006093	90.2809998989
1220.0	0.0006105	90.3280000687
1220.0	0.0006118	90.375
1220.0	0.0006133	90.4059998989
1220.0	0.000614	90.4530000687
1220.0	0.0006145	90.4849998951
1220.0	0.000615	90.5309998989
1220.0	0.0006153	90.5780000687
1220.0	0.0006155	90.6099998951
1220.0	0.0006155	90.6559998989
1220.0	0.0006155	90.7030000687
1220.0	0.0006153	90.7349998951
1220.0	0.0006155	90.7809998989
1220.0	0.0006158	90.8280000687
1220.0	0.0006158	90.8599998951
1220.0	0.0006163	90.9059998989
1220.0	0.0006165	90.9379999638
1220.0	0.0006165	90.9849998951
1220.0	0.0006163	91.0309998989
1220.0	0.000617	91.0629999638
1220.0	0.000618	91.1099998951
1220.0	0.000618	91.1559998989
1220.0	0.000618	91.1879999638
1220.0	0.0006178	91.2349998951
1220.0	0.000617	91.2660000324
1220.0	0.0006168	91.3129999638
1220.0	0.000617	91.3599998951
1220.0	0.0006175	91.3910000324
1220.0	0.0006175	91.4379999638
1220.0	0.0006178	91.4849998951
1220.0	0.0006178	91.5309998989
1220.0	0.000618	91.5629999638
1220.0	0.000618	91.6099998951
1220.0	0.0006178	91.6559998989
1220.0	0.000618	91.6879999638
1220.0	0.0006178	91.7349998951
1220.0	0.000617	91.7809998989
1230.0	0.0006213	92.0469999313
1230.0	0.0006225	92.0780000687
1230.0	0.0006233	92.125
1230.0	0.000625	92.1559998989
1230.0	0.0006258	92.2030000687
1230.0	0.0006258	92.25
1230.0	0.0006263	92.2809998989
1230.0	0.000627	92.3280000687
1230.0	0.000627	92.375
1230.0	0.000627	92.4059998989
1230.0	0.0006275	92.4530000687
1230.0	0.000627	92.5
1230.0	0.0006265	92.5309998989
1230.0	0.0006263	92.5780000687
1230.0	0.0006265	92.6099998951
1230.0	0.0006268	92.6559998989
1230.0	0.000627	92.7030000687
1230.0	0.0006275	92.7349998951
1230.0	0.0006275	92.7809998989
1230.0	0.0006278	92.8280000687
1230.0	0.000627	92.8599998951
1230.0	0.0006265	92.9059998989
1230.0	0.0006263	92.9379999638
1230.0	0.0006268	92.9849998951
1230.0	0.000627	93.0309998989
1230.0	0.000627	93.0629999638
1230.0	0.000628	93.1099998951
1230.0	0.000628	93.1559998989
1230.0	0.0006278	93.1879999638
1230.0	0.0006278	93.2349998951
1230.0	0.000628	93.2660000324
1230.0	0.0006283	93.3129999638
1230.0	0.0006288	93.3599998951
1230.0	0.0006293	93.3910000324
1230.0	0.000629	93.4379999638
1230.0	0.000628	93.4849998951
1230.0	0.000628	93.5160000324
1240.0	0.0006313	93.7809998989
1240.0	0.0006333	93.8280000687
1240.0	0.0006353	93.875
1240.0	0.0006368	93.9059998989
1240.0	0.000638	93.9530000687
1240.0	0.0006388	93.9849998951
1240.0	0.0006393	94.0309998989
1240.0	0.0006395	94.0780000687
1240.0	0.00064	94.1099998951
1240.0	0.0006398	94.1559998989
1240.0	0.0006395	94.2030000687
1240.0	0.0006393	94.2349998951
1240.0	0.0006398	94.2809998989
1240.0	0.0006395	94.3129999638
1240.0	0.0006398	94.3599998951
1240.0	0.0006395	94.4059998989
1240.0	0.0006395	94.4379999638
1240.0	0.0006398	94.4849998951
1240.0	0.0006393	94.5309998989
1240.0	0.0006383	94.5629999638
1240.0	0.0006388	94.6099998951
1240.0	0.0006393	94.6559998989
1240.0	0.0006393	94.6879999638
1240.0	0.000639	94.7349998951
1240.0	0.0006393	94.7660000324
1240.0	0.0006393	94.8129999638
1240.0	0.000639	94.8599998951
1240.0	0.0006393	94.8910000324
1240.0	0.0006395	94.9379999638
1240.0	0.0006395	94.9849998951
1240.0	0.0006395	95.0160000324
1240.0	0.0006398	95.0629999638
1240.0	0.0006403	95.0940001011
1240.0	0.0006405	95.1410000324
1240.0	0.0006403	95.1879999638
1240.0	0.00064	95.2190001011
1240.0	0.0006398	95.2660000324
1250.0	0.0006418	95.5309998989
1250.0	0.0006425	95.5780000687
1250.0	0.0006435	95.6099998951
1250.0	0.000644	95.6559998989
1250.0	0.0006443	95.7030000687
1250.0	0.0006448	95.7349998951
1250.0	0.0006453	95.7809998989
1250.0	0.0006455	95.8280000687
1250.0	0.0006465	95.8599998951
1250.0	0.0006465	95.9059998989
1250.0	0.0006463	95.9530000687
1250.0	0.0006465	95.9849998951
1250.0	0.0006475	96.0309998989
1250.0	0.000648	96.0629999638
1250.0	0.000648	96.1099998951
1250.0	0.0006485	96.1559998989
1250.0	0.0006485	96.1879999638
1250.0	0.0006485	96.2349998951
1250.0	0.000649	96.2809998989
1250.0	0.0006498	96.3129999638
1250.0	0.0006498	96.3599998951
1250.0	0.0006493	96.4059998989
1250.0	0.0006498	96.4379999638
1250.0	0.0006503	96.4849998951
1250.0	0.0006505	96.5160000324
1250.0	0.0006505	96.5629999638
1250.0	0.0006503	96.6099998951
1250.0	0.0006493	96.6410000324
1250.0	0.0006493	96.6879999638
1250.0	0.0006498	96.7349998951
1250.0	0.0006498	96.7660000324
1250.0	0.0006503	96.8129999638
1250.0	0.0006505	96.8440001011
1250.0	0.0006503	96.8910000324
1250.0	0.000651	96.9379999638
1250.0	0.0006515	96.9690001011
1250.0	0.0006515	97.0160000324
1260.0	0.000653	97.2809998989
1260.0	0.0006543	97.3280000687
1260.0	0.0006555	97.3599998951
1260.0	0.0006565	97.4059998989
1260.0	0.0006575	97.4530000687
1260.0	0.000658	97.4849998951
1260.0	0.0006585	97.5309998989
1260.0	0.0006593	97.5629999638
1260.0	0.0006598	97.6099998951
1260.0	0.0006603	97.6559998989
1260.0	0.0006603	97.6879999638
1260.0	0.0006598	97.7349998951
1260.0	0.000659	97.7809998989
1260.0	0.000659	97.8129999638
1260.0	0.000659	97.8599998951
1260.0	0.0006593	97.8910000324
1260.0	0.0006593	97.9379999638
1260.0	0.0006593	97.9849998951
1260.0	0.000659	98.0160000324
1260.0	0.0006593	98.0629999638
1260.0	0.0006598	98.1099998951
1260.0	0.0006598	98.1410000324
1260.0	0.00066	98.1879999638
1260.0	0.0006598	98.2190001011
1260.0	0.000659	98.2660000324
1260.0	0.000658	98.3129999638
1260.0	0.0006585	98.3440001011
1260.0	0.0006578	98.3910000324
1260.0	0.0006573	98.4379999638
1260.0	0.0006573	98.4849998951
1260.0	0.000658	98.5160000324
1260.0	0.0006588	98.5629999638
1260.0	0.0006588	98.5940001011
1260.0	0.0006588	98.6410000324
1260.0	0.0006588	98.6879999638
1260.0	0.0006593	98.7190001011
1260.0	0.0006603	98.7660000324
1270.0	0.0006635	99.0309998989
1270.0	0.0006643	99.0780000687
1270.0	0.0006643	99.125
1270.0	0.0006648	99.1559998989
1270.0	0.0006653	99.2030000687
1270.0	0.0006653	99.2349998951
1270.0	0.000665	99.2809998989
1270.0	0.0006653	99.3280000687
1270.0	0.0006653	99.375
1270.0	0.0006655	99.4059998989
1270.0	0.000666	99.4530000687
1270.0	0.0006655	99.4849998951
1270.0	0.0006653	99.5309998989
1270.0	0.0006655	99.5780000687
1270.0	0.0006653	99.625
1270.0	0.000665	99.6559998989
1270.0	0.000665	99.7030000687
1270.0	0.000665	99.7349998951
1270.0	0.0006643	99.7809998989
1270.0	0.0006648	99.8280000687
1270.0	0.0006648	99.8599998951
1270.0	0.000665	99.9059998989
1270.0	0.0006653	99.9530000687
1270.0	0.000665	99.9849998951
1270.0	0.0006643	100.030999899
1270.0	0.0006648	100.062999964
1270.0	0.0006655	100.109999895
1270.0	0.000666	100.155999899
1270.0	0.0006673	100.187999964
1270.0	0.0006673	100.234999895
1270.0	0.0006665	100.280999899
1270.0	0.0006663	100.312999964
1270.0	0.0006665	100.359999895
1270.0	0.0006665	100.405999899
1270.0	0.0006668	100.437999964
1270.0	0.0006673	100.484999895
1280.0	0.0006675	100.75
1280.0	0.000668	100.780999899
1280.0	0.000669	100.828000069
1280.0	0.0006685	100.875
1280.0	0.0006685	100.905999899
1280.0	0.000669	100.953000069
1280.0	0.0006688	101.0
1280.0	0.0006685	101.030999899
1280.0	0.0006685	101.078000069
1280.0	0.0006685	101.109999895
1280.0	0.0006688	101.155999899
1280.0	0.000669	101.203000069
1280.0	0.0006698	101.234999895
1280.0	0.0006703	101.280999899
1280.0	0.000671	101.328000069
1280.0	0.000671	101.359999895
1280.0	0.0006703	101.405999899
1280.0	0.0006698	101.453000069
1280.0	0.00067	101.484999895
1280.0	0.0006698	101.530999899
1280.0	0.00067	101.562999964
1280.0	0.0006703	101.609999895
1280.0	0.0006703	101.655999899
1280.0	0.00067	101.687999964
1280.0	0.0006698	101.734999895
1280.0	0.0006698	101.780999899
1280.0	0.0006693	101.812999964
1280.0	0.000669	101.859999895
1280.0	0.000669	101.891000032
1280.0	0.0006693	101.937999964
1280.0	0.0006703	101.984999895
1280.0	0.0006713	102.016000032
1280.0	0.0006713	102.062999964
1280.0	0.0006715	102.109999895
1280.0	0.0006718	102.141000032
1280.0	0.0006718	102.187999964
1280.0	0.0006718	102.234999895
1290.0	0.00067	102.5
1290.0	0.0006698	102.530999899
1290.0	0.0006693	102.578000069
1290.0	0.0006698	102.609999895
1290.0	0.00067	102.655999899
1290.0	0.0006703	102.703000069
1290.0	0.0006705	102.75
1290.0	0.0006703	102.780999899
1290.0	0.00067	102.828000069
1290.0	0.0006703	102.875
1290.0	0.0006703	102.905999899
1290.0	0.0006698	102.953000069
1290.0	0.00067	102.984999895
1290.0	0.00067	103.030999899
1290.0	0.0006693	103.078000069
1290.0	0.000669	103.109999895
1290.0	0.000669	103.155999899
1290.0	0.000669	103.203000069
1290.0	0.0006685	103.234999895
1290.0	0.000668	103.280999899
1290.0	0.0006678	103.312999964
1290.0	0.0006678	103.359999895
1290.0	0.0006685	103.405999899
1290.0	0.000668	103.437999964
1290.0	0.0006678	103.484999895
1290.0	0.0006675	103.530999899
1290.0	0.0006678	103.562999964
1290.0	0.0006688	103.609999895
1290.0	0.0006698	103.641000032
1290.0	0.00067	103.687999964
1290.0	0.00067	103.734999895
1290.0	0.0006703	103.766000032
1290.0	0.0006705	103.812999964
1290.0	0.0006705	103.859999895
1290.0	0.000671	103.891000032
1290.0	0.000671	103.937999964
1290.0	0.000671	103.984999895
1300.0	0.0006685	104.25
1300.0	0.0006673	104.280999899
1300.0	0.0006665	104.328000069
1300.0	0.0006653	104.375
1300.0	0.0006643	104.405999899
1300.0	0.0006638	104.453000069
1300.0	0.0006635	104.5
1300.0	0.0006635	104.530999899
1300.0	0.0006635	104.578000069
1300.0	0.000663	104.609999895
1300.0	0.0006628	104.655999899
1300.0	0.0006628	104.703000069
1300.0	0.0006623	104.734999895
1300.0	0.0006623	104.780999899
1300.0	0.0006623	104.828000069
1300.0	0.0006628	104.859999895
1300.0	0.0006635	104.905999899
1300.0	0.0006638	104.953000069
1300.0	0.0006635	104.984999895
1300.0	0.0006628	105.030999899
1300.0	0.0006623	105.078000069
1300.0	0.0006615	105.109999895
1300.0	0.0006618	105.155999899
1300.0	0.0006625	105.203000069
1300.0	0.0006623	105.234999895
1300.0	0.0006618	105.280999899
1300.0	0.0006613	105.312999964
1300.0	0.0006603	105.359999895
1300.0	0.0006603	105.405999899
1300.0	0.000661	105.437999964
1300.0	0.0006615	105.484999895
1300.0	0.0006615	105.530999899
1300.0	0.0006623	105.562999964
1300.0	0.0006623	105.609999895
1300.0	0.0006625	105.641000032
1300.0	0.0006628	105.687999964
1300.0	0.0006625	105.734999895
1310.0	0.000659	106.0
1310.0	0.0006575	106.046999931
1310.0	0.0006553	106.078000069
1310.0	0.0006543	106.125
1310.0	0.0006538	106.171999931
1310.0	0.0006535	106.219000101
1310.0	0.0006528	106.266000032
1310.0	0.0006518	106.312999964
1310.0	0.0006515	106.344000101
1310.0	0.0006515	106.391000032
1310.0	0.0006515	106.421999931
1310.0	0.0006518	106.469000101
1310.0	0.0006525	106.516000032
1310.0	0.0006523	106.546999931
1310.0	0.0006518	106.594000101
1310.0	0.0006523	106.641000032
1310.0	0.0006523	106.671999931
1310.0	0.0006513	106.719000101
1310.0	0.0006513	106.766000032
1310.0	0.000651	106.796999931
1310.0	0.000651	106.844000101
1310.0	0.0006513	106.891000032
1310.0	0.0006515	106.921999931
1310.0	0.0006525	106.969000101
1310.0	0.0006528	107.016000032
1310.0	0.0006523	107.046999931
1310.0	0.0006515	107.094000101
1310.0	0.0006513	107.125
1310.0	0.000651	107.171999931
1310.0	0.000651	107.219000101
1310.0	0.000651	107.25
1310.0	0.0006515	107.296999931
1310.0	0.0006515	107.328000069
1310.0	0.0006518	107.375
1310.0	0.0006523	107.421999931
1310.0	0.0006523	107.453000069
1320.0	0.000645	107.734999895
1320.0	0.0006428	107.766000032
1320.0	0.0006405	107.812999964
1320.0	0.0006398	107.859999895
1320.0	0.000638	107.905999899
1320.0	0.0006363	107.937999964
1320.0	0.0006353	107.984999895
1320.0	0.0006338	108.016000032
1320.0	0.000632	108.062999964
1320.0	0.0006315	108.109999895
1320.0	0.0006305	108.141000032
1320.0	0.00063	108.187999964
1320.0	0.0006295	108.234999895
1320.0	0.00063	108.266000032
1320.0	0.00063	108.312999964
1320.0	0.0006305	108.359999895
1320.0	0.0006308	108.391000032
1320.0	0.0006308	108.437999964
1320.0	0.0006313	108.484999895
1320.0	0.0006313	108.516000032
1320.0	0.0006308	108.562999964
1320.0	0.0006308	108.594000101
1320.0	0.0006305	108.641000032
1320.0	0.0006305	108.687999964
1320.0	0.0006303	108.719000101
1320.0	0.00063	108.766000032
1320.0	0.00063	108.812999964
1320.0	0.00063	108.844000101
1320.0	0.0006303	108.891000032
1320.0	0.00063	108.937999964
1320.0	0.00063	108.969000101
1320.0	0.0006308	109.016000032
1320.0	0.0006318	109.062999964
1320.0	0.0006318	109.094000101
1320.0	0.0006325	109.141000032
1320.0	0.000633	109.187999964
1330.0	0.0006218	109.453000069
1330.0	0.0006175	109.5
1330.0	0.0006138	109.530999899
1330.0	0.0006113	109.578000069
1330.0	0.0006093	109.625
1330.0	0.000607	109.655999899
1330.0	0.0006063	109.703000069
1330.0	0.0006055	109.75
1330.0	0.0006045	109.780999899
1330.0	0.0006043	109.828000069
1330.0	0.0006038	109.859999895
1330.0	0.0006025	109.905999899
1330.0	0.0006018	109.953000069
1330.0	0.0006015	110.0
1330.0	0.0006013	110.030999899
1330.0	0.0006015	110.078000069
1330.0	0.0006018	110.109999895
1330.0	0.000602	110.155999899
1330.0	0.0006028	110.203000069
1330.0	0.000603	110.234999895
1330.0	0.0006028	110.280999899
1330.0	0.0006028	110.328000069
1330.0	0.0006028	110.359999895
1330.0	0.000603	110.405999899
1330.0	0.000603	110.437999964
1330.0	0.0006033	110.484999895
1330.0	0.0006033	110.530999899
1330.0	0.000603	110.562999964
1330.0	0.000603	110.609999895
1330.0	0.0006033	110.655999899
1330.0	0.000603	110.687999964
1330.0	0.000603	110.734999895
1330.0	0.0006033	110.766000032
1330.0	0.0006028	110.812999964
1330.0	0.0006025	110.859999895
1330.0	0.0006025	110.891000032
1330.0	0.0006018	110.937999964
1340.0	0.0005893	111.203000069
1340.0	0.000585	111.25
1340.0	0.0005813	111.296999931
1340.0	0.000578	111.328000069
1340.0	0.0005758	111.375
1340.0	0.0005738	111.421999931
1340.0	0.0005718	111.453000069
1340.0	0.0005705	111.5
1340.0	0.0005693	111.530999899
1340.0	0.0005688	111.578000069
1340.0	0.0005683	111.625
1340.0	0.0005678	111.655999899
1340.0	0.000567	111.703000069
1340.0	0.000567	111.75
1340.0	0.0005678	111.780999899
1340.0	0.0005678	111.828000069
1340.0	0.000568	111.859999895
1340.0	0.0005688	111.905999899
1340.0	0.0005688	111.953000069
1340.0	0.0005688	111.984999895
1340.0	0.0005683	112.030999899
1340.0	0.0005678	112.078000069
1340.0	0.0005675	112.109999895
1340.0	0.0005678	112.155999899
1340.0	0.0005678	112.187999964
1340.0	0.0005675	112.234999895
1340.0	0.0005668	112.280999899
1340.0	0.0005663	112.312999964
1340.0	0.0005663	112.359999895
1340.0	0.0005663	112.405999899
1340.0	0.0005668	112.437999964
1340.0	0.0005663	112.484999895
1340.0	0.0005658	112.516000032
1340.0	0.0005663	112.562999964
1340.0	0.0005658	112.609999895
1340.0	0.0005663	112.641000032
1340.0	0.0005668	112.687999964
1350.0	0.000552	112.953000069
1350.0	0.000547	113.0
1350.0	0.000543	113.046999931
1350.0	0.00054	113.078000069
1350.0	0.000537	113.125
1350.0	0.000535	113.155999899
1350.0	0.0005328	113.203000069
1350.0	0.0005318	113.25
1350.0	0.0005313	113.280999899
1350.0	0.0005305	113.328000069
1350.0	0.0005303	113.375
1350.0	0.0005305	113.405999899
1350.0	0.0005305	113.453000069
1350.0	0.0005313	113.5
1350.0	0.0005318	113.530999899
1350.0	0.0005315	113.578000069
1350.0	0.0005313	113.609999895
1350.0	0.0005313	113.655999899
1350.0	0.0005308	113.703000069
1350.0	0.0005305	113.734999895
1350.0	0.0005308	113.780999899
1350.0	0.0005308	113.828000069
1350.0	0.0005305	113.859999895
1350.0	0.0005308	113.905999899
1350.0	0.0005308	113.937999964
1350.0	0.0005313	113.984999895
1350.0	0.0005305	114.030999899
1350.0	0.0005303	114.062999964
1350.0	0.00053	114.109999895
1350.0	0.0005295	114.155999899
1350.0	0.000529	114.187999964
1350.0	0.0005293	114.234999895
1350.0	0.0005293	114.266000032
1350.0	0.000529	114.312999964
1350.0	0.000529	114.359999895
1350.0	0.0005283	114.391000032
1350.0	0.0005283	114.437999964
1360.0	0.0005178	114.703000069
1360.0	0.0005118	114.75
1360.0	0.0005078	114.780999899
1360.0	0.0005043	114.828000069
1360.0	0.0005013	114.875
1360.0	0.000499	114.905999899
1360.0	0.0004975	114.953000069
1360.0	0.0004963	114.984999895
1360.0	0.000495	115.030999899
1360.0	0.000494	115.078000069
1360.0	0.000493	115.109999895
1360.0	0.0004928	115.155999899
1360.0	0.0004925	115.203000069
1360.0	0.000492	115.234999895
1360.0	0.0004925	115.280999899
1360.0	0.000493	115.328000069
1360.0	0.0004933	115.359999895
1360.0	0.0004938	115.405999899
1360.0	0.000494	115.453000069
1360.0	0.0004938	115.484999895
1360.0	0.000493	115.530999899
1360.0	0.000493	115.578000069
1360.0	0.0004938	115.609999895
1360.0	0.0004938	115.655999899
1360.0	0.000494	115.687999964
1360.0	0.0004945	115.734999895
1360.0	0.0004943	115.780999899
1360.0	0.0004945	115.828000069
1360.0	0.000495	115.859999895
1360.0	0.0004953	115.905999899
1360.0	0.0004955	115.937999964
1360.0	0.0004953	115.984999895
1360.0	0.0004945	116.030999899
1360.0	0.0004943	116.062999964
1360.0	0.0004933	116.109999895
1360.0	0.0004938	116.155999899
1370.0	0.00048	116.421999931
1370.0	0.0004758	116.469000101
1370.0	0.0004725	116.5
1370.0	0.00047	116.546999931
1370.0	0.000467	116.578000069
1370.0	0.0004645	116.625
1370.0	0.0004638	116.671999931
1370.0	0.000462	116.703000069
1370.0	0.0004608	116.75
1370.0	0.0004603	116.796999931
1370.0	0.00046	116.828000069
1370.0	0.0004595	116.875
1370.0	0.0004593	116.905999899
1370.0	0.0004593	116.953000069
1370.0	0.00046	117.0
1370.0	0.0004605	117.030999899
1370.0	0.0004608	117.078000069
1370.0	0.0004603	117.125
1370.0	0.00046	117.155999899
1370.0	0.0004595	117.203000069
1370.0	0.0004595	117.234999895
1370.0	0.00046	117.280999899
1370.0	0.0004603	117.328000069
1370.0	0.0004605	117.359999895
1370.0	0.00046	117.405999899
1370.0	0.0004603	117.453000069
1370.0	0.0004613	117.484999895
1370.0	0.0004615	117.530999899
1370.0	0.0004613	117.578000069
1370.0	0.0004618	117.609999895
1370.0	0.0004625	117.655999899
1370.0	0.000463	117.687999964
1370.0	0.0004638	117.734999895
1370.0	0.0004638	117.780999899
1370.0	0.0004633	117.812999964
1370.0	0.000463	117.859999895
1370.0	0.0004628	117.905999899
1380.0	0.0004493	118.171999931
1380.0	0.0004463	118.203000069
1380.0	0.0004433	118.25
1380.0	0.0004405	118.296999931
1380.0	0.0004388	118.328000069
1380.0	0.0004368	118.375
1380.0	0.0004353	118.421999931
1380.0	0.0004345	118.453000069
1380.0	0.0004338	118.5
1380.0	0.000433	118.546999931
1380.0	0.0004333	118.578000069
1380.0	0.0004338	118.625
1380.0	0.0004338	118.655999899
1380.0	0.0004343	118.703000069
1380.0	0.0004345	118.75
1380.0	0.0004345	118.780999899
1380.0	0.0004345	118.828000069
1380.0	0.000434	118.875
1380.0	0.0004333	118.905999899
1380.0	0.000433	118.953000069
1380.0	0.000433	119.0
1380.0	0.0004328	119.030999899
1380.0	0.0004325	119.078000069
1380.0	0.0004328	119.125
1380.0	0.0004325	119.155999899
1380.0	0.0004325	119.203000069
1380.0	0.0004325	119.234999895
1380.0	0.0004325	119.280999899
1380.0	0.0004318	119.328000069
1380.0	0.000432	119.359999895
1380.0	0.0004325	119.405999899
1380.0	0.0004325	119.453000069
1380.0	0.0004328	119.484999895
1380.0	0.0004328	119.530999899
1380.0	0.000432	119.578000069
1380.0	0.0004325	119.609999895
1380.0	0.000433	119.655999899
1390.0	0.000425	119.921999931
1390.0	0.0004225	119.953000069
1390.0	0.0004205	120.0
1390.0	0.0004193	120.046999931
1390.0	0.0004183	120.078000069
1390.0	0.000418	120.125
1390.0	0.000417	120.171999931
1390.0	0.0004163	120.203000069
1390.0	0.0004158	120.25
1390.0	0.0004153	120.296999931
1390.0	0.0004145	120.328000069
1390.0	0.0004143	120.375
1390.0	0.0004143	120.405999899
1390.0	0.0004145	120.453000069
1390.0	0.0004145	120.5
1390.0	0.0004145	120.530999899
1390.0	0.000415	120.578000069
1390.0	0.000415	120.625
1390.0	0.000415	120.655999899
1390.0	0.0004143	120.703000069
1390.0	0.000415	120.75
1390.0	0.0004145	120.780999899
1390.0	0.0004138	120.828000069
1390.0	0.000413	120.875
1390.0	0.0004125	120.905999899
1390.0	0.0004115	120.953000069
1390.0	0.0004115	121.0
1390.0	0.000412	121.030999899
1390.0	0.0004125	121.078000069
1390.0	0.000413	121.125
1390.0	0.0004138	121.155999899
1390.0	0.0004138	121.203000069
1390.0	0.0004143	121.25
1390.0	0.0004145	121.280999899
1390.0	0.0004143	121.328000069
1390.0	0.0004133	121.359999895
1390.0	0.0004138	121.405999899
1400.0	0.000412	121.671999931
1400.0	0.0004108	121.719000101
1400.0	0.000409	121.75
1400.0	0.0004075	121.796999931
1400.0	0.0004058	121.844000101
1400.0	0.0004053	121.875
1400.0	0.0004043	121.921999931
1400.0	0.0004038	121.969000101
1400.0	0.0004038	122.0
1400.0	0.0004033	122.046999931
1400.0	0.0004038	122.078000069
1400.0	0.000404	122.125
1400.0	0.0004043	122.171999931
1400.0	0.0004043	122.203000069
1400.0	0.0004043	122.25
1400.0	0.0004045	122.296999931
1400.0	0.000405	122.328000069
1400.0	0.0004053	122.375
1400.0	0.0004058	122.405999899
1400.0	0.0004063	122.453000069
1400.0	0.0004063	122.5
1400.0	0.0004063	122.530999899
1400.0	0.0004063	122.578000069
1400.0	0.0004063	122.625
1400.0	0.0004058	122.655999899
1400.0	0.0004053	122.703000069
1400.0	0.0004043	122.734999895
1400.0	0.000404	122.780999899
1400.0	0.0004038	122.828000069
1400.0	0.000403	122.859999895
1400.0	0.000403	122.905999899
1400.0	0.0004038	122.953000069
1400.0	0.000404	123.0
1400.0	0.0004043	123.030999899
1400.0	0.0004043	123.078000069
1400.0	0.0004043	123.109999895
1400.0	0.000404	123.155999899
1410.0	0.000404	123.421999931
1410.0	0.0004033	123.469000101
1410.0	0.0004028	123.5
1410.0	0.0004028	123.546999931
1410.0	0.0004025	123.594000101
1410.0	0.0004025	123.625
1410.0	0.0004025	123.671999931
1410.0	0.000402	123.719000101
1410.0	0.0004015	123.75
1410.0	0.0004018	123.796999931
1410.0	0.0004015	123.828000069
1410.0	0.0004008	123.875
1410.0	0.0004008	123.921999931
1410.0	0.0004005	123.953000069
1410.0	0.0004	124.0
1410.0	0.0004003	124.046999931
1410.0	0.0004008	124.078000069
1410.0	0.0004008	124.125
1410.0	0.0004013	124.155999899
1410.0	0.0004013	124.203000069
1410.0	0.0004013	124.25
1410.0	0.0004015	124.280999899
1410.0	0.000402	124.328000069
1410.0	0.0004028	124.375
1410.0	0.0004033	124.405999899
1410.0	0.0004038	124.453000069
1410.0	0.0004038	124.484999895
1410.0	0.0004025	124.530999899
1410.0	0.0004018	124.578000069
1410.0	0.0004015	124.609999895
1410.0	0.0004013	124.655999899
1410.0	0.0004013	124.703000069
1410.0	0.0004015	124.734999895
1410.0	0.0004018	124.780999899
1410.0	0.0004018	124.828000069
1410.0	0.0004028	124.859999895
1410.0	0.000403	124.905999899
1420.0	0.0004065	125.171999931
1420.0	0.0004075	125.203000069
1420.0	0.0004078	125.25
1420.0	0.0004083	125.280999899
1420.0	0.0004088	125.328000069
1420.0	0.0004075	125.375
1420.0	0.0004065	125.405999899
1420.0	0.0004063	125.453000069
1420.0	0.0004065	125.5
1420.0	0.0004068	125.530999899
1420.0	0.0004068	125.578000069
1420.0	0.0004075	125.609999895
1420.0	0.0004078	125.655999899
1420.0	0.0004083	125.703000069
1420.0	0.0004088	125.734999895
1420.0	0.0004083	125.780999899
1420.0	0.0004078	125.828000069
1420.0	0.0004075	125.859999895
1420.0	0.0004075	125.905999899
1420.0	0.000407	125.953000069
1420.0	0.0004068	125.984999895
1420.0	0.0004063	126.030999899
1420.0	0.0004065	126.062999964
1420.0	0.0004068	126.109999895
1420.0	0.0004075	126.155999899
1420.0	0.0004078	126.187999964
1420.0	0.0004088	126.234999895
1420.0	0.000409	126.280999899
1420.0	0.000408	126.312999964
1420.0	0.0004068	126.359999895
1420.0	0.0004065	126.405999899
1420.0	0.0004063	126.437999964
1420.0	0.0004063	126.484999895
1420.0	0.0004063	126.530999899
1420.0	0.0004063	126.562999964
1420.0	0.0004058	126.609999895
1420.0	0.0004063	126.641000032
1430.0	0.0004088	126.921999931
1430.0	0.0004095	126.953000069
1430.0	0.0004108	127.0
1430.0	0.0004113	127.030999899
1430.0	0.0004128	127.078000069
1430.0	0.0004133	127.125
1430.0	0.0004143	127.155999899
1430.0	0.0004153	127.203000069
1430.0	0.0004158	127.25
1430.0	0.0004163	127.280999899
1430.0	0.0004165	127.328000069
1430.0	0.000417	127.359999895
1430.0	0.0004168	127.405999899
1430.0	0.0004168	127.453000069
1430.0	0.0004163	127.484999895
1430.0	0.0004158	127.530999899
1430.0	0.0004155	127.578000069
1430.0	0.0004155	127.609999895
1430.0	0.0004155	127.655999899
1430.0	0.0004155	127.687999964
1430.0	0.0004158	127.734999895
1430.0	0.0004163	127.780999899
1430.0	0.0004163	127.812999964
1430.0	0.0004158	127.859999895
1430.0	0.0004163	127.905999899
1430.0	0.0004163	127.937999964
1430.0	0.0004158	127.984999895
1430.0	0.0004158	128.030999899
1430.0	0.0004155	128.062999964
1430.0	0.0004155	128.109999895
1430.0	0.0004155	128.141000032
1430.0	0.0004155	128.187999964
1430.0	0.0004155	128.234999895
1430.0	0.0004155	128.280999899
1430.0	0.0004163	128.312999964
1430.0	0.0004158	128.359999895
1430.0	0.0004155	128.391000032
1440.0	0.0004193	128.671999931
1440.0	0.0004218	128.703000069
1440.0	0.0004233	128.75
1440.0	0.0004243	128.780999899
1440.0	0.000425	128.828000069
1440.0	0.0004263	128.875
1440.0	0.0004265	128.905999899
1440.0	0.0004268	128.953000069
1440.0	0.000427	129.0
1440.0	0.0004278	129.030999899
1440.0	0.000428	129.078000069
1440.0	0.0004278	129.109999895
1440.0	0.000428	129.155999899
1440.0	0.000428	129.203000069
1440.0	0.0004275	129.234999895
1440.0	0.0004275	129.280999899
1440.0	0.0004278	129.328000069
1440.0	0.0004275	129.359999895
1440.0	0.000427	129.405999899
1440.0	0.0004268	129.437999964
1440.0	0.0004268	129.484999895
1440.0	0.0004268	129.530999899
1440.0	0.0004265	129.562999964
1440.0	0.0004268	129.609999895
1440.0	0.0004275	129.655999899
1440.0	0.0004283	129.687999964
1440.0	0.0004288	129.734999895
1440.0	0.0004283	129.780999899
1440.0	0.0004288	129.812999964
1440.0	0.0004283	129.859999895
1440.0	0.000428	129.905999899
1440.0	0.000428	129.937999964
1440.0	0.0004268	129.984999895
1440.0	0.0004265	130.030999899
1440.0	0.0004263	130.062999964
1440.0	0.0004263	130.109999895
1440.0	0.0004265	130.141000032
1450.0	0.000433	130.421999931
1450.0	0.0004345	130.453000069
1450.0	0.0004363	130.5
1450.0	0.0004378	130.530999899
1450.0	0.000438	130.578000069
1450.0	0.000438	130.625
1450.0	0.0004388	130.655999899
1450.0	0.0004393	130.703000069
1450.0	0.00044	130.75
1450.0	0.0004403	130.780999899
1450.0	0.0004405	130.828000069
1450.0	0.0004408	130.875
1450.0	0.0004413	130.905999899
1450.0	0.0004413	130.953000069
1450.0	0.0004413	131.0
1450.0	0.0004415	131.030999899
1450.0	0.0004413	131.078000069
1450.0	0.0004405	131.109999895
1450.0	0.0004405	131.155999899
1450.0	0.0004413	131.203000069
1450.0	0.0004408	131.234999895
1450.0	0.0004408	131.280999899
1450.0	0.0004408	131.328000069
1450.0	0.0004408	131.359999895
1450.0	0.0004415	131.405999899
1450.0	0.0004418	131.453000069
1450.0	0.0004415	131.484999895
1450.0	0.0004415	131.530999899
1450.0	0.0004413	131.578000069
1450.0	0.0004408	131.609999895
1450.0	0.0004405	131.655999899
1450.0	0.0004408	131.703000069
1450.0	0.0004408	131.734999895
1450.0	0.00044	131.780999899
1450.0	0.000439	131.828000069
1450.0	0.0004383	131.859999895
1450.0	0.000438	131.905999899
1460.0	0.000443	132.171999931
1460.0	0.0004443	132.219000101
1460.0	0.000445	132.25
1460.0	0.0004455	132.296999931
1460.0	0.0004465	132.344000101
1460.0	0.0004468	132.375
1460.0	0.0004483	132.421999931
1460.0	0.0004493	132.453000069
1460.0	0.0004495	132.5
1460.0	0.0004503	132.546999931
1460.0	0.00045	132.578000069
1460.0	0.0004495	132.625
1460.0	0.0004495	132.671999931
1460.0	0.00045	132.703000069
1460.0	0.00045	132.75
1460.0	0.00045	132.796999931
1460.0	0.0004495	132.828000069
1460.0	0.0004495	132.875
1460.0	0.0004495	132.921999931
1460.0	0.0004495	132.953000069
1460.0	0.000449	133.0
1460.0	0.0004493	133.030999899
1460.0	0.0004503	133.078000069
1460.0	0.0004503	133.125
1460.0	0.00045	133.155999899
1460.0	0.0004503	133.203000069
1460.0	0.0004505	133.25
1460.0	0.0004503	133.280999899
1460.0	0.00045	133.328000069
1460.0	0.0004503	133.375
1460.0	0.00045	133.405999899
1460.0	0.0004503	133.453000069
1460.0	0.0004503	133.484999895
1460.0	0.0004503	133.530999899
1460.0	0.0004508	133.578000069
1460.0	0.0004515	133.609999895
1460.0	0.0004515	133.655999899
1470.0	0.0004515	133.921999931
1470.0	0.0004533	133.969000101
1470.0	0.0004545	134.016000032
1470.0	0.0004558	134.046999931
1470.0	0.0004568	134.094000101
1470.0	0.0004575	134.125
1470.0	0.000458	134.171999931
1470.0	0.0004583	134.219000101
1470.0	0.0004583	134.266000032
1470.0	0.0004583	134.296999931
1470.0	0.000458	134.344000101
1470.0	0.0004575	134.375
1470.0	0.000458	134.421999931
1470.0	0.0004583	134.469000101
1470.0	0.0004575	134.5
1470.0	0.0004565	134.546999931
1470.0	0.0004565	134.594000101
1470.0	0.0004565	134.625
1470.0	0.0004568	134.671999931
1470.0	0.0004568	134.703000069
1470.0	0.0004575	134.75
1470.0	0.0004578	134.796999931
1470.0	0.0004588	134.828000069
1470.0	0.000459	134.875
1470.0	0.0004595	134.921999931
1470.0	0.00046	134.953000069
1470.0	0.00046	135.0
1470.0	0.0004593	135.030999899
1470.0	0.0004583	135.078000069
1470.0	0.0004583	135.125
1470.0	0.000458	135.155999899
1470.0	0.000458	135.203000069
1470.0	0.0004578	135.25
1470.0	0.0004575	135.280999899
1470.0	0.0004575	135.328000069
1470.0	0.0004578	135.375
1470.0	0.0004575	135.405999899
1480.0	0.0004605	135.671999931
1480.0	0.0004618	135.719000101
1480.0	0.0004618	135.766000032
1480.0	0.000462	135.796999931
1480.0	0.0004625	135.844000101
1480.0	0.0004625	135.875
1480.0	0.0004625	135.921999931
1480.0	0.0004628	135.969000101
1480.0	0.000463	136.016000032
1480.0	0.000463	136.046999931
1480.0	0.000463	136.094000101
1480.0	0.0004633	136.125
1480.0	0.0004638	136.171999931
1480.0	0.0004643	136.219000101
1480.0	0.000465	136.25
1480.0	0.000465	136.296999931
1480.0	0.0004645	136.344000101
1480.0	0.000465	136.375
1480.0	0.0004638	136.421999931
1480.0	0.000463	136.453000069
1480.0	0.0004633	136.5
1480.0	0.0004633	136.546999931
1480.0	0.0004638	136.578000069
1480.0	0.0004645	136.625
1480.0	0.000465	136.671999931
1480.0	0.0004645	136.703000069
1480.0	0.0004645	136.75
1480.0	0.0004645	136.780999899
1480.0	0.0004645	136.828000069
1480.0	0.000465	136.875
1480.0	0.0004653	136.905999899
1480.0	0.0004655	136.953000069
1480.0	0.0004653	137.0
1480.0	0.000465	137.030999899
1480.0	0.0004638	137.078000069
1480.0	0.000464	137.109999895
1480.0	0.0004638	137.155999899
1490.0	0.0004668	137.437999964
1490.0	0.0004663	137.469000101
1490.0	0.0004655	137.516000032
1490.0	0.0004655	137.546999931
1490.0	0.0004655	137.594000101
1490.0	0.0004663	137.641000032
1490.0	0.0004668	137.671999931
1490.0	0.000468	137.719000101
1490.0	0.0004693	137.766000032
1490.0	0.0004693	137.796999931
1490.0	0.000469	137.844000101
1490.0	0.000469	137.875
1490.0	0.0004693	137.921999931
1490.0	0.000469	137.969000101
1490.0	0.000469	138.0
1490.0	0.0004688	138.046999931
1490.0	0.0004688	138.094000101
1490.0	0.0004688	138.125
1490.0	0.0004678	138.171999931
1490.0	0.000467	138.219000101
1490.0	0.000467	138.25
1490.0	0.000467	138.296999931
1490.0	0.0004668	138.344000101
1490.0	0.000467	138.375
1490.0	0.000467	138.421999931
1490.0	0.0004675	138.453000069
1490.0	0.000468	138.5
1490.0	0.0004678	138.546999931
1490.0	0.0004678	138.594000101
1490.0	0.0004678	138.625
1490.0	0.000467	138.671999931
1490.0	0.000467	138.703000069
1490.0	0.000467	138.75
1490.0	0.000467	138.796999931
1490.0	0.000467	138.828000069
1490.0	0.0004675	138.875
1490.0	0.0004678	138.921999931
1500.0	0.0004693	139.187999964
1500.0	0.0004693	139.234999895
1500.0	0.00047	139.266000032
1500.0	0.00047	139.312999964
1500.0	0.00047	139.359999895
1500.0	0.0004703	139.391000032
1500.0	0.0004703	139.437999964
1500.0	0.0004703	139.469000101
1500.0	0.0004708	139.516000032
1500.0	0.0004713	139.562999964
1500.0	0.0004715	139.609999895
1500.0	0.000472	139.641000032
1500.0	0.0004725	139.687999964
1500.0	0.000473	139.719000101
1500.0	0.000473	139.766000032
1500.0	0.0004718	139.812999964
1500.0	0.0004718	139.844000101
1500.0	0.000472	139.891000032
1500.0	0.0004718	139.937999964
1500.0	0.0004708	139.969000101
1500.0	0.0004705	140.016000032
1500.0	0.0004703	140.046999931
1500.0	0.0004703	140.094000101
1500.0	0.0004708	140.141000032
1500.0	0.0004708	140.171999931
1500.0	0.0004705	140.219000101
1500.0	0.0004713	140.266000032
1500.0	0.0004713	140.296999931
1500.0	0.0004703	140.344000101
1500.0	0.0004703	140.391000032
1500.0	0.0004708	140.421999931
1500.0	0.0004705	140.469000101
1500.0	0.0004703	140.5
1500.0	0.0004705	140.546999931
1500.0	0.0004703	140.594000101
1500.0	0.00047	140.625
1500.0	0.00047	140.671999931
1510.0	0.0004693	140.953000069
1510.0	0.0004693	140.984999895
1510.0	0.0004695	141.030999899
1510.0	0.00047	141.062999964
1510.0	0.00047	141.109999895
1510.0	0.0004703	141.155999899
1510.0	0.0004705	141.187999964
1510.0	0.0004708	141.234999895
1510.0	0.0004713	141.280999899
1510.0	0.0004713	141.312999964
1510.0	0.0004718	141.359999895
1510.0	0.000472	141.405999899
1510.0	0.000472	141.437999964
1510.0	0.0004725	141.484999895
1510.0	0.0004725	141.530999899
1510.0	0.0004725	141.562999964
1510.0	0.000472	141.609999895
1510.0	0.000472	141.655999899
1510.0	0.0004718	141.687999964
1510.0	0.000472	141.734999895
1510.0	0.0004715	141.780999899
1510.0	0.0004713	141.812999964
1510.0	0.0004705	141.859999895
1510.0	0.0004705	141.905999899
1510.0	0.0004705	141.937999964
1510.0	0.0004708	141.984999895
1510.0	0.0004715	142.016000032
1510.0	0.0004713	142.062999964
1510.0	0.0004715	142.109999895
1510.0	0.0004718	142.141000032
1510.0	0.0004718	142.187999964
1510.0	0.0004713	142.234999895
1510.0	0.0004715	142.266000032
1510.0	0.000472	142.312999964
1510.0	0.0004728	142.344000101
1510.0	0.000472	142.391000032
1510.0	0.000472	142.437999964
1520.0	0.0004728	142.703000069
1520.0	0.0004725	142.75
1520.0	0.0004725	142.796999931
1520.0	0.0004725	142.828000069
1520.0	0.000473	142.875
1520.0	0.0004733	142.921999931
1520.0	0.0004738	142.953000069
1520.0	0.0004738	143.0
1520.0	0.000473	143.046999931
1520.0	0.0004725	143.078000069
1520.0	0.0004718	143.125
1520.0	0.0004713	143.155999899
1520.0	0.0004708	143.203000069
1520.0	0.0004713	143.25
1520.0	0.0004713	143.280999899
1520.0	0.0004713	143.328000069
1520.0	0.0004718	143.375
1520.0	0.0004715	143.405999899
1520.0	0.0004718	143.453000069
1520.0	0.0004715	143.484999895
1520.0	0.0004715	143.530999899
1520.0	0.0004715	143.578000069
1520.0	0.0004718	143.609999895
1520.0	0.0004718	143.655999899
1520.0	0.0004708	143.703000069
1520.0	0.0004705	143.734999895
1520.0	0.0004708	143.780999899
1520.0	0.0004713	143.828000069
1520.0	0.0004718	143.859999895
1520.0	0.0004718	143.905999899
1520.0	0.0004713	143.937999964
1520.0	0.00047	143.984999895
1520.0	0.0004695	144.030999899
1520.0	0.0004693	144.062999964
1520.0	0.0004695	144.109999895
1520.0	0.00047	144.155999899
1520.0	0.0004705	144.187999964
1530.0	0.0004693	144.469000101
1530.0	0.00047	144.5
1530.0	0.0004693	144.546999931
1530.0	0.0004688	144.594000101
1530.0	0.0004683	144.625
1530.0	0.0004683	144.671999931
1530.0	0.0004693	144.719000101
1530.0	0.0004695	144.75
1530.0	0.0004693	144.796999931
1530.0	0.0004688	144.828000069
1530.0	0.0004678	144.875
1530.0	0.000467	144.921999931
1530.0	0.0004668	144.953000069
1530.0	0.0004665	145.0
1530.0	0.0004665	145.046999931
1530.0	0.0004668	145.078000069
1530.0	0.000467	145.125
1530.0	0.0004668	145.155999899
1530.0	0.0004665	145.203000069
1530.0	0.0004668	145.25
1530.0	0.0004678	145.280999899
1530.0	0.0004678	145.328000069
1530.0	0.0004678	145.375
1530.0	0.000468	145.405999899
1530.0	0.000468	145.453000069
1530.0	0.000468	145.484999895
1530.0	0.000468	145.530999899
1530.0	0.0004678	145.578000069
1530.0	0.0004678	145.609999895
1530.0	0.0004678	145.655999899
1530.0	0.000468	145.703000069
1530.0	0.000467	145.734999895
1530.0	0.000467	145.780999899
1530.0	0.0004678	145.828000069
1530.0	0.000468	145.859999895
1530.0	0.0004683	145.905999899
1530.0	0.000469	145.937999964
1540.0	0.0004665	146.219000101
1540.0	0.0004658	146.266000032
1540.0	0.0004645	146.296999931
1540.0	0.0004633	146.344000101
1540.0	0.0004625	146.391000032
1540.0	0.0004615	146.421999931
1540.0	0.0004613	146.469000101
1540.0	0.0004613	146.5
1540.0	0.0004608	146.546999931
1540.0	0.0004603	146.594000101
1540.0	0.00046	146.625
1540.0	0.00046	146.671999931
1540.0	0.00046	146.719000101
1540.0	0.0004603	146.75
1540.0	0.0004605	146.796999931
1540.0	0.0004608	146.828000069
1540.0	0.0004615	146.875
1540.0	0.0004618	146.921999931
1540.0	0.0004613	146.953000069
1540.0	0.0004613	147.0
1540.0	0.0004613	147.046999931
1540.0	0.0004615	147.078000069
1540.0	0.0004613	147.125
1540.0	0.0004613	147.155999899
1540.0	0.0004608	147.203000069
1540.0	0.0004605	147.25
1540.0	0.0004613	147.280999899
1540.0	0.0004615	147.328000069
1540.0	0.0004605	147.375
1540.0	0.00046	147.405999899
1540.0	0.0004593	147.453000069
1540.0	0.0004593	147.5
1540.0	0.00046	147.530999899
1540.0	0.0004603	147.578000069
1540.0	0.0004603	147.625
1540.0	0.0004603	147.655999899
1540.0	0.0004613	147.703000069
1550.0	0.000457	147.984999895
1550.0	0.0004555	148.016000032
1550.0	0.0004545	148.062999964
1550.0	0.000454	148.094000101
1550.0	0.0004533	148.141000032
1550.0	0.0004528	148.187999964
1550.0	0.000452	148.219000101
1550.0	0.0004525	148.266000032
1550.0	0.000452	148.312999964
1550.0	0.000452	148.344000101
1550.0	0.000452	148.391000032
1550.0	0.0004518	148.421999931
1550.0	0.0004513	148.469000101
1550.0	0.0004513	148.516000032
1550.0	0.0004513	148.562999964
1550.0	0.0004513	148.594000101
1550.0	0.0004513	148.641000032
1550.0	0.0004508	148.671999931
1550.0	0.0004505	148.719000101
1550.0	0.0004505	148.766000032
1550.0	0.0004513	148.796999931
1550.0	0.0004515	148.844000101
1550.0	0.000452	148.891000032
1550.0	0.000452	148.921999931
1550.0	0.0004515	148.969000101
1550.0	0.0004515	149.016000032
1550.0	0.0004518	149.046999931
1550.0	0.0004515	149.094000101
1550.0	0.0004513	149.125
1550.0	0.0004508	149.171999931
1550.0	0.0004503	149.219000101
1550.0	0.0004503	149.25
1550.0	0.0004505	149.296999931
1550.0	0.0004505	149.344000101
1550.0	0.0004508	149.375
1550.0	0.0004513	149.421999931
1550.0	0.0004513	149.453000069
1560.0	0.0004455	149.734999895
1560.0	0.000443	149.780999899
1560.0	0.0004413	149.812999964
1560.0	0.00044	149.859999895
1560.0	0.0004383	149.905999899
1560.0	0.0004368	149.937999964
1560.0	0.0004363	149.984999895
1560.0	0.0004363	150.016000032
1560.0	0.0004353	150.062999964
1560.0	0.000435	150.109999895
1560.0	0.0004353	150.141000032
1560.0	0.000435	150.187999964
1560.0	0.0004345	150.234999895
1560.0	0.0004343	150.266000032
1560.0	0.000434	150.312999964
1560.0	0.000434	150.344000101
1560.0	0.0004345	150.391000032
1560.0	0.0004353	150.437999964
1560.0	0.000435	150.469000101
1560.0	0.000435	150.516000032
1560.0	0.0004353	150.562999964
1560.0	0.0004355	150.594000101
1560.0	0.0004355	150.641000032
1560.0	0.0004355	150.687999964
1560.0	0.0004343	150.719000101
1560.0	0.000434	150.766000032
1560.0	0.0004345	150.796999931
1560.0	0.0004345	150.844000101
1560.0	0.0004343	150.891000032
1560.0	0.0004345	150.921999931
1560.0	0.0004353	150.969000101
1560.0	0.000435	151.016000032
1560.0	0.0004345	151.046999931
1560.0	0.0004353	151.094000101
1560.0	0.000435	151.125
1560.0	0.0004355	151.171999931
1560.0	0.0004358	151.219000101
1570.0	0.000428	151.484999895
1570.0	0.0004258	151.530999899
1570.0	0.0004233	151.578000069
1570.0	0.0004218	151.609999895
1570.0	0.0004205	151.655999899
1570.0	0.0004193	151.687999964
1570.0	0.0004188	151.734999895
1570.0	0.000419	151.780999899
1570.0	0.000418	151.812999964
1570.0	0.0004175	151.859999895
1570.0	0.000417	151.905999899
1570.0	0.0004175	151.937999964
1570.0	0.0004175	151.984999895
1570.0	0.0004175	152.016000032
1570.0	0.0004178	152.062999964
1570.0	0.000418	152.109999895
1570.0	0.000418	152.141000032
1570.0	0.000418	152.187999964
1570.0	0.000418	152.234999895
1570.0	0.0004178	152.266000032
1570.0	0.000418	152.312999964
1570.0	0.000418	152.344000101
1570.0	0.0004175	152.391000032
1570.0	0.000417	152.437999964
1570.0	0.000417	152.469000101
1570.0	0.0004163	152.516000032
1570.0	0.0004163	152.562999964
1570.0	0.0004153	152.594000101
1570.0	0.0004145	152.641000032
1570.0	0.0004145	152.687999964
1570.0	0.000415	152.719000101
1570.0	0.000414	152.766000032
1570.0	0.000413	152.796999931
1570.0	0.000413	152.844000101
1570.0	0.0004133	152.891000032
1570.0	0.0004143	152.921999931
1570.0	0.0004145	152.969000101
1580.0	0.0004065	153.25
1580.0	0.0004038	153.280999899
1580.0	0.0004013	153.328000069
1580.0	0.0003993	153.359999895
1580.0	0.0003983	153.405999899
1580.0	0.000397	153.453000069
1580.0	0.0003965	153.484999895
1580.0	0.0003958	153.530999899
1580.0	0.0003945	153.578000069
1580.0	0.000394	153.609999895
1580.0	0.0003933	153.655999899
1580.0	0.0003933	153.687999964
1580.0	0.0003938	153.734999895
1580.0	0.0003938	153.780999899
1580.0	0.000394	153.812999964
1580.0	0.000394	153.859999895
1580.0	0.000394	153.905999899
1580.0	0.000394	153.937999964
1580.0	0.0003943	153.984999895
1580.0	0.000394	154.016000032
1580.0	0.0003943	154.062999964
1580.0	0.0003943	154.109999895
1580.0	0.0003943	154.141000032
1580.0	0.000394	154.187999964
1580.0	0.0003938	154.234999895
1580.0	0.0003928	154.266000032
1580.0	0.0003925	154.312999964
1580.0	0.0003925	154.344000101
1580.0	0.0003925	154.391000032
1580.0	0.0003928	154.437999964
1580.0	0.0003925	154.469000101
1580.0	0.0003928	154.516000032
1580.0	0.0003918	154.562999964
1580.0	0.0003925	154.594000101
1580.0	0.0003928	154.641000032
1580.0	0.0003925	154.687999964
1580.0	0.0003925	154.719000101
1590.0	0.000383	155.0
1590.0	0.0003795	155.030999899
1590.0	0.0003768	155.078000069
1590.0	0.0003743	155.125
1590.0	0.0003728	155.171999931
1590.0	0.0003705	155.203000069
1590.0	0.0003693	155.25
1590.0	0.0003683	155.280999899
1590.0	0.0003678	155.328000069
1590.0	0.0003668	155.375
1590.0	0.0003668	155.405999899
1590.0	0.0003668	155.453000069
1590.0	0.0003663	155.5
1590.0	0.0003663	155.530999899
1590.0	0.0003663	155.578000069
1590.0	0.0003665	155.625
1590.0	0.0003675	155.655999899
1590.0	0.0003678	155.703000069
1590.0	0.0003675	155.75
1590.0	0.0003675	155.780999899
1590.0	0.0003675	155.828000069
1590.0	0.0003668	155.859999895
1590.0	0.0003665	155.905999899
1590.0	0.0003668	155.953000069
1590.0	0.0003668	155.984999895
1590.0	0.0003668	156.030999899
1590.0	0.000367	156.078000069
1590.0	0.000368	156.109999895
1590.0	0.0003678	156.155999899
1590.0	0.000367	156.203000069
1590.0	0.000367	156.234999895
1590.0	0.0003668	156.280999899
1590.0	0.0003668	156.312999964
1590.0	0.0003665	156.359999895
1590.0	0.0003663	156.405999899
1590.0	0.0003663	156.437999964
1590.0	0.0003665	156.484999895
1600.0	0.0003575	156.766000032
1600.0	0.000354	156.796999931
1600.0	0.00035	156.844000101
1600.0	0.0003465	156.875
1600.0	0.0003443	156.921999931
1600.0	0.0003418	156.969000101
1600.0	0.00034	157.0
1600.0	0.00034	157.046999931
1600.0	0.0003383	157.094000101
1600.0	0.0003378	157.125
1600.0	0.0003375	157.171999931
1600.0	0.000337	157.203000069
1600.0	0.0003368	157.25
1600.0	0.0003363	157.296999931
1600.0	0.0003355	157.344000101
1600.0	0.0003353	157.375
1600.0	0.0003353	157.421999931
1600.0	0.0003355	157.453000069
1600.0	0.0003358	157.5
1600.0	0.0003365	157.546999931
1600.0	0.0003378	157.578000069
1600.0	0.000338	157.625
1600.0	0.0003383	157.671999931
1600.0	0.0003388	157.703000069
1600.0	0.0003383	157.75
1600.0	0.0003375	157.796999931
1600.0	0.0003368	157.828000069
1600.0	0.0003368	157.875
1600.0	0.0003365	157.921999931
1600.0	0.0003368	157.953000069
1600.0	0.0003368	158.0
1600.0	0.000337	158.046999931
1600.0	0.0003378	158.078000069
1600.0	0.000338	158.125
1600.0	0.0003378	158.155999899
1600.0	0.000338	158.203000069
1600.0	0.0003383	158.25
1610.0	0.000327	158.530999899
1610.0	0.000322	158.562999964
1610.0	0.000319	158.609999895
1610.0	0.0003163	158.641000032
1610.0	0.0003138	158.687999964
1610.0	0.0003125	158.734999895
1610.0	0.0003118	158.780999899
1610.0	0.0003118	158.812999964
1610.0	0.0003118	158.859999895
1610.0	0.000312	158.891000032
1610.0	0.0003118	158.937999964
1610.0	0.0003115	158.984999895
1610.0	0.0003113	159.016000032
1610.0	0.0003105	159.062999964
1610.0	0.00031	159.109999895
1610.0	0.00031	159.141000032
1610.0	0.0003103	159.187999964
1610.0	0.00031	159.234999895
1610.0	0.0003095	159.266000032
1610.0	0.0003093	159.312999964
1610.0	0.0003093	159.344000101
1610.0	0.0003093	159.391000032
1610.0	0.0003095	159.437999964
1610.0	0.0003093	159.469000101
1610.0	0.000309	159.516000032
1610.0	0.0003088	159.562999964
1610.0	0.000308	159.594000101
1610.0	0.000308	159.641000032
1610.0	0.000308	159.687999964
1610.0	0.0003078	159.719000101
1610.0	0.000308	159.766000032
1610.0	0.0003088	159.812999964
1610.0	0.0003088	159.844000101
1610.0	0.0003088	159.891000032
1610.0	0.0003095	159.937999964
1610.0	0.0003103	159.969000101
1610.0	0.0003108	160.016000032
1620.0	0.0002988	160.296999931
1620.0	0.000294	160.328000069
1620.0	0.0002903	160.375
1620.0	0.0002875	160.405999899
1620.0	0.000285	160.453000069
1620.0	0.000283	160.5
1620.0	0.0002813	160.530999899
1620.0	0.0002803	160.578000069
1620.0	0.0002795	160.625
1620.0	0.0002793	160.655999899
1620.0	0.0002788	160.703000069
1620.0	0.000278	160.734999895
1620.0	0.0002783	160.780999899
1620.0	0.0002783	160.828000069
1620.0	0.0002788	160.859999895
1620.0	0.0002795	160.905999899
1620.0	0.0002795	160.953000069
1620.0	0.0002795	160.984999895
1620.0	0.00028	161.030999899
1620.0	0.00028	161.078000069
1620.0	0.0002793	161.109999895
1620.0	0.0002793	161.155999899
1620.0	0.0002793	161.187999964
1620.0	0.0002783	161.234999895
1620.0	0.0002783	161.280999899
1620.0	0.0002788	161.312999964
1620.0	0.0002788	161.359999895
1620.0	0.000279	161.405999899
1620.0	0.0002795	161.437999964
1620.0	0.00028	161.484999895
1620.0	0.0002803	161.516000032
1620.0	0.0002805	161.562999964
1620.0	0.00028	161.609999895
1620.0	0.0002793	161.641000032
1620.0	0.000279	161.687999964
1620.0	0.0002788	161.734999895
1620.0	0.0002788	161.766000032
1630.0	0.0002678	162.046999931
1630.0	0.0002638	162.094000101
1630.0	0.0002613	162.141000032
1630.0	0.000259	162.171999931
1630.0	0.0002563	162.219000101
1630.0	0.0002543	162.266000032
1630.0	0.0002525	162.296999931
1630.0	0.0002503	162.344000101
1630.0	0.0002493	162.375
1630.0	0.0002495	162.421999931
1630.0	0.0002493	162.469000101
1630.0	0.0002493	162.5
1630.0	0.000248	162.546999931
1630.0	0.0002478	162.578000069
1630.0	0.000248	162.625
1630.0	0.0002488	162.671999931
1630.0	0.000249	162.703000069
1630.0	0.0002493	162.75
1630.0	0.000249	162.796999931
1630.0	0.0002493	162.828000069
1630.0	0.0002493	162.875
1630.0	0.0002505	162.921999931
1630.0	0.0002513	162.953000069
1630.0	0.0002508	163.0
1630.0	0.0002503	163.030999899
1630.0	0.00025	163.078000069
1630.0	0.0002495	163.125
1630.0	0.00025	163.171999931
1630.0	0.0002503	163.203000069
1630.0	0.0002505	163.25
1630.0	0.0002505	163.280999899
1630.0	0.0002505	163.328000069
1630.0	0.0002503	163.375
1630.0	0.0002503	163.405999899
1630.0	0.0002513	163.453000069
1630.0	0.0002515	163.5
1630.0	0.0002515	163.530999899
1640.0	0.00024	163.812999964
1640.0	0.0002358	163.859999895
1640.0	0.0002325	163.905999899
1640.0	0.0002305	163.937999964
1640.0	0.0002288	163.984999895
1640.0	0.000227	164.030999899
1640.0	0.0002263	164.062999964
1640.0	0.0002253	164.109999895
1640.0	0.0002243	164.141000032
1640.0	0.0002233	164.187999964
1640.0	0.0002228	164.234999895
1640.0	0.0002225	164.266000032
1640.0	0.0002225	164.312999964
1640.0	0.0002228	164.359999895
1640.0	0.0002233	164.391000032
1640.0	0.0002228	164.437999964
1640.0	0.000222	164.469000101
1640.0	0.000222	164.516000032
1640.0	0.0002218	164.562999964
1640.0	0.0002218	164.594000101
1640.0	0.000222	164.641000032
1640.0	0.0002218	164.687999964
1640.0	0.0002218	164.719000101
1640.0	0.000222	164.766000032
1640.0	0.0002228	164.812999964
1640.0	0.0002238	164.844000101
1640.0	0.000224	164.891000032
1640.0	0.000224	164.921999931
1640.0	0.0002233	164.969000101
1640.0	0.0002228	165.016000032
1640.0	0.000223	165.046999931
1640.0	0.000223	165.094000101
1640.0	0.0002228	165.141000032
1640.0	0.000223	165.171999931
1640.0	0.0002228	165.219000101
1640.0	0.0002228	165.266000032
1640.0	0.0002238	165.296999931
1650.0	0.0002138	165.578000069
1650.0	0.00021	165.625
1650.0	0.0002068	165.671999931
1650.0	0.0002038	165.703000069
1650.0	0.0002013	165.75
1650.0	0.0001993	165.796999931
1650.0	0.0001983	165.828000069
1650.0	0.0001978	165.875
1650.0	0.0001968	165.905999899
1650.0	0.000197	165.953000069
1650.0	0.000197	166.0
1650.0	0.0001968	166.030999899
1650.0	0.0001968	166.078000069
1650.0	0.000197	166.125
1650.0	0.0001963	166.155999899
1650.0	0.0001958	166.203000069
1650.0	0.0001963	166.234999895
1650.0	0.0001968	166.280999899
1650.0	0.000197	166.328000069
1650.0	0.000197	166.359999895
1650.0	0.000197	166.405999899
1650.0	0.000197	166.453000069
1650.0	0.0001975	166.484999895
1650.0	0.000197	166.530999899
1650.0	0.0001968	166.578000069
1650.0	0.0001965	166.609999895
1650.0	0.000197	166.655999899
1650.0	0.0001978	166.687999964
1650.0	0.0001983	166.734999895
1650.0	0.000199	166.780999899
1650.0	0.0001993	166.812999964
1650.0	0.0001995	166.859999895
1650.0	0.0002	166.905999899
1650.0	0.0002	166.937999964
1650.0	0.0001995	166.984999895
1650.0	0.0001988	167.016000032
1650.0	0.0001978	167.062999964
1660.0	0.0001893	167.344000101
1660.0	0.0001858	167.391000032
1660.0	0.000183	167.421999931
1660.0	0.0001808	167.469000101
1660.0	0.0001788	167.516000032
1660.0	0.0001778	167.546999931
1660.0	0.0001768	167.594000101
1660.0	0.0001763	167.641000032
1660.0	0.0001765	167.671999931
1660.0	0.0001768	167.719000101
1660.0	0.000177	167.75
1660.0	0.0001775	167.796999931
1660.0	0.000178	167.844000101
1660.0	0.0001788	167.875
1660.0	0.0001788	167.921999931
1660.0	0.0001793	167.969000101
1660.0	0.00018	168.0
1660.0	0.00018	168.046999931
1660.0	0.00018	168.078000069
1660.0	0.0001793	168.125
1660.0	0.0001788	168.171999931
1660.0	0.0001783	168.203000069
1660.0	0.0001783	168.25
1660.0	0.000178	168.296999931
1660.0	0.000178	168.328000069
1660.0	0.000178	168.375
1660.0	0.000178	168.405999899
1660.0	0.000178	168.453000069
1660.0	0.0001783	168.5
1660.0	0.000178	168.530999899
1660.0	0.000177	168.578000069
1660.0	0.0001768	168.625
1660.0	0.0001763	168.655999899
1660.0	0.0001758	168.703000069
1660.0	0.0001758	168.75
1660.0	0.0001755	168.780999899
1660.0	0.0001753	168.828000069
1670.0	0.0001695	169.109999895
1670.0	0.000167	169.155999899
1670.0	0.0001645	169.187999964
1670.0	0.000162	169.234999895
1670.0	0.0001605	169.280999899
1670.0	0.0001593	169.312999964
1670.0	0.000158	169.359999895
1670.0	0.0001575	169.405999899
1670.0	0.0001578	169.437999964
1670.0	0.0001578	169.484999895
1670.0	0.000158	169.530999899
1670.0	0.0001588	169.562999964
1670.0	0.0001593	169.609999895
1670.0	0.0001593	169.641000032
1670.0	0.0001595	169.687999964
1670.0	0.0001595	169.734999895
1670.0	0.00016	169.780999899
1670.0	0.00016	169.812999964
1670.0	0.0001595	169.859999895
1670.0	0.0001593	169.891000032
1670.0	0.000159	169.937999964
1670.0	0.0001583	169.984999895
1670.0	0.0001578	170.016000032
1670.0	0.0001578	170.062999964
1670.0	0.0001575	170.109999895
1670.0	0.0001568	170.141000032
1670.0	0.0001568	170.187999964
1670.0	0.0001568	170.219000101
1670.0	0.0001568	170.266000032
1670.0	0.0001568	170.312999964
1670.0	0.0001565	170.344000101
1670.0	0.0001565	170.391000032
1670.0	0.0001565	170.437999964
1670.0	0.0001563	170.469000101
1670.0	0.0001563	170.516000032
1670.0	0.0001563	170.562999964
1680.0	0.0001493	170.844000101
1680.0	0.0001463	170.891000032
1680.0	0.0001443	170.921999931
1680.0	0.000143	170.969000101
1680.0	0.0001425	171.0
1680.0	0.000142	171.046999931
1680.0	0.0001415	171.094000101
1680.0	0.0001415	171.125
1680.0	0.0001415	171.171999931
1680.0	0.0001413	171.203000069
1680.0	0.0001405	171.25
1680.0	0.00014	171.296999931
1680.0	0.0001393	171.328000069
1680.0	0.0001388	171.375
1680.0	0.0001383	171.421999931
1680.0	0.0001383	171.469000101
1680.0	0.0001388	171.5
1680.0	0.0001388	171.546999931
1680.0	0.0001388	171.578000069
1680.0	0.0001383	171.625
1680.0	0.0001388	171.671999931
1680.0	0.000139	171.703000069
1680.0	0.0001393	171.75
1680.0	0.0001403	171.796999931
1680.0	0.0001408	171.828000069
1680.0	0.0001413	171.875
1680.0	0.0001418	171.921999931
1680.0	0.0001418	171.953000069
1680.0	0.000142	172.0
1680.0	0.000142	172.046999931
1680.0	0.000142	172.078000069
1680.0	0.0001418	172.125
1680.0	0.0001418	172.171999931
1680.0	0.0001425	172.203000069
1680.0	0.000142	172.25
1680.0	0.000142	172.296999931
1690.0	0.000135	172.578000069
1690.0	0.000133	172.625
1690.0	0.0001308	172.655999899
1690.0	0.0001293	172.703000069
1690.0	0.0001283	172.75
1690.0	0.000127	172.780999899
1690.0	0.0001263	172.828000069
1690.0	0.0001258	172.859999895
1690.0	0.0001255	172.905999899
1690.0	0.0001253	172.953000069
1690.0	0.0001253	172.984999895
1690.0	0.0001245	173.030999899
1690.0	0.0001243	173.078000069
1690.0	0.000125	173.109999895
1690.0	0.000125	173.155999899
1690.0	0.0001253	173.203000069
1690.0	0.0001253	173.234999895
1690.0	0.0001243	173.280999899
1690.0	0.000124	173.312999964
1690.0	0.000124	173.359999895
1690.0	0.0001238	173.405999899
1690.0	0.000124	173.437999964
1690.0	0.0001245	173.484999895
1690.0	0.000125	173.530999899
1690.0	0.0001253	173.562999964
1690.0	0.0001255	173.609999895
1690.0	0.0001263	173.641000032
1690.0	0.0001268	173.687999964
1690.0	0.0001268	173.734999895
1690.0	0.0001268	173.766000032
1690.0	0.0001268	173.812999964
1690.0	0.0001268	173.859999895
1690.0	0.000127	173.891000032
1690.0	0.0001268	173.937999964
1690.0	0.0001268	173.969000101
1690.0	0.0001268	174.016000032
1690.0	0.0001265	174.062999964
1700.0	0.0001218	174.344000101
1700.0	0.0001203	174.391000032
1700.0	0.000119	174.421999931
1700.0	0.0001188	174.469000101
1700.0	0.0001178	174.516000032
1700.0	0.0001168	174.546999931
1700.0	0.0001165	174.594000101
1700.0	0.0001163	174.641000032
1700.0	0.0001155	174.671999931
1700.0	0.0001153	174.719000101
1700.0	0.0001153	174.75
1700.0	0.0001153	174.796999931
1700.0	0.0001153	174.844000101
1700.0	0.0001153	174.875
1700.0	0.0001145	174.921999931
1700.0	0.0001143	174.969000101
1700.0	0.0001143	175.0
1700.0	0.0001145	175.046999931
1700.0	0.0001153	175.078000069
1700.0	0.0001153	175.125
1700.0	0.0001145	175.171999931
1700.0	0.0001138	175.203000069
1700.0	0.000113	175.25
1700.0	0.0001125	175.296999931
1700.0	0.0001128	175.328000069
1700.0	0.000113	175.375
1700.0	0.0001128	175.405999899
1700.0	0.0001128	175.453000069
1700.0	0.000113	175.5
1700.0	0.0001128	175.530999899
1700.0	0.000112	175.578000069
1700.0	0.0001118	175.625
1700.0	0.0001118	175.655999899
1700.0	0.0001113	175.703000069
1700.0	0.0001118	175.734999895
1700.0	0.0001128	175.780999899
1700.0	0.0001128	175.828000069
1710.0	0.0001083	176.109999895
1710.0	0.000107	176.155999899
1710.0	0.0001065	176.187999964
1710.0	0.0001058	176.234999895
1710.0	0.0001053	176.280999899
1710.0	0.0001045	176.312999964
1710.0	0.0001038	176.359999895
1710.0	0.0001033	176.405999899
1710.0	0.0001025	176.437999964
1710.0	0.0001013	176.484999895
1710.0	0.0001013	176.516000032
1710.0	0.0001025	176.562999964
1710.0	0.0001025	176.609999895
1710.0	0.000102	176.641000032
1710.0	0.0001028	176.687999964
1710.0	0.000103	176.734999895
1710.0	0.0001028	176.766000032
1710.0	0.0001028	176.812999964
1710.0	0.0001028	176.844000101
1710.0	0.0001018	176.891000032
1710.0	0.0001018	176.937999964
1710.0	0.0001015	176.969000101
1710.0	0.0001015	177.016000032
1710.0	0.0001018	177.062999964
1710.0	0.0001028	177.094000101
1710.0	0.0001038	177.141000032
1710.0	0.0001038	177.171999931
1710.0	0.0001033	177.219000101
1710.0	0.000103	177.266000032
1710.0	0.0001025	177.296999931
1710.0	0.000102	177.344000101
1710.0	0.0001018	177.391000032
1710.0	0.0001018	177.421999931
1710.0	0.0001018	177.469000101
1710.0	0.000102	177.516000032
1710.0	0.0001018	177.546999931
1710.0	0.0001015	177.594000101
1720.0	9.7e-05	177.891000032
1720.0	9.55e-05	177.921999931
1720.0	9.4e-05	177.969000101
1720.0	9.28e-05	178.016000032
1720.0	9.25e-05	178.046999931
1720.0	9.28e-05	178.094000101
1720.0	9.3e-05	178.141000032
1720.0	9.3e-05	178.171999931
1720.0	9.25e-05	178.219000101
1720.0	9.25e-05	178.266000032
1720.0	9.3e-05	178.296999931
1720.0	9.33e-05	178.344000101
1720.0	9.33e-05	178.391000032
1720.0	9.28e-05	178.421999931
1720.0	9.25e-05	178.469000101
1720.0	9.3e-05	178.5
1720.0	9.3e-05	178.546999931
1720.0	9.3e-05	178.594000101
1720.0	9.33e-05	178.641000032
1720.0	9.38e-05	178.671999931
1720.0	9.33e-05	178.719000101
1720.0	9.38e-05	178.75
1720.0	9.4e-05	178.796999931
1720.0	9.38e-05	178.844000101
1720.0	9.33e-05	178.875
1720.0	9.3e-05	178.921999931
1720.0	9.28e-05	178.969000101
1720.0	9.3e-05	179.0
1720.0	9.3e-05	179.046999931
1720.0	9.25e-05	179.078000069
1720.0	9.2e-05	179.125
1720.0	9.2e-05	179.171999931
1720.0	9.18e-05	179.203000069
1720.0	9.18e-05	179.25
1720.0	9.18e-05	179.296999931
1720.0	9.15e-05	179.328000069
1720.0	9.08e-05	179.375
1730.0	9.03e-05	179.655999899
1730.0	8.95e-05	179.703000069
1730.0	8.88e-05	179.75
1730.0	8.8e-05	179.780999899
1730.0	8.78e-05	179.828000069
1730.0	8.68e-05	179.859999895
1730.0	8.63e-05	179.905999899
1730.0	8.58e-05	179.953000069
1730.0	8.5e-05	179.984999895
1730.0	8.53e-05	180.030999899
1730.0	8.53e-05	180.078000069
1730.0	8.55e-05	180.109999895
1730.0	8.5e-05	180.155999899
1730.0	8.45e-05	180.187999964
1730.0	8.53e-05	180.234999895
1730.0	8.55e-05	180.280999899
1730.0	8.55e-05	180.312999964
1730.0	8.53e-05	180.359999895
1730.0	8.58e-05	180.405999899
1730.0	8.65e-05	180.437999964
1730.0	8.65e-05	180.484999895
1730.0	8.65e-05	180.516000032
1730.0	8.63e-05	180.562999964
1730.0	8.63e-05	180.609999895
1730.0	8.55e-05	180.641000032
1730.0	8.55e-05	180.687999964
1730.0	8.63e-05	180.734999895
1730.0	8.68e-05	180.766000032
1730.0	8.7e-05	180.812999964
1730.0	8.68e-05	180.844000101
1730.0	8.63e-05	180.891000032
1730.0	8.58e-05	180.937999964
1730.0	8.55e-05	180.969000101
1730.0	8.53e-05	181.016000032
1730.0	8.58e-05	181.062999964
1730.0	8.58e-05	181.094000101
1730.0	8.55e-05	181.141000032
1740.0	8.38e-05	181.421999931
1740.0	8.25e-05	181.469000101
1740.0	8.13e-05	181.516000032
1740.0	8e-05	181.546999931
1740.0	7.88e-05	181.594000101
1740.0	7.83e-05	181.625
1740.0	7.8e-05	181.671999931
1740.0	7.7e-05	181.719000101
1740.0	7.63e-05	181.75
1740.0	7.65e-05	181.796999931
1740.0	7.7e-05	181.844000101
1740.0	7.8e-05	181.875
1740.0	7.83e-05	181.921999931
1740.0	7.8e-05	181.953000069
1740.0	7.78e-05	182.0
1740.0	7.8e-05	182.046999931
1740.0	7.83e-05	182.078000069
1740.0	7.8e-05	182.125
1740.0	7.83e-05	182.171999931
1740.0	7.8e-05	182.203000069
1740.0	7.78e-05	182.25
1740.0	7.75e-05	182.280999899
1740.0	7.78e-05	182.328000069
1740.0	7.8e-05	182.375
1740.0	7.83e-05	182.405999899
1740.0	7.88e-05	182.453000069
1740.0	7.8e-05	182.5
1740.0	7.75e-05	182.530999899
1740.0	7.7e-05	182.578000069
1740.0	7.75e-05	182.625
1740.0	7.68e-05	182.655999899
1740.0	7.65e-05	182.703000069
1740.0	7.65e-05	182.734999895
1740.0	7.75e-05	182.780999899
1740.0	7.78e-05	182.828000069
1740.0	7.83e-05	182.859999895
1740.0	7.88e-05	182.905999899
1750.0	7.55e-05	183.187999964
1750.0	7.45e-05	183.234999895
1750.0	7.43e-05	183.280999899
1750.0	7.4e-05	183.312999964
1750.0	7.33e-05	183.359999895
1750.0	7.3e-05	183.391000032
1750.0	7.28e-05	183.437999964
1750.0	7.18e-05	183.484999895
1750.0	7.18e-05	183.530999899
1750.0	7.15e-05	183.562999964
1750.0	7.18e-05	183.609999895
1750.0	7.2e-05	183.641000032
1750.0	7.18e-05	183.687999964
1750.0	7.18e-05	183.734999895
1750.0	7.15e-05	183.766000032
1750.0	7.15e-05	183.812999964
1750.0	7.08e-05	183.859999895
1750.0	7.05e-05	183.891000032
1750.0	7.05e-05	183.937999964
1750.0	7.03e-05	183.984999895
1750.0	7e-05	184.016000032
1750.0	7.05e-05	184.062999964
1750.0	7.03e-05	184.109999895
1750.0	7.03e-05	184.141000032
1750.0	7.08e-05	184.187999964
1750.0	7.08e-05	184.234999895
1750.0	7.13e-05	184.266000032
1750.0	7.15e-05	184.312999964
1750.0	7.15e-05	184.359999895
1750.0	7.13e-05	184.391000032
1750.0	7.13e-05	184.437999964
1750.0	7.05e-05	184.484999895
1750.0	7e-05	184.516000032
1750.0	6.95e-05	184.562999964
1750.0	6.93e-05	184.594000101
1750.0	7e-05	184.641000032
1750.0	7.03e-05	184.687999964
1760.0	7.03e-05	184.969000101
1760.0	6.93e-05	185.016000032
1760.0	6.9e-05	185.046999931
1760.0	6.93e-05	185.094000101
1760.0	6.88e-05	185.141000032
1760.0	6.75e-05	185.171999931
1760.0	6.75e-05	185.219000101
1760.0	6.7e-05	185.25
1760.0	6.68e-05	185.296999931
1760.0	6.68e-05	185.344000101
1760.0	6.65e-05	185.375
1760.0	6.63e-05	185.421999931
1760.0	6.63e-05	185.469000101
1760.0	6.65e-05	185.5
1760.0	6.63e-05	185.546999931
1760.0	6.63e-05	185.594000101
1760.0	6.65e-05	185.625
1760.0	6.58e-05	185.671999931
1760.0	6.53e-05	185.703000069
1760.0	6.5e-05	185.75
1760.0	6.53e-05	185.796999931
1760.0	6.45e-05	185.828000069
1760.0	6.45e-05	185.875
1760.0	6.53e-05	185.921999931
1760.0	6.5e-05	185.953000069
1760.0	6.45e-05	186.0
1760.0	6.5e-05	186.030999899
1760.0	6.53e-05	186.078000069
1760.0	6.58e-05	186.125
1760.0	6.65e-05	186.171999931
1760.0	6.65e-05	186.203000069
1760.0	6.7e-05	186.25
1760.0	6.78e-05	186.296999931
1760.0	6.75e-05	186.328000069
1760.0	6.78e-05	186.375
1760.0	6.8e-05	186.405999899
1760.0	6.8e-05	186.453000069
1770.0	6.43e-05	186.734999895
1770.0	6.38e-05	186.780999899
1770.0	6.25e-05	186.828000069
1770.0	6.08e-05	186.859999895
1770.0	6e-05	186.905999899
1770.0	5.9e-05	186.953000069
1770.0	5.8e-05	186.984999895
1770.0	5.78e-05	187.030999899
1770.0	5.8e-05	187.062999964
1770.0	5.8e-05	187.109999895
1770.0	5.8e-05	187.155999899
1770.0	5.88e-05	187.187999964
1770.0	5.9e-05	187.234999895
1770.0	5.9e-05	187.280999899
1770.0	5.95e-05	187.312999964
1770.0	6e-05	187.359999895
1770.0	6e-05	187.391000032
1770.0	5.93e-05	187.437999964
1770.0	6e-05	187.484999895
1770.0	6e-05	187.516000032
1770.0	6e-05	187.562999964
1770.0	6.03e-05	187.609999895
1770.0	5.95e-05	187.641000032
1770.0	5.9e-05	187.687999964
1770.0	5.83e-05	187.734999895
1770.0	5.8e-05	187.766000032
1770.0	5.8e-05	187.812999964
1770.0	5.83e-05	187.844000101
1770.0	5.88e-05	187.891000032
1770.0	5.9e-05	187.937999964
1770.0	5.93e-05	187.969000101
1770.0	5.95e-05	188.016000032
1770.0	6e-05	188.062999964
1770.0	5.93e-05	188.094000101
1770.0	5.88e-05	188.141000032
1770.0	5.83e-05	188.171999931
1770.0	5.8e-05	188.219000101
1780.0	5.53e-05	188.5
1780.0	5.53e-05	188.546999931
1780.0	5.5e-05	188.594000101
1780.0	5.43e-05	188.625
1780.0	5.4e-05	188.671999931
1780.0	5.38e-05	188.719000101
1780.0	5.38e-05	188.75
1780.0	5.4e-05	188.796999931
1780.0	5.4e-05	188.828000069
1780.0	5.3e-05	188.875
1780.0	5.33e-05	188.921999931
1780.0	5.33e-05	188.953000069
1780.0	5.33e-05	189.0
1780.0	5.38e-05	189.046999931
1780.0	5.4e-05	189.078000069
1780.0	5.38e-05	189.125
1780.0	5.38e-05	189.155999899
1780.0	5.38e-05	189.203000069
1780.0	5.33e-05	189.25
1780.0	5.28e-05	189.280999899
1780.0	5.3e-05	189.328000069
1780.0	5.3e-05	189.375
1780.0	5.28e-05	189.405999899
1780.0	5.3e-05	189.453000069
1780.0	5.38e-05	189.5
1780.0	5.38e-05	189.530999899
1780.0	5.38e-05	189.578000069
1780.0	5.4e-05	189.609999895
1780.0	5.4e-05	189.655999899
1780.0	5.4e-05	189.703000069
1780.0	5.4e-05	189.734999895
1780.0	5.33e-05	189.780999899
1780.0	5.38e-05	189.828000069
1780.0	5.4e-05	189.859999895
1780.0	5.43e-05	189.905999899
1780.0	5.43e-05	189.937999964
1780.0	5.45e-05	189.984999895
1790.0	5.2e-05	190.266000032
1790.0	5.15e-05	190.312999964
1790.0	5.08e-05	190.359999895
1790.0	5.05e-05	190.391000032
1790.0	5.03e-05	190.437999964
1790.0	4.9e-05	190.484999895
1790.0	4.83e-05	190.516000032
1790.0	4.75e-05	190.562999964
1790.0	4.7e-05	190.609999895
1790.0	4.78e-05	190.641000032
1790.0	4.8e-05	190.687999964
1790.0	4.8e-05	190.719000101
1790.0	4.83e-05	190.766000032
1790.0	4.83e-05	190.812999964
1790.0	4.83e-05	190.844000101
1790.0	4.8e-05	190.891000032
1790.0	4.83e-05	190.937999964
1790.0	4.78e-05	190.969000101
1790.0	4.8e-05	191.016000032
1790.0	4.8e-05	191.046999931
1790.0	4.83e-05	191.094000101
1790.0	4.88e-05	191.141000032
1790.0	4.83e-05	191.171999931
1790.0	4.83e-05	191.219000101
1790.0	4.78e-05	191.266000032
1790.0	4.75e-05	191.296999931
1790.0	4.75e-05	191.344000101
1790.0	4.68e-05	191.375
1790.0	4.68e-05	191.421999931
1790.0	4.7e-05	191.469000101
1790.0	4.75e-05	191.5
1790.0	4.78e-05	191.546999931
1790.0	4.78e-05	191.594000101
1790.0	4.75e-05	191.625
1790.0	4.75e-05	191.671999931
1790.0	4.75e-05	191.703000069
1790.0	4.7e-05	191.75
1800.0	4.45e-05	192.046999931
1800.0	4.4e-05	192.078000069
1800.0	4.38e-05	192.125
1800.0	4.33e-05	192.171999931
1800.0	4.3e-05	192.203000069
1800.0	4.3e-05	192.25
1800.0	4.2e-05	192.296999931
1800.0	4.15e-05	192.328000069
1800.0	4.15e-05	192.375
1800.0	4.15e-05	192.421999931
1800.0	4.13e-05	192.453000069
1800.0	4.15e-05	192.5
1800.0	4.18e-05	192.546999931
1800.0	4.28e-05	192.578000069
1800.0	4.38e-05	192.625
1800.0	4.38e-05	192.655999899
1800.0	4.38e-05	192.703000069
1800.0	4.4e-05	192.75
1800.0	4.4e-05	192.780999899
1800.0	4.43e-05	192.828000069
1800.0	4.4e-05	192.875
1800.0	4.28e-05	192.905999899
1800.0	4.18e-05	192.953000069
1800.0	4.13e-05	192.984999895
1800.0	4.08e-05	193.030999899
1800.0	4.08e-05	193.078000069
1800.0	4.15e-05	193.109999895
1800.0	4.2e-05	193.155999899
1800.0	4.3e-05	193.203000069
1800.0	4.33e-05	193.234999895
1800.0	4.38e-05	193.280999899
1800.0	4.3e-05	193.328000069
1800.0	4.28e-05	193.359999895
1800.0	4.25e-05	193.405999899
1800.0	4.28e-05	193.437999964
1800.0	4.33e-05	193.484999895
1800.0	4.38e-05	193.530999899
