Your edit line - do NOT delete this line
Wavelength [nm], Voltage [V], Elapsed time [s]
900.0	0.0001455	14.0940001011
900.0	0.0001428	14.125
900.0	0.0001405	14.1719999313
900.0	0.0001388	14.2190001011
900.0	0.000137	14.25
900.0	0.0001355	14.2969999313
900.0	0.0001345	14.3440001011
900.0	0.0001343	14.375
900.0	0.0001338	14.4219999313
900.0	0.0001338	14.4539999962
900.0	0.0001338	14.5
900.0	0.0001338	14.5469999313
900.0	0.0001338	14.5789999962
900.0	0.0001333	14.625
900.0	0.0001333	14.6719999313
900.0	0.0001333	14.7039999962
900.0	0.0001333	14.75
900.0	0.0001333	14.7820000648
900.0	0.000133	14.8289999962
900.0	0.000133	14.875
900.0	0.000133	14.9070000648
900.0	0.0001333	14.9539999962
900.0	0.0001333	15.0
900.0	0.0001333	15.0320000648
900.0	0.0001333	15.0789999962
900.0	0.0001338	15.1099998951
900.0	0.0001338	15.1570000648
900.0	0.0001333	15.2039999962
900.0	0.000133	15.2349998951
900.0	0.000133	15.2820000648
900.0	0.0001328	15.3289999962
900.0	0.000133	15.3599998951
900.0	0.0001328	15.4070000648
900.0	0.000132	15.4379999638
900.0	0.000132	15.4849998951
900.0	0.000132	15.5320000648
900.0	0.0001325	15.5629999638
910.0	0.0001383	15.875
910.0	0.0001403	15.9219999313
910.0	0.0001418	15.9539999962
910.0	0.0001428	16.0
910.0	0.000144	16.0469999313
910.0	0.0001443	16.0789999962
910.0	0.0001445	16.125
910.0	0.0001453	16.1570000648
910.0	0.0001458	16.2039999962
910.0	0.0001463	16.25
910.0	0.0001465	16.2820000648
910.0	0.0001468	16.3289999962
910.0	0.000147	16.375
910.0	0.0001475	16.4070000648
910.0	0.000147	16.4539999962
910.0	0.000147	16.5
910.0	0.0001468	16.5320000648
910.0	0.0001468	16.5789999962
910.0	0.0001468	16.6099998951
910.0	0.0001468	16.6570000648
910.0	0.0001465	16.7039999962
910.0	0.0001465	16.75
910.0	0.0001458	16.7820000648
910.0	0.0001455	16.8289999962
910.0	0.0001455	16.8599998951
910.0	0.0001453	16.9070000648
910.0	0.0001455	16.9539999962
910.0	0.0001453	17.0
910.0	0.0001455	17.0320000648
910.0	0.0001455	17.0789999962
910.0	0.0001455	17.1099998951
910.0	0.0001455	17.1570000648
910.0	0.0001455	17.2039999962
910.0	0.0001455	17.2349998951
910.0	0.0001458	17.2820000648
910.0	0.0001458	17.3289999962
920.0	0.000153	17.625
920.0	0.0001553	17.6719999313
920.0	0.000157	17.7039999962
920.0	0.0001588	17.75
920.0	0.00016	17.7969999313
920.0	0.0001608	17.8289999962
920.0	0.0001613	17.875
920.0	0.0001615	17.9070000648
920.0	0.0001618	17.9539999962
920.0	0.000162	18.0
920.0	0.000162	18.0320000648
920.0	0.0001625	18.0789999962
920.0	0.0001628	18.125
920.0	0.000163	18.1570000648
920.0	0.0001633	18.2039999962
920.0	0.0001633	18.25
920.0	0.0001638	18.2820000648
920.0	0.0001633	18.3289999962
920.0	0.000163	18.3599998951
920.0	0.0001633	18.4070000648
920.0	0.0001633	18.4539999962
920.0	0.0001633	18.4849998951
920.0	0.0001638	18.5320000648
920.0	0.0001638	18.5629999638
920.0	0.0001633	18.6099998951
920.0	0.0001638	18.6570000648
920.0	0.0001638	18.6879999638
920.0	0.000164	18.7349998951
920.0	0.0001643	18.7820000648
920.0	0.000164	18.8129999638
920.0	0.0001638	18.8599998951
920.0	0.0001633	18.9070000648
920.0	0.000163	18.9379999638
920.0	0.000163	18.9849998951
920.0	0.0001633	19.0160000324
920.0	0.0001638	19.0629999638
920.0	0.0001643	19.1099998951
930.0	0.0001718	19.4070000648
930.0	0.000174	19.4539999962
930.0	0.0001755	19.4849998951
930.0	0.0001765	19.5320000648
930.0	0.0001778	19.5789999962
930.0	0.0001788	19.6099998951
930.0	0.0001793	19.6570000648
930.0	0.00018	19.7039999962
930.0	0.0001803	19.7349998951
930.0	0.0001803	19.7820000648
930.0	0.0001803	19.8129999638
930.0	0.0001803	19.8599998951
930.0	0.00018	19.9070000648
930.0	0.0001803	19.9379999638
930.0	0.0001803	19.9849998951
930.0	0.0001803	20.0320000648
930.0	0.0001805	20.0629999638
930.0	0.0001808	20.1099998951
930.0	0.0001808	20.1570000648
930.0	0.0001808	20.1879999638
930.0	0.0001805	20.2349998951
930.0	0.0001803	20.2820000648
930.0	0.0001803	20.3129999638
930.0	0.0001803	20.3599998951
930.0	0.00018	20.3910000324
930.0	0.0001795	20.4379999638
930.0	0.0001793	20.4849998951
930.0	0.0001793	20.5160000324
930.0	0.0001795	20.5629999638
930.0	0.0001795	20.6099998951
930.0	0.0001795	20.6410000324
930.0	0.0001795	20.6879999638
930.0	0.0001795	20.7349998951
930.0	0.0001795	20.7660000324
930.0	0.00018	20.8129999638
930.0	0.0001803	20.8440001011
930.0	0.0001805	20.8910000324
940.0	0.0001875	21.1879999638
940.0	0.0001903	21.2349998951
940.0	0.000192	21.2660000324
940.0	0.0001938	21.3129999638
940.0	0.0001953	21.3599998951
940.0	0.0001963	21.3910000324
940.0	0.0001968	21.4379999638
940.0	0.000197	21.4849998951
940.0	0.0001978	21.5160000324
940.0	0.0001983	21.5629999638
940.0	0.0001983	21.6099998951
940.0	0.0001988	21.6410000324
940.0	0.0001988	21.6879999638
940.0	0.0001983	21.7190001011
940.0	0.0001983	21.7660000324
940.0	0.0001988	21.8129999638
940.0	0.0001983	21.8440001011
940.0	0.000198	21.8910000324
940.0	0.000198	21.9379999638
940.0	0.0001978	21.9690001011
940.0	0.000198	22.0160000324
940.0	0.000198	22.0469999313
940.0	0.000198	22.0940001011
940.0	0.0001983	22.1410000324
940.0	0.0001983	22.1719999313
940.0	0.000198	22.2190001011
940.0	0.0001983	22.2660000324
940.0	0.000198	22.2969999313
940.0	0.0001983	22.3440001011
940.0	0.0001983	22.375
940.0	0.000198	22.4219999313
940.0	0.0001983	22.4690001011
940.0	0.000198	22.5
940.0	0.000198	22.5469999313
940.0	0.000198	22.5940001011
940.0	0.0001978	22.625
940.0	0.0001978	22.6719999313
950.0	0.0002063	22.9690001011
950.0	0.0002093	23.0
950.0	0.0002115	23.0469999313
950.0	0.0002128	23.0789999962
950.0	0.000214	23.125
950.0	0.000215	23.1719999313
950.0	0.0002155	23.2039999962
950.0	0.0002163	23.25
950.0	0.0002168	23.2969999313
950.0	0.0002168	23.3289999962
950.0	0.0002175	23.375
950.0	0.0002175	23.4070000648
950.0	0.0002175	23.4539999962
950.0	0.000218	23.5
950.0	0.000218	23.5320000648
950.0	0.000218	23.5789999962
950.0	0.000218	23.625
950.0	0.000218	23.6570000648
950.0	0.0002183	23.7039999962
950.0	0.000218	23.75
950.0	0.0002178	23.7820000648
950.0	0.0002178	23.8289999962
950.0	0.0002178	23.8599998951
950.0	0.000218	23.9070000648
950.0	0.0002183	23.9539999962
950.0	0.0002183	23.9849998951
950.0	0.0002183	24.0320000648
950.0	0.0002188	24.0629999638
950.0	0.000219	24.1099998951
950.0	0.0002193	24.1570000648
950.0	0.000219	24.1879999638
950.0	0.000219	24.2349998951
950.0	0.000219	24.2820000648
950.0	0.0002188	24.3129999638
950.0	0.000219	24.3599998951
950.0	0.0002188	24.4070000648
950.0	0.0002188	24.4379999638
960.0	0.0002258	24.7349998951
960.0	0.0002283	24.7660000324
960.0	0.0002305	24.8129999638
960.0	0.000232	24.8440001011
960.0	0.0002338	24.8910000324
960.0	0.000235	24.9379999638
960.0	0.0002358	24.9690001011
960.0	0.0002365	25.0160000324
960.0	0.0002368	25.0629999638
960.0	0.0002368	25.0940001011
960.0	0.0002368	25.1410000324
960.0	0.000237	25.1879999638
960.0	0.0002375	25.2190001011
960.0	0.0002375	25.2660000324
960.0	0.0002378	25.3129999638
960.0	0.0002375	25.3440001011
960.0	0.0002375	25.3910000324
960.0	0.0002375	25.4379999638
960.0	0.0002375	25.4690001011
960.0	0.0002375	25.5160000324
960.0	0.0002375	25.5469999313
960.0	0.0002375	25.5940001011
960.0	0.0002375	25.6410000324
960.0	0.0002375	25.6719999313
960.0	0.000237	25.7190001011
960.0	0.000237	25.7660000324
960.0	0.0002368	25.7969999313
960.0	0.0002368	25.8440001011
960.0	0.0002368	25.875
960.0	0.0002368	25.9219999313
960.0	0.0002365	25.9690001011
960.0	0.0002365	26.0
960.0	0.0002368	26.0469999313
960.0	0.0002368	26.0940001011
960.0	0.0002365	26.125
960.0	0.0002365	26.1719999313
960.0	0.0002368	26.2039999962
970.0	0.000245	26.5
970.0	0.0002475	26.5320000648
970.0	0.0002495	26.5789999962
970.0	0.0002518	26.6099998951
970.0	0.000253	26.6570000648
970.0	0.000254	26.7039999962
970.0	0.0002545	26.7349998951
970.0	0.000255	26.7820000648
970.0	0.0002553	26.8289999962
970.0	0.0002555	26.8599998951
970.0	0.0002555	26.9070000648
970.0	0.0002558	26.9379999638
970.0	0.0002563	26.9849998951
970.0	0.0002565	27.0320000648
970.0	0.0002565	27.0629999638
970.0	0.0002568	27.1099998951
970.0	0.0002565	27.1570000648
970.0	0.0002565	27.1879999638
970.0	0.0002565	27.2349998951
970.0	0.0002565	27.2660000324
970.0	0.0002568	27.3129999638
970.0	0.0002565	27.3599998951
970.0	0.0002565	27.3910000324
970.0	0.0002565	27.4379999638
970.0	0.0002565	27.4849998951
970.0	0.0002568	27.5160000324
970.0	0.0002568	27.5629999638
970.0	0.0002568	27.6099998951
970.0	0.000257	27.6410000324
970.0	0.000257	27.6879999638
970.0	0.000257	27.7190001011
970.0	0.000257	27.7660000324
970.0	0.0002568	27.8129999638
970.0	0.0002565	27.8440001011
970.0	0.0002563	27.8910000324
970.0	0.0002558	27.9379999638
970.0	0.0002563	27.9690001011
980.0	0.000265	28.25
980.0	0.0002678	28.2969999313
980.0	0.00027	28.3289999962
980.0	0.0002715	28.375
980.0	0.000273	28.4219999313
980.0	0.000274	28.4539999962
980.0	0.000275	28.5
980.0	0.0002755	28.5469999313
980.0	0.0002755	28.5789999962
980.0	0.0002758	28.625
980.0	0.0002763	28.6570000648
980.0	0.0002763	28.7039999962
980.0	0.0002765	28.75
980.0	0.0002768	28.7820000648
980.0	0.0002768	28.8289999962
980.0	0.000277	28.875
980.0	0.000277	28.9070000648
980.0	0.0002775	28.9539999962
980.0	0.0002775	28.9849998951
980.0	0.0002775	29.0320000648
980.0	0.0002775	29.0789999962
980.0	0.0002775	29.1099998951
980.0	0.0002775	29.1570000648
980.0	0.0002775	29.2039999962
980.0	0.000277	29.2349998951
980.0	0.000277	29.2820000648
980.0	0.000277	29.3129999638
980.0	0.0002768	29.3599998951
980.0	0.000277	29.4070000648
980.0	0.0002775	29.4379999638
980.0	0.0002778	29.4849998951
980.0	0.0002778	29.5320000648
980.0	0.0002778	29.5629999638
980.0	0.0002778	29.6099998951
980.0	0.0002778	29.6410000324
980.0	0.000278	29.6879999638
980.0	0.000278	29.7349998951
990.0	0.0002863	30.0160000324
990.0	0.0002893	30.0469999313
990.0	0.000292	30.0940001011
990.0	0.0002943	30.125
990.0	0.0002958	30.1719999313
990.0	0.0002968	30.2190001011
990.0	0.0002978	30.25
990.0	0.0002983	30.2969999313
990.0	0.0002988	30.3440001011
990.0	0.000299	30.375
990.0	0.000299	30.4219999313
990.0	0.0002993	30.4690001011
990.0	0.0002995	30.5
990.0	0.0003	30.5469999313
990.0	0.0003	30.5789999962
990.0	0.0002995	30.625
990.0	0.0003003	30.6719999313
990.0	0.0003003	30.7039999962
990.0	0.0003003	30.75
990.0	0.0003003	30.7969999313
990.0	0.0003	30.8289999962
990.0	0.0003	30.875
990.0	0.0003	30.9219999313
990.0	0.0003	30.9539999962
990.0	0.0003	31.0
990.0	0.0003	31.0469999313
990.0	0.0003003	31.0789999962
990.0	0.0003005	31.125
990.0	0.0003003	31.1570000648
990.0	0.0003	31.2039999962
990.0	0.0003003	31.25
990.0	0.0003003	31.2820000648
990.0	0.0003005	31.3289999962
990.0	0.0003008	31.375
990.0	0.0003008	31.4070000648
990.0	0.0003013	31.4539999962
990.0	0.0003013	31.5
1000.0	0.000309	31.7660000324
1000.0	0.000312	31.8129999638
1000.0	0.0003145	31.8599998951
1000.0	0.0003165	31.8910000324
1000.0	0.000318	31.9379999638
1000.0	0.0003193	31.9849998951
1000.0	0.0003203	32.0160000324
1000.0	0.0003208	32.0629999638
1000.0	0.0003213	32.0940001011
1000.0	0.0003215	32.1410000324
1000.0	0.0003218	32.1879999638
1000.0	0.0003218	32.2190001011
1000.0	0.0003225	32.2660000324
1000.0	0.0003225	32.3129999638
1000.0	0.0003228	32.3440001011
1000.0	0.000323	32.3910000324
1000.0	0.000323	32.4219999313
1000.0	0.000323	32.4690001011
1000.0	0.000323	32.5160000324
1000.0	0.0003228	32.5469999313
1000.0	0.0003225	32.5940001011
1000.0	0.0003225	32.6410000324
1000.0	0.000322	32.6719999313
1000.0	0.0003225	32.7190001011
1000.0	0.000322	32.7660000324
1000.0	0.000322	32.7969999313
1000.0	0.000322	32.8440001011
1000.0	0.0003225	32.8910000324
1000.0	0.0003225	32.9219999313
1000.0	0.0003225	32.9690001011
1000.0	0.000322	33.0
1000.0	0.000322	33.0469999313
1000.0	0.000322	33.0940001011
1000.0	0.000322	33.125
1000.0	0.0003225	33.1719999313
1000.0	0.0003225	33.2190001011
1000.0	0.000322	33.25
1010.0	0.0003315	33.5320000648
1010.0	0.0003345	33.5789999962
1010.0	0.0003375	33.6099998951
1010.0	0.0003393	33.6570000648
1010.0	0.0003413	33.7039999962
1010.0	0.0003425	33.75
1010.0	0.0003433	33.7820000648
1010.0	0.000344	33.8289999962
1010.0	0.0003443	33.8599998951
1010.0	0.0003445	33.9070000648
1010.0	0.000345	33.9539999962
1010.0	0.0003453	33.9849998951
1010.0	0.0003455	34.0320000648
1010.0	0.0003455	34.0789999962
1010.0	0.0003458	34.1099998951
1010.0	0.0003463	34.1570000648
1010.0	0.0003463	34.1879999638
1010.0	0.0003463	34.2349998951
1010.0	0.0003465	34.2820000648
1010.0	0.0003468	34.3129999638
1010.0	0.0003468	34.3599998951
1010.0	0.0003468	34.4070000648
1010.0	0.0003468	34.4379999638
1010.0	0.0003468	34.4849998951
1010.0	0.0003468	34.5160000324
1010.0	0.0003465	34.5629999638
1010.0	0.0003465	34.6099998951
1010.0	0.0003465	34.6410000324
1010.0	0.0003465	34.6879999638
1010.0	0.0003465	34.7349998951
1010.0	0.0003468	34.7660000324
1010.0	0.0003468	34.8129999638
1010.0	0.0003468	34.8599998951
1010.0	0.0003465	34.8910000324
1010.0	0.0003465	34.9379999638
1010.0	0.0003465	34.9849998951
1020.0	0.0003575	35.2660000324
1020.0	0.0003613	35.3129999638
1020.0	0.0003638	35.3440001011
1020.0	0.0003663	35.3910000324
1020.0	0.0003678	35.4379999638
1020.0	0.0003688	35.4690001011
1020.0	0.0003693	35.5160000324
1020.0	0.0003703	35.5469999313
1020.0	0.0003708	35.5940001011
1020.0	0.0003713	35.6410000324
1020.0	0.0003718	35.6719999313
1020.0	0.0003718	35.7190001011
1020.0	0.0003718	35.7660000324
1020.0	0.000372	35.7969999313
1020.0	0.000372	35.8440001011
1020.0	0.0003725	35.875
1020.0	0.000372	35.9219999313
1020.0	0.000372	35.9690001011
1020.0	0.000372	36.0
1020.0	0.0003725	36.0469999313
1020.0	0.0003728	36.0940001011
1020.0	0.000373	36.125
1020.0	0.000373	36.1719999313
1020.0	0.000373	36.2190001011
1020.0	0.0003728	36.25
1020.0	0.0003725	36.2969999313
1020.0	0.0003725	36.3289999962
1020.0	0.000372	36.375
1020.0	0.000372	36.4219999313
1020.0	0.000372	36.4539999962
1020.0	0.000372	36.5
1020.0	0.000372	36.5469999313
1020.0	0.0003725	36.5789999962
1020.0	0.000372	36.625
1020.0	0.000372	36.6570000648
1020.0	0.000372	36.7039999962
1020.0	0.000372	36.75
1030.0	0.000383	37.0320000648
1030.0	0.0003865	37.0629999638
1030.0	0.0003895	37.1099998951
1030.0	0.0003918	37.1570000648
1030.0	0.0003938	37.1879999638
1030.0	0.000395	37.2349998951
1030.0	0.0003958	37.2820000648
1030.0	0.0003965	37.3129999638
1030.0	0.0003965	37.3599998951
1030.0	0.0003968	37.3910000324
1030.0	0.0003975	37.4379999638
1030.0	0.0003975	37.4849998951
1030.0	0.0003978	37.5160000324
1030.0	0.0003983	37.5629999638
1030.0	0.0003983	37.6099998951
1030.0	0.0003988	37.6410000324
1030.0	0.000399	37.6879999638
1030.0	0.000399	37.7349998951
1030.0	0.000399	37.7660000324
1030.0	0.000399	37.8129999638
1030.0	0.0003993	37.8440001011
1030.0	0.0003993	37.8910000324
1030.0	0.0003993	37.9379999638
1030.0	0.0003995	37.9690001011
1030.0	0.0003995	38.0160000324
1030.0	0.0003993	38.0629999638
1030.0	0.0003995	38.0940001011
1030.0	0.0003995	38.1410000324
1030.0	0.0003993	38.1879999638
1030.0	0.0003995	38.2190001011
1030.0	0.0003995	38.2660000324
1030.0	0.0003995	38.3129999638
1030.0	0.0003995	38.3440001011
1030.0	0.0004	38.3910000324
1030.0	0.0004	38.4219999313
1030.0	0.0004003	38.4690001011
1030.0	0.0004	38.5160000324
1040.0	0.0004103	38.7969999313
1040.0	0.0004143	38.8289999962
1040.0	0.0004175	38.875
1040.0	0.00042	38.9219999313
1040.0	0.0004215	38.9539999962
1040.0	0.000423	39.0
1040.0	0.0004243	39.0469999313
1040.0	0.0004253	39.0789999962
1040.0	0.0004258	39.125
1040.0	0.0004263	39.1719999313
1040.0	0.0004268	39.2039999962
1040.0	0.000427	39.25
1040.0	0.0004278	39.2820000648
1040.0	0.000428	39.3289999962
1040.0	0.000428	39.375
1040.0	0.000428	39.4070000648
1040.0	0.0004278	39.4539999962
1040.0	0.0004275	39.5
1040.0	0.000427	39.5320000648
1040.0	0.000427	39.5789999962
1040.0	0.000427	39.6099998951
1040.0	0.0004275	39.6570000648
1040.0	0.0004275	39.7039999962
1040.0	0.0004275	39.7349998951
1040.0	0.0004275	39.7820000648
1040.0	0.0004278	39.8289999962
1040.0	0.0004278	39.8599998951
1040.0	0.000428	39.9070000648
1040.0	0.0004283	39.9379999638
1040.0	0.000428	39.9849998951
1040.0	0.0004283	40.0320000648
1040.0	0.0004288	40.0629999638
1040.0	0.0004283	40.1099998951
1040.0	0.000428	40.1570000648
1040.0	0.000428	40.1879999638
1040.0	0.000428	40.2349998951
1040.0	0.000428	40.2660000324
1050.0	0.000439	40.5629999638
1050.0	0.0004428	40.5940001011
1050.0	0.0004455	40.6410000324
1050.0	0.000448	40.6879999638
1050.0	0.00045	40.7190001011
1050.0	0.0004513	40.7660000324
1050.0	0.0004528	40.7969999313
1050.0	0.0004538	40.8440001011
1050.0	0.0004545	40.8910000324
1050.0	0.0004558	40.9219999313
1050.0	0.0004568	40.9690001011
1050.0	0.000457	41.0160000324
1050.0	0.0004575	41.0469999313
1050.0	0.0004575	41.0940001011
1050.0	0.0004568	41.1410000324
1050.0	0.0004568	41.1719999313
1050.0	0.0004565	41.2190001011
1050.0	0.0004565	41.2660000324
1050.0	0.0004568	41.2969999313
1050.0	0.0004568	41.3440001011
1050.0	0.0004568	41.3910000324
1050.0	0.000457	41.4219999313
1050.0	0.000457	41.4690001011
1050.0	0.0004568	41.5160000324
1050.0	0.0004568	41.5469999313
1050.0	0.0004568	41.5940001011
1050.0	0.000457	41.625
1050.0	0.0004568	41.6719999313
1050.0	0.0004568	41.7190001011
1050.0	0.000457	41.75
1050.0	0.0004578	41.7969999313
1050.0	0.000458	41.8440001011
1050.0	0.000458	41.875
1050.0	0.000458	41.9219999313
1050.0	0.000458	41.9690001011
1050.0	0.000458	42.0
1050.0	0.0004578	42.0469999313
1060.0	0.0004678	42.3289999962
1060.0	0.000472	42.375
1060.0	0.0004755	42.4070000648
1060.0	0.000478	42.4539999962
1060.0	0.0004803	42.4849998951
1060.0	0.0004818	42.5320000648
1060.0	0.0004828	42.5789999962
1060.0	0.0004833	42.6099998951
1060.0	0.000484	42.6570000648
1060.0	0.0004843	42.7039999962
1060.0	0.0004845	42.7349998951
1060.0	0.0004845	42.7820000648
1060.0	0.000485	42.8129999638
1060.0	0.0004853	42.8599998951
1060.0	0.0004855	42.9070000648
1060.0	0.0004858	42.9379999638
1060.0	0.0004853	42.9849998951
1060.0	0.0004853	43.0320000648
1060.0	0.0004853	43.0629999638
1060.0	0.000485	43.1099998951
1060.0	0.000485	43.1410000324
1060.0	0.0004853	43.1879999638
1060.0	0.0004855	43.2349998951
1060.0	0.0004855	43.2820000648
1060.0	0.0004858	43.3129999638
1060.0	0.0004855	43.3599998951
1060.0	0.0004858	43.3910000324
1060.0	0.0004858	43.4379999638
1060.0	0.0004863	43.4849998951
1060.0	0.0004863	43.5160000324
1060.0	0.0004863	43.5629999638
1060.0	0.0004863	43.6099998951
1060.0	0.0004863	43.6410000324
1060.0	0.0004863	43.6879999638
1060.0	0.0004858	43.7349998951
1060.0	0.0004858	43.7660000324
1060.0	0.0004855	43.8129999638
1070.0	0.0004975	44.0940001011
1070.0	0.0005008	44.1410000324
1070.0	0.0005038	44.1719999313
1070.0	0.0005063	44.2190001011
1070.0	0.0005078	44.25
1070.0	0.0005093	44.2969999313
1070.0	0.0005105	44.3440001011
1070.0	0.0005113	44.375
1070.0	0.0005115	44.4219999313
1070.0	0.0005118	44.4690001011
1070.0	0.000512	44.5
1070.0	0.0005125	44.5469999313
1070.0	0.0005128	44.5940001011
1070.0	0.000513	44.625
1070.0	0.000513	44.6719999313
1070.0	0.0005133	44.7039999962
1070.0	0.0005133	44.75
1070.0	0.0005133	44.7969999313
1070.0	0.0005133	44.8289999962
1070.0	0.0005133	44.875
1070.0	0.0005138	44.9219999313
1070.0	0.000514	44.9539999962
1070.0	0.0005143	45.0
1070.0	0.0005138	45.0320000648
1070.0	0.0005133	45.0789999962
1070.0	0.000513	45.125
1070.0	0.0005128	45.1570000648
1070.0	0.0005128	45.2039999962
1070.0	0.0005128	45.25
1070.0	0.0005128	45.2820000648
1070.0	0.000513	45.3289999962
1070.0	0.000513	45.3599998951
1070.0	0.000513	45.4070000648
1070.0	0.000513	45.4539999962
1070.0	0.000513	45.4849998951
1070.0	0.0005128	45.5320000648
1070.0	0.0005128	45.5789999962
1080.0	0.0005238	45.8599998951
1080.0	0.0005275	45.8910000324
1080.0	0.00053	45.9379999638
1080.0	0.000532	45.9849998951
1080.0	0.000534	46.0160000324
1080.0	0.0005353	46.0629999638
1080.0	0.0005368	46.0940001011
1080.0	0.0005375	46.1410000324
1080.0	0.000538	46.1879999638
1080.0	0.0005383	46.2190001011
1080.0	0.0005388	46.2660000324
1080.0	0.0005388	46.3129999638
1080.0	0.0005388	46.3440001011
1080.0	0.0005388	46.3910000324
1080.0	0.0005388	46.4379999638
1080.0	0.000539	46.4690001011
1080.0	0.0005388	46.5160000324
1080.0	0.000539	46.5629999638
1080.0	0.0005388	46.5940001011
1080.0	0.000539	46.6410000324
1080.0	0.000539	46.6879999638
1080.0	0.000539	46.7190001011
1080.0	0.0005395	46.7660000324
1080.0	0.00054	46.7969999313
1080.0	0.0005403	46.8440001011
1080.0	0.0005403	46.8910000324
1080.0	0.00054	46.9379999638
1080.0	0.00054	46.9690001011
1080.0	0.0005393	47.0160000324
1080.0	0.000539	47.0469999313
1080.0	0.0005388	47.0940001011
1080.0	0.0005388	47.1410000324
1080.0	0.0005383	47.1719999313
1080.0	0.0005383	47.2190001011
1080.0	0.000538	47.2660000324
1080.0	0.000538	47.2969999313
1080.0	0.000538	47.3440001011
1090.0	0.0005478	47.625
1090.0	0.0005515	47.6719999313
1090.0	0.0005543	47.7039999962
1090.0	0.0005563	47.75
1090.0	0.0005578	47.7969999313
1090.0	0.000559	47.8289999962
1090.0	0.0005595	47.875
1090.0	0.0005605	47.9219999313
1090.0	0.0005613	47.9539999962
1090.0	0.0005613	48.0
1090.0	0.0005613	48.0469999313
1090.0	0.0005613	48.0789999962
1090.0	0.0005615	48.125
1090.0	0.0005615	48.1570000648
1090.0	0.0005618	48.2039999962
1090.0	0.0005618	48.25
1090.0	0.0005618	48.2820000648
1090.0	0.0005618	48.3289999962
1090.0	0.000562	48.375
1090.0	0.0005618	48.4070000648
1090.0	0.0005618	48.4539999962
1090.0	0.0005618	48.5
1090.0	0.0005618	48.5320000648
1090.0	0.000562	48.5789999962
1090.0	0.000562	48.6099998951
1090.0	0.000562	48.6570000648
1090.0	0.0005625	48.7039999962
1090.0	0.000562	48.7349998951
1090.0	0.0005618	48.7820000648
1090.0	0.0005615	48.8129999638
1090.0	0.0005615	48.8599998951
1090.0	0.0005618	48.9070000648
1090.0	0.0005618	48.9379999638
1090.0	0.0005618	48.9849998951
1090.0	0.0005618	49.0320000648
1090.0	0.0005618	49.0629999638
1090.0	0.0005618	49.1099998951
1100.0	0.0005708	49.3910000324
1100.0	0.000574	49.4379999638
1100.0	0.0005763	49.4690001011
1100.0	0.0005778	49.5160000324
1100.0	0.000579	49.5629999638
1100.0	0.00058	49.5940001011
1100.0	0.0005808	49.6410000324
1100.0	0.0005813	49.6719999313
1100.0	0.0005818	49.7190001011
1100.0	0.0005818	49.7660000324
1100.0	0.000582	49.8129999638
1100.0	0.000582	49.8440001011
1100.0	0.0005825	49.8910000324
1100.0	0.0005825	49.9219999313
1100.0	0.0005828	49.9690001011
1100.0	0.0005828	50.0160000324
1100.0	0.000583	50.0469999313
1100.0	0.000583	50.0940001011
1100.0	0.0005833	50.1410000324
1100.0	0.000583	50.1719999313
1100.0	0.000583	50.2190001011
1100.0	0.000583	50.2660000324
1100.0	0.000583	50.2969999313
1100.0	0.000583	50.3440001011
1100.0	0.000583	50.375
1100.0	0.000583	50.4219999313
1100.0	0.000583	50.4690001011
1100.0	0.000583	50.5
1100.0	0.0005828	50.5469999313
1100.0	0.0005828	50.5940001011
1100.0	0.0005825	50.625
1100.0	0.0005825	50.6719999313
1100.0	0.0005828	50.7039999962
1100.0	0.0005828	50.75
1100.0	0.0005828	50.7969999313
1100.0	0.000583	50.8289999962
1100.0	0.000583	50.875
1110.0	0.00059	51.1570000648
1110.0	0.0005928	51.1879999638
1110.0	0.0005945	51.2349998951
1110.0	0.0005963	51.2820000648
1110.0	0.0005978	51.3129999638
1110.0	0.0005988	51.3599998951
1110.0	0.0005995	51.4070000648
1110.0	0.0006003	51.4379999638
1110.0	0.0006005	51.4849998951
1110.0	0.0006005	51.5160000324
1110.0	0.0006005	51.5629999638
1110.0	0.0006008	51.6099998951
1110.0	0.0006013	51.6410000324
1110.0	0.0006013	51.6879999638
1110.0	0.0006013	51.7349998951
1110.0	0.0006008	51.7660000324
1110.0	0.0006005	51.8129999638
1110.0	0.0006008	51.8440001011
1110.0	0.0006013	51.8910000324
1110.0	0.0006008	51.9379999638
1110.0	0.0006008	51.9690001011
1110.0	0.0006005	52.0160000324
1110.0	0.0006005	52.0629999638
1110.0	0.0006005	52.0940001011
1110.0	0.0006005	52.1410000324
1110.0	0.0006005	52.1879999638
1110.0	0.0006005	52.2190001011
1110.0	0.0006008	52.2660000324
1110.0	0.0006008	52.2969999313
1110.0	0.0006005	52.3440001011
1110.0	0.0006008	52.3910000324
1110.0	0.0006005	52.4219999313
1110.0	0.0006005	52.4690001011
1110.0	0.0006005	52.5160000324
1110.0	0.0006005	52.5469999313
1110.0	0.0006005	52.5940001011
1110.0	0.0006003	52.625
1120.0	0.0006068	52.9070000648
1120.0	0.000609	52.9539999962
1120.0	0.0006108	53.0
1120.0	0.000612	53.0320000648
1120.0	0.0006133	53.0789999962
1120.0	0.000614	53.1099998951
1120.0	0.0006145	53.1570000648
1120.0	0.0006153	53.2039999962
1120.0	0.0006153	53.2349998951
1120.0	0.0006155	53.2820000648
1120.0	0.0006158	53.3289999962
1120.0	0.0006158	53.3599998951
1120.0	0.0006158	53.4070000648
1120.0	0.0006163	53.4539999962
1120.0	0.0006163	53.4849998951
1120.0	0.0006165	53.5320000648
1120.0	0.0006165	53.5789999962
1120.0	0.0006168	53.6099998951
1120.0	0.0006168	53.6570000648
1120.0	0.000617	53.7039999962
1120.0	0.000617	53.7349998951
1120.0	0.000617	53.7820000648
1120.0	0.000617	53.8129999638
1120.0	0.0006175	53.8599998951
1120.0	0.0006175	53.9070000648
1120.0	0.0006175	53.9379999638
1120.0	0.0006168	53.9849998951
1120.0	0.0006165	54.0320000648
1120.0	0.0006165	54.0629999638
1120.0	0.0006165	54.1099998951
1120.0	0.0006163	54.1410000324
1120.0	0.0006163	54.1879999638
1120.0	0.0006165	54.2349998951
1120.0	0.0006168	54.2820000648
1120.0	0.0006168	54.3129999638
1120.0	0.0006168	54.3599998951
1120.0	0.0006165	54.3910000324
1130.0	0.0006218	54.6719999313
1130.0	0.000624	54.7190001011
1130.0	0.0006253	54.75
1130.0	0.0006263	54.7969999313
1130.0	0.0006268	54.8440001011
1130.0	0.0006275	54.875
1130.0	0.000628	54.9219999313
1130.0	0.0006283	54.9539999962
1130.0	0.0006293	55.0
1130.0	0.0006293	55.0469999313
1130.0	0.00063	55.0789999962
1130.0	0.00063	55.125
1130.0	0.0006295	55.1719999313
1130.0	0.00063	55.2039999962
1130.0	0.0006295	55.25
1130.0	0.0006295	55.2969999313
1130.0	0.0006295	55.3289999962
1130.0	0.0006295	55.375
1130.0	0.00063	55.4070000648
1130.0	0.0006303	55.4539999962
1130.0	0.0006303	55.5
1130.0	0.0006303	55.5320000648
1130.0	0.0006303	55.5789999962
1130.0	0.0006303	55.625
1130.0	0.0006303	55.6570000648
1130.0	0.0006303	55.7039999962
1130.0	0.0006303	55.7349998951
1130.0	0.0006305	55.7820000648
1130.0	0.0006305	55.8289999962
1130.0	0.0006305	55.8599998951
1130.0	0.0006308	55.9070000648
1130.0	0.0006305	55.9539999962
1130.0	0.0006308	55.9849998951
1130.0	0.0006305	56.0320000648
1130.0	0.0006305	56.0629999638
1130.0	0.0006305	56.1099998951
1130.0	0.0006305	56.1570000648
1140.0	0.0006343	56.4219999313
1140.0	0.0006355	56.4690001011
1140.0	0.0006363	56.5
1140.0	0.000637	56.5469999313
1140.0	0.000638	56.5940001011
1140.0	0.0006383	56.625
1140.0	0.000639	56.6719999313
1140.0	0.0006393	56.7039999962
1140.0	0.0006395	56.75
1140.0	0.0006395	56.7969999313
1140.0	0.0006395	56.8289999962
1140.0	0.0006398	56.875
1140.0	0.0006398	56.9219999313
1140.0	0.0006395	56.9539999962
1140.0	0.0006395	57.0
1140.0	0.0006393	57.0469999313
1140.0	0.0006393	57.0789999962
1140.0	0.0006398	57.125
1140.0	0.0006398	57.1719999313
1140.0	0.00064	57.2039999962
1140.0	0.0006403	57.25
1140.0	0.00064	57.2969999313
1140.0	0.0006403	57.3289999962
1140.0	0.0006405	57.375
1140.0	0.000641	57.4070000648
1140.0	0.0006405	57.4539999962
1140.0	0.000641	57.5
1140.0	0.0006405	57.5320000648
1140.0	0.0006405	57.5789999962
1140.0	0.0006403	57.625
1140.0	0.00064	57.6570000648
1140.0	0.0006403	57.7039999962
1140.0	0.00064	57.7349998951
1140.0	0.0006403	57.7820000648
1140.0	0.0006405	57.8289999962
1140.0	0.000641	57.8599998951
1140.0	0.000641	57.9070000648
1150.0	0.0006438	58.1719999313
1150.0	0.000645	58.2190001011
1150.0	0.000646	58.2660000324
1150.0	0.0006465	58.2969999313
1150.0	0.0006473	58.3440001011
1150.0	0.0006475	58.375
1150.0	0.0006478	58.4219999313
1150.0	0.000648	58.4690001011
1150.0	0.0006488	58.5
1150.0	0.000649	58.5469999313
1150.0	0.0006493	58.5940001011
1150.0	0.0006493	58.625
1150.0	0.0006493	58.6719999313
1150.0	0.0006498	58.7190001011
1150.0	0.0006493	58.75
1150.0	0.0006493	58.7969999313
1150.0	0.0006493	58.8289999962
1150.0	0.000649	58.875
1150.0	0.0006493	58.9219999313
1150.0	0.0006493	58.9539999962
1150.0	0.000649	59.0
1150.0	0.0006493	59.0469999313
1150.0	0.000649	59.0789999962
1150.0	0.000649	59.125
1150.0	0.000649	59.1570000648
1150.0	0.0006488	59.2039999962
1150.0	0.0006488	59.25
1150.0	0.0006488	59.2969999313
1150.0	0.0006485	59.3289999962
1150.0	0.0006485	59.375
1150.0	0.000648	59.4070000648
1150.0	0.0006478	59.4539999962
1150.0	0.000648	59.5
1150.0	0.0006478	59.5320000648
1150.0	0.0006478	59.5789999962
1150.0	0.0006478	59.625
1160.0	0.0006505	59.875
1160.0	0.0006518	59.9219999313
1160.0	0.0006523	59.9690001011
1160.0	0.000653	60.0
1160.0	0.0006538	60.0469999313
1160.0	0.000654	60.0940001011
1160.0	0.0006543	60.125
1160.0	0.0006548	60.1719999313
1160.0	0.0006548	60.2039999962
1160.0	0.000655	60.25
1160.0	0.0006553	60.2969999313
1160.0	0.0006553	60.3289999962
1160.0	0.0006553	60.375
1160.0	0.0006553	60.4219999313
1160.0	0.000655	60.4539999962
1160.0	0.0006548	60.5
1160.0	0.0006543	60.5320000648
1160.0	0.0006543	60.5789999962
1160.0	0.0006543	60.625
1160.0	0.0006548	60.6719999313
1160.0	0.000655	60.7039999962
1160.0	0.0006553	60.75
1160.0	0.0006555	60.7820000648
1160.0	0.000656	60.8289999962
1160.0	0.0006555	60.875
1160.0	0.000655	60.9070000648
1160.0	0.0006548	60.9539999962
1160.0	0.0006543	61.0
1160.0	0.0006543	61.0320000648
1160.0	0.0006543	61.0789999962
1160.0	0.000654	61.125
1160.0	0.000654	61.1570000648
1160.0	0.0006538	61.2039999962
1160.0	0.000654	61.2349998951
1160.0	0.0006543	61.2820000648
1160.0	0.0006543	61.3289999962
1160.0	0.0006543	61.375
1170.0	0.0006565	61.625
1170.0	0.0006575	61.6719999313
1170.0	0.0006588	61.7039999962
1170.0	0.0006598	61.75
1170.0	0.00066	61.7969999313
1170.0	0.00066	61.8289999962
1170.0	0.0006598	61.875
1170.0	0.0006593	61.9219999313
1170.0	0.0006593	61.9539999962
1170.0	0.00066	62.0
1170.0	0.0006603	62.0320000648
1170.0	0.0006605	62.0789999962
1170.0	0.0006605	62.125
1170.0	0.0006605	62.1570000648
1170.0	0.0006605	62.2039999962
1170.0	0.0006603	62.25
1170.0	0.0006603	62.2820000648
1170.0	0.00066	62.3289999962
1170.0	0.00066	62.3599998951
1170.0	0.00066	62.4070000648
1170.0	0.0006598	62.4539999962
1170.0	0.0006598	62.4849998951
1170.0	0.00066	62.5320000648
1170.0	0.00066	62.5789999962
1170.0	0.00066	62.6099998951
1170.0	0.00066	62.6570000648
1170.0	0.00066	62.6879999638
1170.0	0.0006603	62.7349998951
1170.0	0.0006603	62.7820000648
1170.0	0.0006605	62.8129999638
1170.0	0.000661	62.8599998951
1170.0	0.0006613	62.9070000648
1170.0	0.0006613	62.9379999638
1170.0	0.0006613	62.9849998951
1170.0	0.0006613	63.0160000324
1170.0	0.0006615	63.0629999638
1170.0	0.0006613	63.1099998951
1180.0	0.000663	63.3599998951
1180.0	0.000664	63.4070000648
1180.0	0.0006648	63.4539999962
1180.0	0.0006653	63.4849998951
1180.0	0.000666	63.5320000648
1180.0	0.0006663	63.5629999638
1180.0	0.0006665	63.6099998951
1180.0	0.0006665	63.6570000648
1180.0	0.0006663	63.6879999638
1180.0	0.0006665	63.7349998951
1180.0	0.0006665	63.7820000648
1180.0	0.0006668	63.8129999638
1180.0	0.0006675	63.8599998951
1180.0	0.0006678	63.8910000324
1180.0	0.0006678	63.9379999638
1180.0	0.0006678	63.9849998951
1180.0	0.0006678	64.0160000324
1180.0	0.0006675	64.0629999638
1180.0	0.0006678	64.1099998951
1180.0	0.0006675	64.1410000324
1180.0	0.0006678	64.1879999638
1180.0	0.000668	64.2190001011
1180.0	0.000668	64.2660000324
1180.0	0.0006685	64.3129999638
1180.0	0.000668	64.3440001011
1180.0	0.000668	64.3910000324
1180.0	0.000668	64.4379999638
1180.0	0.0006685	64.4690001011
1180.0	0.0006685	64.5160000324
1180.0	0.0006688	64.5629999638
1180.0	0.0006688	64.5940001011
1180.0	0.0006688	64.6410000324
1180.0	0.0006688	64.6719999313
1180.0	0.0006685	64.7190001011
1180.0	0.0006688	64.7660000324
1180.0	0.0006685	64.7969999313
1180.0	0.0006685	64.8440001011
1190.0	0.0006713	65.1099998951
1190.0	0.0006723	65.1410000324
1190.0	0.0006735	65.1879999638
1190.0	0.0006743	65.2349998951
1190.0	0.0006743	65.2660000324
1190.0	0.000675	65.3129999638
1190.0	0.0006753	65.3599998951
1190.0	0.0006755	65.3910000324
1190.0	0.000676	65.4379999638
1190.0	0.0006763	65.4849998951
1190.0	0.0006765	65.5160000324
1190.0	0.0006768	65.5629999638
1190.0	0.0006768	65.6099998951
1190.0	0.0006768	65.6410000324
1190.0	0.0006765	65.6879999638
1190.0	0.0006765	65.7190001011
1190.0	0.0006765	65.7660000324
1190.0	0.0006763	65.8129999638
1190.0	0.000676	65.8440001011
1190.0	0.0006765	65.8910000324
1190.0	0.0006765	65.9379999638
1190.0	0.0006765	65.9690001011
1190.0	0.0006765	66.0160000324
1190.0	0.0006763	66.0469999313
1190.0	0.000676	66.0940001011
1190.0	0.0006755	66.1410000324
1190.0	0.0006755	66.1719999313
1190.0	0.0006753	66.2190001011
1190.0	0.0006755	66.2660000324
1190.0	0.0006755	66.2969999313
1190.0	0.000676	66.3440001011
1190.0	0.000676	66.3910000324
1190.0	0.000676	66.4219999313
1190.0	0.0006763	66.4690001011
1190.0	0.000676	66.5
1190.0	0.0006763	66.5469999313
1190.0	0.0006763	66.5940001011
1200.0	0.000678	66.8440001011
1200.0	0.000679	66.8910000324
1200.0	0.0006798	66.9379999638
1200.0	0.0006805	66.9690001011
1200.0	0.0006813	67.0160000324
1200.0	0.0006818	67.0629999638
1200.0	0.0006818	67.0940001011
1200.0	0.0006818	67.1410000324
1200.0	0.0006818	67.1719999313
1200.0	0.0006818	67.2190001011
1200.0	0.0006823	67.2660000324
1200.0	0.0006823	67.2969999313
1200.0	0.0006823	67.3440001011
1200.0	0.0006823	67.3910000324
1200.0	0.0006823	67.4219999313
1200.0	0.0006823	67.4690001011
1200.0	0.0006818	67.5160000324
1200.0	0.0006818	67.5469999313
1200.0	0.0006818	67.5940001011
1200.0	0.0006818	67.625
1200.0	0.0006818	67.6719999313
1200.0	0.0006818	67.7190001011
1200.0	0.0006815	67.75
1200.0	0.0006815	67.7969999313
1200.0	0.0006815	67.8440001011
1200.0	0.0006815	67.875
1200.0	0.0006818	67.9219999313
1200.0	0.0006818	67.9539999962
1200.0	0.0006823	68.0
1200.0	0.0006823	68.0469999313
1200.0	0.0006818	68.0789999962
1200.0	0.0006818	68.125
1200.0	0.0006823	68.1719999313
1200.0	0.0006823	68.2039999962
1200.0	0.0006825	68.25
1200.0	0.0006823	68.2969999313
1200.0	0.0006823	68.3289999962
1210.0	0.0006838	68.5940001011
1210.0	0.0006848	68.6410000324
1210.0	0.0006853	68.6719999313
1210.0	0.000686	68.7190001011
1210.0	0.0006863	68.75
1210.0	0.0006868	68.7969999313
1210.0	0.0006875	68.8440001011
1210.0	0.0006878	68.875
1210.0	0.0006878	68.9219999313
1210.0	0.000688	68.9690001011
1210.0	0.000688	69.0
1210.0	0.0006885	69.0469999313
1210.0	0.0006888	69.0940001011
1210.0	0.0006888	69.125
1210.0	0.0006888	69.1719999313
1210.0	0.0006885	69.2039999962
1210.0	0.0006885	69.25
1210.0	0.000688	69.2969999313
1210.0	0.0006885	69.3289999962
1210.0	0.0006885	69.375
1210.0	0.0006888	69.4219999313
1210.0	0.000689	69.4539999962
1210.0	0.000689	69.5
1210.0	0.000689	69.5320000648
1210.0	0.000689	69.5789999962
1210.0	0.000689	69.625
1210.0	0.000689	69.6570000648
1210.0	0.000689	69.7039999962
1210.0	0.0006888	69.75
1210.0	0.0006885	69.7820000648
1210.0	0.0006888	69.8289999962
1210.0	0.0006885	69.8599998951
1210.0	0.0006885	69.9070000648
1210.0	0.000688	69.9539999962
1210.0	0.0006878	69.9849998951
1210.0	0.000688	70.0320000648
1210.0	0.000688	70.0789999962
1220.0	0.000691	70.3440001011
1220.0	0.0006918	70.375
1220.0	0.000693	70.4219999313
1220.0	0.0006938	70.4690001011
1220.0	0.0006943	70.5
1220.0	0.0006948	70.5469999313
1220.0	0.0006948	70.5940001011
1220.0	0.000695	70.625
1220.0	0.0006953	70.6719999313
1220.0	0.000696	70.7190001011
1220.0	0.0006963	70.75
1220.0	0.0006965	70.7969999313
1220.0	0.0006965	70.8289999962
1220.0	0.0006963	70.875
1220.0	0.0006963	70.9219999313
1220.0	0.000696	70.9539999962
1220.0	0.0006955	71.0
1220.0	0.0006955	71.0469999313
1220.0	0.0006955	71.0789999962
1220.0	0.0006953	71.125
1220.0	0.0006953	71.1570000648
1220.0	0.000695	71.2039999962
1220.0	0.000695	71.25
1220.0	0.000695	71.2820000648
1220.0	0.000695	71.3289999962
1220.0	0.000695	71.375
1220.0	0.0006953	71.4070000648
1220.0	0.0006953	71.4539999962
1220.0	0.0006953	71.5
1220.0	0.0006953	71.5320000648
1220.0	0.0006953	71.5789999962
1220.0	0.0006955	71.6099998951
1220.0	0.000696	71.6570000648
1220.0	0.000696	71.7039999962
1220.0	0.0006965	71.75
1220.0	0.0006965	71.7820000648
1220.0	0.0006963	71.8289999962
1230.0	0.0006998	72.0940001011
1230.0	0.000701	72.1410000324
1230.0	0.0007023	72.1719999313
1230.0	0.0007028	72.2190001011
1230.0	0.000703	72.2660000324
1230.0	0.0007035	72.2969999313
1230.0	0.0007038	72.3440001011
1230.0	0.000704	72.3910000324
1230.0	0.0007043	72.4219999313
1230.0	0.0007048	72.4690001011
1230.0	0.000705	72.5
1230.0	0.000705	72.5469999313
1230.0	0.000705	72.5940001011
1230.0	0.0007053	72.625
1230.0	0.0007053	72.6719999313
1230.0	0.0007053	72.7190001011
1230.0	0.0007053	72.75
1230.0	0.0007055	72.7969999313
1230.0	0.000706	72.8440001011
1230.0	0.000706	72.875
1230.0	0.000706	72.9219999313
1230.0	0.000706	72.9690001011
1230.0	0.000706	73.0
1230.0	0.0007055	73.0469999313
1230.0	0.000706	73.0940001011
1230.0	0.0007055	73.125
1230.0	0.0007055	73.1719999313
1230.0	0.0007053	73.2039999962
1230.0	0.0007053	73.25
1230.0	0.0007053	73.2969999313
1230.0	0.0007053	73.3440001011
1230.0	0.0007053	73.375
1230.0	0.0007055	73.4219999313
1230.0	0.0007053	73.4539999962
1230.0	0.0007053	73.5
1230.0	0.0007055	73.5469999313
1240.0	0.0007088	73.8129999638
1240.0	0.0007098	73.8599998951
1240.0	0.0007103	73.8910000324
1240.0	0.000711	73.9379999638
1240.0	0.0007118	73.9849998951
1240.0	0.0007125	74.0160000324
1240.0	0.0007128	74.0629999638
1240.0	0.000713	74.0940001011
1240.0	0.0007128	74.1410000324
1240.0	0.0007128	74.1879999638
1240.0	0.0007128	74.2190001011
1240.0	0.0007128	74.2660000324
1240.0	0.000713	74.3129999638
1240.0	0.000713	74.3440001011
1240.0	0.0007128	74.3910000324
1240.0	0.000713	74.4219999313
1240.0	0.0007128	74.4690001011
1240.0	0.000713	74.5160000324
1240.0	0.0007128	74.5629999638
1240.0	0.0007128	74.5940001011
1240.0	0.0007128	74.6410000324
1240.0	0.000713	74.6719999313
1240.0	0.0007128	74.7190001011
1240.0	0.0007128	74.7660000324
1240.0	0.0007128	74.7969999313
1240.0	0.0007128	74.8440001011
1240.0	0.0007128	74.8910000324
1240.0	0.0007128	74.9219999313
1240.0	0.0007128	74.9690001011
1240.0	0.0007128	75.0160000324
1240.0	0.0007128	75.0469999313
1240.0	0.0007128	75.0940001011
1240.0	0.0007128	75.1410000324
1240.0	0.0007123	75.1719999313
1240.0	0.0007125	75.2190001011
1240.0	0.0007125	75.2660000324
1250.0	0.000716	75.5320000648
1250.0	0.0007165	75.5629999638
1250.0	0.0007175	75.6099998951
1250.0	0.000718	75.6570000648
1250.0	0.0007185	75.6879999638
1250.0	0.000718	75.7349998951
1250.0	0.0007185	75.7820000648
1250.0	0.0007185	75.8129999638
1250.0	0.000718	75.8599998951
1250.0	0.0007185	75.9070000648
1250.0	0.0007188	75.9379999638
1250.0	0.0007185	75.9849998951
1250.0	0.0007188	76.0160000324
1250.0	0.0007188	76.0629999638
1250.0	0.0007188	76.1099998951
1250.0	0.000719	76.1410000324
1250.0	0.000719	76.1879999638
1250.0	0.0007193	76.2349998951
1250.0	0.0007193	76.2660000324
1250.0	0.000719	76.3129999638
1250.0	0.0007198	76.3440001011
1250.0	0.0007193	76.3910000324
1250.0	0.000719	76.4379999638
1250.0	0.000719	76.4690001011
1250.0	0.0007193	76.5160000324
1250.0	0.0007193	76.5629999638
1250.0	0.000719	76.5940001011
1250.0	0.0007188	76.6410000324
1250.0	0.000719	76.6879999638
1250.0	0.0007193	76.7190001011
1250.0	0.0007193	76.7660000324
1250.0	0.000719	76.8129999638
1250.0	0.000719	76.8440001011
1250.0	0.0007188	76.8910000324
1250.0	0.0007185	76.9379999638
1250.0	0.000718	76.9690001011
1250.0	0.000718	77.0160000324
1260.0	0.0007205	77.2820000648
1260.0	0.0007215	77.3289999962
1260.0	0.0007225	77.3599998951
1260.0	0.000723	77.4070000648
1260.0	0.0007238	77.4539999962
1260.0	0.0007238	77.4849998951
1260.0	0.000724	77.5320000648
1260.0	0.0007243	77.5789999962
1260.0	0.0007248	77.6099998951
1260.0	0.0007248	77.6570000648
1260.0	0.0007248	77.6879999638
1260.0	0.0007248	77.7349998951
1260.0	0.0007248	77.7820000648
1260.0	0.0007248	77.8129999638
1260.0	0.000724	77.8599998951
1260.0	0.000724	77.9070000648
1260.0	0.000724	77.9379999638
1260.0	0.000724	77.9849998951
1260.0	0.0007238	78.0160000324
1260.0	0.0007235	78.0629999638
1260.0	0.0007235	78.1099998951
1260.0	0.000723	78.1410000324
1260.0	0.0007235	78.1879999638
1260.0	0.000723	78.2349998951
1260.0	0.000723	78.2660000324
1260.0	0.000723	78.3129999638
1260.0	0.0007238	78.3440001011
1260.0	0.000724	78.3910000324
1260.0	0.000724	78.4379999638
1260.0	0.000724	78.4690001011
1260.0	0.0007238	78.5160000324
1260.0	0.0007235	78.5629999638
1260.0	0.000723	78.5940001011
1260.0	0.0007228	78.6410000324
1260.0	0.0007228	78.6719999313
1260.0	0.0007228	78.7190001011
1260.0	0.0007228	78.7660000324
1270.0	0.0007248	79.0320000648
1270.0	0.000726	79.0629999638
1270.0	0.0007265	79.1099998951
1270.0	0.0007265	79.1570000648
1270.0	0.0007273	79.1879999638
1270.0	0.0007273	79.2349998951
1270.0	0.0007273	79.2820000648
1270.0	0.0007273	79.3129999638
1270.0	0.0007268	79.3599998951
1270.0	0.0007265	79.3910000324
1270.0	0.0007265	79.4379999638
1270.0	0.0007265	79.4849998951
1270.0	0.0007268	79.5160000324
1270.0	0.0007268	79.5629999638
1270.0	0.0007268	79.6099998951
1270.0	0.0007273	79.6410000324
1270.0	0.0007268	79.6879999638
1270.0	0.0007268	79.7349998951
1270.0	0.0007268	79.7660000324
1270.0	0.0007268	79.8129999638
1270.0	0.0007268	79.8440001011
1270.0	0.0007268	79.8910000324
1270.0	0.0007268	79.9379999638
1270.0	0.0007265	79.9690001011
1270.0	0.0007263	80.0160000324
1270.0	0.0007265	80.0629999638
1270.0	0.0007263	80.0940001011
1270.0	0.0007265	80.1410000324
1270.0	0.0007265	80.1879999638
1270.0	0.0007265	80.2190001011
1270.0	0.0007268	80.2660000324
1270.0	0.0007273	80.3129999638
1270.0	0.0007273	80.3440001011
1270.0	0.0007273	80.3910000324
1270.0	0.0007273	80.4219999313
1270.0	0.0007273	80.4690001011
1270.0	0.0007273	80.5160000324
1280.0	0.0007268	80.7820000648
1280.0	0.0007273	80.8289999962
1280.0	0.0007273	80.8599998951
1280.0	0.0007275	80.9070000648
1280.0	0.0007278	80.9539999962
1280.0	0.000728	80.9849998951
1280.0	0.0007285	81.0320000648
1280.0	0.0007288	81.0629999638
1280.0	0.0007285	81.1099998951
1280.0	0.0007285	81.1570000648
1280.0	0.0007285	81.1879999638
1280.0	0.0007288	81.2349998951
1280.0	0.0007288	81.2820000648
1280.0	0.0007288	81.3129999638
1280.0	0.0007288	81.3599998951
1280.0	0.0007288	81.4070000648
1280.0	0.0007285	81.4379999638
1280.0	0.0007285	81.4849998951
1280.0	0.0007288	81.5160000324
1280.0	0.0007288	81.5629999638
1280.0	0.000729	81.6099998951
1280.0	0.000729	81.6410000324
1280.0	0.0007288	81.6879999638
1280.0	0.0007285	81.7349998951
1280.0	0.0007288	81.7660000324
1280.0	0.0007285	81.8129999638
1280.0	0.0007285	81.8440001011
1280.0	0.0007285	81.8910000324
1280.0	0.0007285	81.9379999638
1280.0	0.0007288	81.9690001011
1280.0	0.0007288	82.0160000324
1280.0	0.0007285	82.0629999638
1280.0	0.0007285	82.0940001011
1280.0	0.0007285	82.1410000324
1280.0	0.0007285	82.1879999638
1280.0	0.000728	82.2190001011
1280.0	0.0007278	82.2660000324
1290.0	0.0007278	82.5320000648
1290.0	0.0007275	82.5789999962
1290.0	0.0007275	82.6099998951
1290.0	0.0007275	82.6570000648
1290.0	0.0007273	82.7039999962
1290.0	0.0007273	82.7349998951
1290.0	0.0007273	82.7820000648
1290.0	0.0007268	82.8129999638
1290.0	0.0007268	82.8599998951
1290.0	0.0007268	82.9070000648
1290.0	0.0007265	82.9379999638
1290.0	0.0007268	82.9849998951
1290.0	0.0007275	83.0320000648
1290.0	0.0007278	83.0629999638
1290.0	0.000728	83.1099998951
1290.0	0.0007278	83.1410000324
1290.0	0.0007278	83.1879999638
1290.0	0.0007275	83.2349998951
1290.0	0.0007268	83.2820000648
1290.0	0.0007265	83.3129999638
1290.0	0.0007268	83.3599998951
1290.0	0.0007273	83.4070000648
1290.0	0.0007275	83.4379999638
1290.0	0.0007275	83.4849998951
1290.0	0.0007275	83.5160000324
1290.0	0.0007275	83.5629999638
1290.0	0.0007275	83.6099998951
1290.0	0.0007275	83.6410000324
1290.0	0.0007278	83.6879999638
1290.0	0.000728	83.7349998951
1290.0	0.0007285	83.7660000324
1290.0	0.000728	83.8129999638
1290.0	0.000728	83.8440001011
1290.0	0.0007285	83.8910000324
1290.0	0.000728	83.9379999638
1290.0	0.0007275	83.9690001011
1290.0	0.0007273	84.0160000324
1300.0	0.0007255	84.2820000648
1300.0	0.0007248	84.3129999638
1300.0	0.0007238	84.3599998951
1300.0	0.000723	84.4070000648
1300.0	0.0007228	84.4379999638
1300.0	0.0007223	84.4849998951
1300.0	0.0007218	84.5320000648
1300.0	0.0007218	84.5629999638
1300.0	0.0007223	84.6099998951
1300.0	0.0007225	84.6570000648
1300.0	0.0007223	84.6879999638
1300.0	0.0007223	84.7349998951
1300.0	0.0007223	84.7820000648
1300.0	0.0007223	84.8129999638
1300.0	0.0007223	84.8599998951
1300.0	0.0007223	84.8910000324
1300.0	0.0007223	84.9379999638
1300.0	0.0007218	84.9849998951
1300.0	0.0007223	85.0160000324
1300.0	0.0007223	85.0629999638
1300.0	0.0007223	85.1099998951
1300.0	0.0007218	85.1410000324
1300.0	0.0007215	85.1879999638
1300.0	0.0007215	85.2349998951
1300.0	0.0007215	85.2660000324
1300.0	0.0007215	85.3129999638
1300.0	0.0007215	85.3440001011
1300.0	0.0007218	85.3910000324
1300.0	0.0007218	85.4379999638
1300.0	0.0007223	85.4690001011
1300.0	0.0007223	85.5160000324
1300.0	0.0007228	85.5629999638
1300.0	0.000723	85.5940001011
1300.0	0.0007235	85.6410000324
1300.0	0.0007235	85.6879999638
1300.0	0.000723	85.7190001011
1300.0	0.000723	85.7660000324
1310.0	0.0007185	86.0320000648
1310.0	0.0007168	86.0629999638
1310.0	0.000716	86.1099998951
1310.0	0.000715	86.1570000648
1310.0	0.0007143	86.1879999638
1310.0	0.000714	86.2349998951
1310.0	0.000714	86.2820000648
1310.0	0.0007138	86.3129999638
1310.0	0.0007138	86.3599998951
1310.0	0.0007135	86.3910000324
1310.0	0.000713	86.4379999638
1310.0	0.0007128	86.4849998951
1310.0	0.0007128	86.5160000324
1310.0	0.0007128	86.5629999638
1310.0	0.000713	86.6099998951
1310.0	0.0007128	86.6410000324
1310.0	0.000713	86.6879999638
1310.0	0.0007128	86.7349998951
1310.0	0.0007128	86.7660000324
1310.0	0.0007128	86.8129999638
1310.0	0.0007128	86.8599998951
1310.0	0.0007128	86.8910000324
1310.0	0.0007125	86.9379999638
1310.0	0.0007128	86.9690001011
1310.0	0.0007135	87.0160000324
1310.0	0.0007135	87.0629999638
1310.0	0.000713	87.0940001011
1310.0	0.000713	87.1410000324
1310.0	0.000713	87.1879999638
1310.0	0.000713	87.2190001011
1310.0	0.0007135	87.2660000324
1310.0	0.0007135	87.3129999638
1310.0	0.0007135	87.3440001011
1310.0	0.0007135	87.3910000324
1310.0	0.0007135	87.4219999313
1310.0	0.0007138	87.4690001011
1310.0	0.0007135	87.5160000324
1320.0	0.0007085	87.7660000324
1320.0	0.0007063	87.8129999638
1320.0	0.0007043	87.8599998951
1320.0	0.000703	87.8910000324
1320.0	0.0007023	87.9379999638
1320.0	0.000701	87.9849998951
1320.0	0.0007003	88.0160000324
1320.0	0.0007	88.0629999638
1320.0	0.0006993	88.0940001011
1320.0	0.000699	88.1410000324
1320.0	0.000699	88.1879999638
1320.0	0.000699	88.2190001011
1320.0	0.0006993	88.2660000324
1320.0	0.000699	88.3129999638
1320.0	0.0006988	88.3440001011
1320.0	0.0006988	88.3910000324
1320.0	0.0006988	88.4379999638
1320.0	0.0006985	88.4690001011
1320.0	0.0006985	88.5160000324
1320.0	0.000698	88.5469999313
1320.0	0.000698	88.5940001011
1320.0	0.0006985	88.6410000324
1320.0	0.0006985	88.6719999313
1320.0	0.0006985	88.7190001011
1320.0	0.000698	88.7660000324
1320.0	0.0006975	88.7969999313
1320.0	0.0006975	88.8440001011
1320.0	0.0006975	88.875
1320.0	0.0006978	88.9219999313
1320.0	0.0006978	88.9690001011
1320.0	0.000698	89.0
1320.0	0.0006985	89.0469999313
1320.0	0.0006988	89.0940001011
1320.0	0.0006985	89.125
1320.0	0.0006985	89.1719999313
1320.0	0.0006988	89.2039999962
1320.0	0.0006988	89.25
1330.0	0.0006923	89.5160000324
1330.0	0.0006893	89.5469999313
1330.0	0.0006868	89.5940001011
1330.0	0.0006848	89.6410000324
1330.0	0.0006828	89.6719999313
1330.0	0.0006815	89.7190001011
1330.0	0.0006805	89.75
1330.0	0.0006798	89.7969999313
1330.0	0.000679	89.8440001011
1330.0	0.0006788	89.875
1330.0	0.0006788	89.9219999313
1330.0	0.0006785	89.9690001011
1330.0	0.000678	90.0
1330.0	0.000678	90.0469999313
1330.0	0.000678	90.0789999962
1330.0	0.0006785	90.125
1330.0	0.0006785	90.1719999313
1330.0	0.0006788	90.2039999962
1330.0	0.000679	90.25
1330.0	0.000679	90.2969999313
1330.0	0.000679	90.3289999962
1330.0	0.000679	90.375
1330.0	0.000679	90.4219999313
1330.0	0.000679	90.4539999962
1330.0	0.0006785	90.5
1330.0	0.0006785	90.5320000648
1330.0	0.000678	90.5789999962
1330.0	0.000678	90.625
1330.0	0.0006785	90.6570000648
1330.0	0.0006785	90.7039999962
1330.0	0.0006785	90.75
1330.0	0.0006785	90.7820000648
1330.0	0.000678	90.8289999962
1330.0	0.000678	90.8599998951
1330.0	0.0006778	90.9070000648
1330.0	0.0006778	90.9539999962
1330.0	0.0006775	90.9849998951
1340.0	0.0006698	91.25
1340.0	0.0006668	91.2969999313
1340.0	0.0006643	91.3289999962
1340.0	0.0006618	91.375
1340.0	0.0006603	91.4219999313
1340.0	0.0006588	91.4539999962
1340.0	0.0006575	91.5
1340.0	0.0006565	91.5469999313
1340.0	0.000656	91.5789999962
1340.0	0.0006553	91.625
1340.0	0.000655	91.6570000648
1340.0	0.0006543	91.7039999962
1340.0	0.0006543	91.75
1340.0	0.000654	91.7820000648
1340.0	0.0006538	91.8289999962
1340.0	0.0006538	91.875
1340.0	0.0006535	91.9070000648
1340.0	0.0006535	91.9539999962
1340.0	0.0006538	91.9849998951
1340.0	0.0006535	92.0320000648
1340.0	0.0006535	92.0789999962
1340.0	0.0006538	92.1099998951
1340.0	0.0006535	92.1570000648
1340.0	0.0006535	92.2039999962
1340.0	0.0006535	92.2349998951
1340.0	0.0006535	92.2820000648
1340.0	0.0006538	92.3129999638
1340.0	0.0006535	92.3599998951
1340.0	0.0006538	92.4070000648
1340.0	0.000654	92.4379999638
1340.0	0.0006543	92.4849998951
1340.0	0.000654	92.5320000648
1340.0	0.000654	92.5629999638
1340.0	0.0006538	92.6099998951
1340.0	0.000654	92.6570000648
1340.0	0.000654	92.6879999638
1340.0	0.000654	92.7349998951
1350.0	0.0006448	93.0
1350.0	0.0006405	93.0469999313
1350.0	0.000638	93.0789999962
1350.0	0.0006358	93.125
1350.0	0.0006338	93.1570000648
1350.0	0.000632	93.2039999962
1350.0	0.0006308	93.25
1350.0	0.0006295	93.2820000648
1350.0	0.000629	93.3289999962
1350.0	0.0006288	93.3599998951
1350.0	0.000628	93.4070000648
1350.0	0.0006278	93.4539999962
1350.0	0.0006275	93.4849998951
1350.0	0.000627	93.5320000648
1350.0	0.0006268	93.5789999962
1350.0	0.0006265	93.6099998951
1350.0	0.0006265	93.6570000648
1350.0	0.0006265	93.7039999962
1350.0	0.0006263	93.7349998951
1350.0	0.0006265	93.7820000648
1350.0	0.0006263	93.8129999638
1350.0	0.0006263	93.8599998951
1350.0	0.0006263	93.9070000648
1350.0	0.0006258	93.9379999638
1350.0	0.0006258	93.9849998951
1350.0	0.0006263	94.0320000648
1350.0	0.0006263	94.0629999638
1350.0	0.0006265	94.1099998951
1350.0	0.0006265	94.1410000324
1350.0	0.0006265	94.1879999638
1350.0	0.0006265	94.2349998951
1350.0	0.0006265	94.2660000324
1350.0	0.0006265	94.3129999638
1350.0	0.0006268	94.3599998951
1350.0	0.000627	94.3910000324
1350.0	0.0006275	94.4379999638
1350.0	0.000627	94.4690001011
1360.0	0.0006168	94.7349998951
1360.0	0.0006128	94.7820000648
1360.0	0.0006093	94.8289999962
1360.0	0.0006063	94.8599998951
1360.0	0.0006038	94.9070000648
1360.0	0.0006018	94.9379999638
1360.0	0.0006003	94.9849998951
1360.0	0.0005993	95.0320000648
1360.0	0.000598	95.0629999638
1360.0	0.000597	95.1099998951
1360.0	0.0005965	95.1570000648
1360.0	0.0005958	95.1879999638
1360.0	0.0005955	95.2349998951
1360.0	0.000595	95.2660000324
1360.0	0.0005945	95.3129999638
1360.0	0.0005953	95.3599998951
1360.0	0.000595	95.3910000324
1360.0	0.000595	95.4379999638
1360.0	0.0005955	95.4849998951
1360.0	0.0005955	95.5160000324
1360.0	0.0005955	95.5629999638
1360.0	0.0005958	95.5940001011
1360.0	0.0005955	95.6410000324
1360.0	0.0005955	95.6879999638
1360.0	0.0005955	95.7190001011
1360.0	0.0005955	95.7660000324
1360.0	0.0005953	95.8129999638
1360.0	0.0005953	95.8599998951
1360.0	0.000595	95.8910000324
1360.0	0.000595	95.9379999638
1360.0	0.0005945	95.9690001011
1360.0	0.0005945	96.0160000324
1360.0	0.0005945	96.0629999638
1360.0	0.0005943	96.0940001011
1360.0	0.0005943	96.1410000324
1360.0	0.000594	96.1879999638
1360.0	0.000594	96.2190001011
1370.0	0.0005843	96.4849998951
1370.0	0.0005808	96.5320000648
1370.0	0.000578	96.5789999962
1370.0	0.0005755	96.6099998951
1370.0	0.0005738	96.6570000648
1370.0	0.0005718	96.6879999638
1370.0	0.0005705	96.7349998951
1370.0	0.00057	96.7820000648
1370.0	0.0005693	96.8129999638
1370.0	0.0005688	96.8599998951
1370.0	0.0005683	96.9070000648
1370.0	0.0005683	96.9379999638
1370.0	0.000568	96.9849998951
1370.0	0.0005683	97.0160000324
1370.0	0.000568	97.0629999638
1370.0	0.0005678	97.1099998951
1370.0	0.000568	97.1410000324
1370.0	0.0005678	97.1879999638
1370.0	0.0005675	97.2349998951
1370.0	0.0005678	97.2660000324
1370.0	0.0005675	97.3129999638
1370.0	0.0005675	97.3440001011
1370.0	0.0005675	97.3910000324
1370.0	0.0005668	97.4379999638
1370.0	0.0005668	97.4690001011
1370.0	0.0005668	97.5160000324
1370.0	0.0005668	97.5629999638
1370.0	0.0005665	97.5940001011
1370.0	0.0005665	97.6410000324
1370.0	0.0005663	97.6719999313
1370.0	0.0005663	97.7190001011
1370.0	0.0005663	97.7660000324
1370.0	0.0005665	97.7969999313
1370.0	0.0005668	97.8440001011
1370.0	0.0005668	97.8910000324
1370.0	0.0005668	97.9219999313
1370.0	0.0005668	97.9690001011
1380.0	0.0005588	98.2349998951
1380.0	0.0005553	98.2660000324
1380.0	0.0005525	98.3129999638
1380.0	0.00055	98.3599998951
1380.0	0.000548	98.3910000324
1380.0	0.0005465	98.4379999638
1380.0	0.0005453	98.4849998951
1380.0	0.0005445	98.5160000324
1380.0	0.000544	98.5629999638
1380.0	0.0005433	98.5940001011
1380.0	0.0005433	98.6410000324
1380.0	0.0005433	98.6879999638
1380.0	0.0005433	98.7190001011
1380.0	0.000543	98.7660000324
1380.0	0.000543	98.8129999638
1380.0	0.0005433	98.8440001011
1380.0	0.000543	98.8910000324
1380.0	0.000543	98.9219999313
1380.0	0.0005428	98.9690001011
1380.0	0.0005425	99.0160000324
1380.0	0.0005425	99.0469999313
1380.0	0.0005425	99.0940001011
1380.0	0.0005425	99.1410000324
1380.0	0.0005425	99.1719999313
1380.0	0.000542	99.2190001011
1380.0	0.0005418	99.25
1380.0	0.0005418	99.2969999313
1380.0	0.000542	99.3440001011
1380.0	0.0005418	99.375
1380.0	0.0005418	99.4219999313
1380.0	0.0005418	99.4690001011
1380.0	0.0005418	99.5
1380.0	0.000542	99.5469999313
1380.0	0.0005425	99.5940001011
1380.0	0.0005425	99.625
1380.0	0.000542	99.6719999313
1380.0	0.0005418	99.7039999962
1390.0	0.0005338	99.9690001011
1390.0	0.0005305	100.016000032
1390.0	0.0005283	100.062999964
1390.0	0.0005265	100.094000101
1390.0	0.0005245	100.141000032
1390.0	0.0005238	100.187999964
1390.0	0.0005228	100.219000101
1390.0	0.000522	100.266000032
1390.0	0.0005218	100.296999931
1390.0	0.0005213	100.344000101
1390.0	0.0005213	100.391000032
1390.0	0.0005208	100.421999931
1390.0	0.0005203	100.469000101
1390.0	0.00052	100.516000032
1390.0	0.0005203	100.546999931
1390.0	0.0005203	100.594000101
1390.0	0.0005203	100.641000032
1390.0	0.00052	100.671999931
1390.0	0.00052	100.719000101
1390.0	0.0005205	100.75
1390.0	0.0005205	100.796999931
1390.0	0.0005203	100.844000101
1390.0	0.0005205	100.875
1390.0	0.0005205	100.921999931
1390.0	0.0005205	100.969000101
1390.0	0.0005205	101.0
1390.0	0.0005203	101.046999931
1390.0	0.0005203	101.078999996
1390.0	0.00052	101.125
1390.0	0.0005203	101.171999931
1390.0	0.0005203	101.203999996
1390.0	0.00052	101.25
1390.0	0.00052	101.296999931
1390.0	0.00052	101.328999996
1390.0	0.00052	101.375
1390.0	0.0005195	101.421999931
1390.0	0.00052	101.453999996
1400.0	0.000513	101.719000101
1400.0	0.0005105	101.766000032
1400.0	0.000508	101.812999964
1400.0	0.0005065	101.859999895
1400.0	0.0005053	101.891000032
1400.0	0.0005043	101.937999964
1400.0	0.0005038	101.969000101
1400.0	0.000503	102.016000032
1400.0	0.0005025	102.062999964
1400.0	0.0005025	102.094000101
1400.0	0.0005018	102.141000032
1400.0	0.0005018	102.187999964
1400.0	0.0005015	102.219000101
1400.0	0.0005013	102.266000032
1400.0	0.0005013	102.296999931
1400.0	0.0005013	102.344000101
1400.0	0.0005013	102.391000032
1400.0	0.0005013	102.421999931
1400.0	0.0005013	102.469000101
1400.0	0.0005015	102.516000032
1400.0	0.000502	102.546999931
1400.0	0.0005018	102.594000101
1400.0	0.0005018	102.641000032
1400.0	0.0005018	102.671999931
1400.0	0.0005018	102.719000101
1400.0	0.0005015	102.766000032
1400.0	0.0005015	102.796999931
1400.0	0.0005013	102.844000101
1400.0	0.0005013	102.891000032
1400.0	0.0005013	102.921999931
1400.0	0.0005008	102.969000101
1400.0	0.0005013	103.0
1400.0	0.0005008	103.046999931
1400.0	0.0005008	103.094000101
1400.0	0.0005008	103.125
1400.0	0.0005005	103.171999931
1400.0	0.0005005	103.219000101
1410.0	0.0004955	103.484999895
1410.0	0.0004938	103.516000032
1410.0	0.0004925	103.562999964
1410.0	0.0004913	103.609999895
1410.0	0.0004895	103.641000032
1410.0	0.0004888	103.687999964
1410.0	0.000488	103.719000101
1410.0	0.0004878	103.766000032
1410.0	0.0004875	103.812999964
1410.0	0.0004868	103.844000101
1410.0	0.0004863	103.891000032
1410.0	0.0004858	103.937999964
1410.0	0.0004855	103.969000101
1410.0	0.0004855	104.016000032
1410.0	0.0004855	104.046999931
1410.0	0.0004855	104.094000101
1410.0	0.0004858	104.141000032
1410.0	0.0004858	104.171999931
1410.0	0.0004858	104.219000101
1410.0	0.0004863	104.266000032
1410.0	0.0004863	104.296999931
1410.0	0.0004863	104.344000101
1410.0	0.0004865	104.391000032
1410.0	0.0004865	104.421999931
1410.0	0.000487	104.469000101
1410.0	0.000487	104.5
1410.0	0.000487	104.546999931
1410.0	0.000487	104.594000101
1410.0	0.000487	104.625
1410.0	0.000487	104.671999931
1410.0	0.0004868	104.719000101
1410.0	0.0004865	104.75
1410.0	0.0004863	104.796999931
1410.0	0.0004858	104.828999996
1410.0	0.0004858	104.875
1410.0	0.0004863	104.921999931
1410.0	0.0004863	104.953999996
1420.0	0.000483	105.219000101
1420.0	0.0004813	105.266000032
1420.0	0.00048	105.312999964
1420.0	0.0004793	105.344000101
1420.0	0.0004788	105.391000032
1420.0	0.000478	105.437999964
1420.0	0.0004778	105.469000101
1420.0	0.000477	105.516000032
1420.0	0.0004768	105.546999931
1420.0	0.000477	105.594000101
1420.0	0.0004768	105.641000032
1420.0	0.0004768	105.671999931
1420.0	0.0004768	105.719000101
1420.0	0.000477	105.766000032
1420.0	0.000477	105.796999931
1420.0	0.0004768	105.844000101
1420.0	0.0004765	105.875
1420.0	0.0004765	105.921999931
1420.0	0.0004765	105.969000101
1420.0	0.0004765	106.0
1420.0	0.0004768	106.046999931
1420.0	0.0004768	106.094000101
1420.0	0.0004768	106.125
1420.0	0.0004768	106.171999931
1420.0	0.000477	106.219000101
1420.0	0.0004775	106.25
1420.0	0.0004775	106.296999931
1420.0	0.0004775	106.328999996
1420.0	0.0004775	106.375
1420.0	0.0004775	106.421999931
1420.0	0.0004775	106.453999996
1420.0	0.0004775	106.5
1420.0	0.0004775	106.546999931
1420.0	0.0004775	106.578999996
1420.0	0.0004775	106.625
1420.0	0.000477	106.657000065
1420.0	0.000477	106.703999996
1430.0	0.0004755	106.969000101
1430.0	0.000475	107.016000032
1430.0	0.0004745	107.046999931
1430.0	0.000474	107.094000101
1430.0	0.0004733	107.141000032
1430.0	0.000473	107.171999931
1430.0	0.0004728	107.219000101
1430.0	0.0004728	107.266000032
1430.0	0.0004725	107.296999931
1430.0	0.0004725	107.344000101
1430.0	0.0004728	107.375
1430.0	0.0004728	107.421999931
1430.0	0.000473	107.469000101
1430.0	0.000473	107.516000032
1430.0	0.0004733	107.546999931
1430.0	0.0004733	107.594000101
1430.0	0.0004733	107.641000032
1430.0	0.0004728	107.671999931
1430.0	0.000473	107.719000101
1430.0	0.000473	107.766000032
1430.0	0.000473	107.796999931
1430.0	0.0004733	107.844000101
1430.0	0.0004733	107.875
1430.0	0.000473	107.921999931
1430.0	0.000473	107.969000101
1430.0	0.0004728	108.0
1430.0	0.000473	108.046999931
1430.0	0.000473	108.094000101
1430.0	0.000473	108.125
1430.0	0.000473	108.171999931
1430.0	0.000473	108.219000101
1430.0	0.0004728	108.25
1430.0	0.0004728	108.296999931
1430.0	0.000473	108.328999996
1430.0	0.0004733	108.375
1430.0	0.0004738	108.421999931
1440.0	0.0004738	108.687999964
1440.0	0.000474	108.719000101
1440.0	0.0004743	108.766000032
1440.0	0.000474	108.812999964
1440.0	0.0004743	108.844000101
1440.0	0.0004743	108.891000032
1440.0	0.0004745	108.921999931
1440.0	0.0004753	108.969000101
1440.0	0.0004755	109.016000032
1440.0	0.0004753	109.046999931
1440.0	0.000475	109.094000101
1440.0	0.0004745	109.141000032
1440.0	0.0004745	109.171999931
1440.0	0.0004745	109.219000101
1440.0	0.0004745	109.266000032
1440.0	0.0004745	109.296999931
1440.0	0.0004745	109.344000101
1440.0	0.0004745	109.375
1440.0	0.000475	109.421999931
1440.0	0.0004745	109.469000101
1440.0	0.0004743	109.5
1440.0	0.0004745	109.546999931
1440.0	0.0004743	109.594000101
1440.0	0.0004743	109.625
1440.0	0.0004743	109.671999931
1440.0	0.0004745	109.703999996
1440.0	0.0004745	109.75
1440.0	0.0004745	109.796999931
1440.0	0.0004745	109.828999996
1440.0	0.0004745	109.875
1440.0	0.000475	109.921999931
1440.0	0.000475	109.953999996
1440.0	0.000475	110.0
1440.0	0.0004753	110.032000065
1440.0	0.0004753	110.078999996
1440.0	0.0004753	110.125
1440.0	0.000475	110.157000065
1450.0	0.0004765	110.421999931
1450.0	0.0004765	110.469000101
1450.0	0.0004768	110.516000032
1450.0	0.000477	110.546999931
1450.0	0.0004775	110.594000101
1450.0	0.0004778	110.641000032
1450.0	0.000478	110.671999931
1450.0	0.0004788	110.719000101
1450.0	0.0004788	110.75
1450.0	0.0004783	110.796999931
1450.0	0.0004783	110.844000101
1450.0	0.0004788	110.875
1450.0	0.0004783	110.921999931
1450.0	0.0004783	110.969000101
1450.0	0.000478	111.0
1450.0	0.000478	111.046999931
1450.0	0.0004778	111.094000101
1450.0	0.0004778	111.125
1450.0	0.0004778	111.171999931
1450.0	0.000478	111.203999996
1450.0	0.0004778	111.25
1450.0	0.0004778	111.296999931
1450.0	0.0004778	111.328999996
1450.0	0.0004778	111.375
1450.0	0.000478	111.421999931
1450.0	0.000478	111.453999996
1450.0	0.000478	111.5
1450.0	0.0004778	111.546999931
1450.0	0.0004775	111.578999996
1450.0	0.0004775	111.625
1450.0	0.000477	111.671999931
1450.0	0.000477	111.703999996
1450.0	0.0004775	111.75
1450.0	0.000477	111.782000065
1450.0	0.000477	111.828999996
1450.0	0.0004775	111.875
1450.0	0.0004778	111.907000065
1460.0	0.0004803	112.171999931
1460.0	0.0004813	112.219000101
1460.0	0.0004818	112.266000032
1460.0	0.000482	112.296999931
1460.0	0.0004828	112.344000101
1460.0	0.0004833	112.391000032
1460.0	0.0004838	112.421999931
1460.0	0.0004838	112.469000101
1460.0	0.000484	112.5
1460.0	0.0004843	112.546999931
1460.0	0.0004843	112.594000101
1460.0	0.0004845	112.625
1460.0	0.0004853	112.671999931
1460.0	0.0004845	112.719000101
1460.0	0.0004845	112.75
1460.0	0.0004843	112.796999931
1460.0	0.0004843	112.828999996
1460.0	0.0004843	112.875
1460.0	0.000484	112.921999931
1460.0	0.0004843	112.953999996
1460.0	0.0004845	113.0
1460.0	0.0004845	113.046999931
1460.0	0.0004845	113.078999996
1460.0	0.0004845	113.125
1460.0	0.0004843	113.171999931
1460.0	0.0004843	113.203999996
1460.0	0.0004845	113.25
1460.0	0.0004843	113.282000065
1460.0	0.000484	113.328999996
1460.0	0.000484	113.375
1460.0	0.000484	113.407000065
1460.0	0.0004843	113.453999996
1460.0	0.0004843	113.484999895
1460.0	0.0004843	113.532000065
1460.0	0.000485	113.578999996
1460.0	0.000485	113.609999895
1460.0	0.000485	113.657000065
1470.0	0.0004875	113.921999931
1470.0	0.000489	113.969000101
1470.0	0.0004903	114.0
1470.0	0.0004908	114.046999931
1470.0	0.0004913	114.094000101
1470.0	0.000492	114.125
1470.0	0.0004925	114.171999931
1470.0	0.000493	114.219000101
1470.0	0.0004938	114.25
1470.0	0.0004933	114.296999931
1470.0	0.0004933	114.328999996
1470.0	0.0004933	114.375
1470.0	0.0004933	114.421999931
1470.0	0.0004938	114.453999996
1470.0	0.0004933	114.5
1470.0	0.0004933	114.546999931
1470.0	0.0004933	114.578999996
1470.0	0.0004933	114.625
1470.0	0.0004933	114.657000065
1470.0	0.0004938	114.703999996
1470.0	0.0004938	114.75
1470.0	0.0004938	114.796999931
1470.0	0.0004938	114.828999996
1470.0	0.0004938	114.875
1470.0	0.0004938	114.921999931
1470.0	0.0004938	114.953999996
1470.0	0.000494	115.0
1470.0	0.000494	115.032000065
1470.0	0.0004938	115.078999996
1470.0	0.0004933	115.125
1470.0	0.0004938	115.157000065
1470.0	0.0004933	115.203999996
1470.0	0.0004933	115.234999895
1470.0	0.000493	115.282000065
1470.0	0.0004928	115.328999996
1470.0	0.000493	115.359999895
1470.0	0.0004933	115.407000065
1480.0	0.0004963	115.671999931
1480.0	0.0004968	115.719000101
1480.0	0.0004978	115.75
1480.0	0.000499	115.796999931
1480.0	0.0004995	115.844000101
1480.0	0.0005003	115.875
1480.0	0.0005008	115.921999931
1480.0	0.0005005	115.969000101
1480.0	0.0005005	116.0
1480.0	0.0005005	116.046999931
1480.0	0.0005003	116.094000101
1480.0	0.0005005	116.141000032
1480.0	0.0005005	116.171999931
1480.0	0.0005008	116.219000101
1480.0	0.0005013	116.25
1480.0	0.0005013	116.296999931
1480.0	0.0005008	116.344000101
1480.0	0.0005005	116.375
1480.0	0.0005005	116.421999931
1480.0	0.0005005	116.469000101
1480.0	0.0005005	116.5
1480.0	0.0005005	116.546999931
1480.0	0.0005005	116.594000101
1480.0	0.0005005	116.625
1480.0	0.0005003	116.671999931
1480.0	0.0005	116.719000101
1480.0	0.0005	116.75
1480.0	0.0005003	116.796999931
1480.0	0.0005005	116.844000101
1480.0	0.0005005	116.875
1480.0	0.0005005	116.921999931
1480.0	0.0005008	116.969000101
1480.0	0.0005008	117.016000032
1480.0	0.0005008	117.046999931
1480.0	0.0005005	117.094000101
1480.0	0.0005003	117.125
1490.0	0.0005025	117.407000065
1490.0	0.000503	117.437999964
1490.0	0.0005038	117.484999895
1490.0	0.000504	117.532000065
1490.0	0.0005043	117.562999964
1490.0	0.0005043	117.609999895
1490.0	0.0005043	117.657000065
1490.0	0.0005045	117.687999964
1490.0	0.0005045	117.734999895
1490.0	0.000505	117.766000032
1490.0	0.000505	117.812999964
1490.0	0.000505	117.859999895
1490.0	0.000505	117.891000032
1490.0	0.000505	117.937999964
1490.0	0.0005055	117.984999895
1490.0	0.0005055	118.016000032
1490.0	0.0005058	118.062999964
1490.0	0.0005055	118.094000101
1490.0	0.0005053	118.141000032
1490.0	0.0005055	118.187999964
1490.0	0.0005055	118.219000101
1490.0	0.0005055	118.266000032
1490.0	0.0005058	118.312999964
1490.0	0.0005058	118.344000101
1490.0	0.0005063	118.391000032
1490.0	0.0005055	118.437999964
1490.0	0.0005053	118.469000101
1490.0	0.0005053	118.516000032
1490.0	0.000505	118.546999931
1490.0	0.000505	118.594000101
1490.0	0.000505	118.641000032
1490.0	0.0005053	118.671999931
1490.0	0.0005053	118.719000101
1490.0	0.0005055	118.766000032
1490.0	0.0005055	118.796999931
1490.0	0.0005058	118.844000101
1490.0	0.0005058	118.875
1500.0	0.0005088	119.157000065
1500.0	0.0005088	119.203999996
1500.0	0.0005088	119.234999895
1500.0	0.0005088	119.282000065
1500.0	0.0005093	119.312999964
1500.0	0.0005093	119.359999895
1500.0	0.0005095	119.407000065
1500.0	0.0005095	119.437999964
1500.0	0.00051	119.484999895
1500.0	0.00051	119.532000065
1500.0	0.00051	119.562999964
1500.0	0.00051	119.609999895
1500.0	0.00051	119.657000065
1500.0	0.0005103	119.687999964
1500.0	0.0005105	119.734999895
1500.0	0.0005105	119.766000032
1500.0	0.0005105	119.812999964
1500.0	0.0005103	119.859999895
1500.0	0.0005103	119.891000032
1500.0	0.0005103	119.937999964
1500.0	0.0005105	119.984999895
1500.0	0.0005105	120.016000032
1500.0	0.0005113	120.062999964
1500.0	0.0005113	120.109999895
1500.0	0.0005115	120.141000032
1500.0	0.0005115	120.187999964
1500.0	0.0005115	120.219000101
1500.0	0.0005113	120.266000032
1500.0	0.0005113	120.312999964
1500.0	0.0005113	120.344000101
1500.0	0.0005115	120.391000032
1500.0	0.0005115	120.437999964
1500.0	0.0005115	120.469000101
1500.0	0.0005118	120.516000032
1500.0	0.0005113	120.546999931
1500.0	0.0005105	120.594000101
1500.0	0.0005103	120.641000032
1510.0	0.0005108	120.907000065
1510.0	0.0005108	120.953999996
1510.0	0.0005115	121.0
1510.0	0.0005118	121.032000065
1510.0	0.0005125	121.078999996
1510.0	0.0005125	121.109999895
1510.0	0.000512	121.157000065
1510.0	0.000512	121.203999996
1510.0	0.000512	121.234999895
1510.0	0.000512	121.282000065
1510.0	0.0005118	121.328999996
1510.0	0.0005115	121.359999895
1510.0	0.0005115	121.407000065
1510.0	0.0005115	121.437999964
1510.0	0.0005115	121.484999895
1510.0	0.0005115	121.532000065
1510.0	0.0005113	121.562999964
1510.0	0.0005113	121.609999895
1510.0	0.0005113	121.657000065
1510.0	0.0005113	121.687999964
1510.0	0.0005113	121.734999895
1510.0	0.0005115	121.766000032
1510.0	0.0005115	121.812999964
1510.0	0.0005115	121.859999895
1510.0	0.0005115	121.891000032
1510.0	0.0005115	121.937999964
1510.0	0.0005118	121.984999895
1510.0	0.0005115	122.016000032
1510.0	0.0005113	122.062999964
1510.0	0.0005113	122.109999895
1510.0	0.0005113	122.141000032
1510.0	0.0005108	122.187999964
1510.0	0.0005113	122.219000101
1510.0	0.0005113	122.266000032
1510.0	0.0005113	122.312999964
1510.0	0.0005115	122.344000101
1510.0	0.0005115	122.391000032
1520.0	0.000512	122.671999931
1520.0	0.0005115	122.703999996
1520.0	0.0005115	122.75
1520.0	0.0005113	122.782000065
1520.0	0.0005115	122.828999996
1520.0	0.0005115	122.875
1520.0	0.0005115	122.907000065
1520.0	0.0005115	122.953999996
1520.0	0.0005118	123.0
1520.0	0.0005118	123.032000065
1520.0	0.0005115	123.078999996
1520.0	0.0005115	123.109999895
1520.0	0.0005115	123.157000065
1520.0	0.0005115	123.203999996
1520.0	0.0005118	123.234999895
1520.0	0.0005118	123.282000065
1520.0	0.000512	123.328999996
1520.0	0.000512	123.359999895
1520.0	0.0005125	123.407000065
1520.0	0.0005128	123.437999964
1520.0	0.0005128	123.484999895
1520.0	0.000512	123.532000065
1520.0	0.000512	123.578999996
1520.0	0.0005118	123.609999895
1520.0	0.0005115	123.657000065
1520.0	0.0005113	123.687999964
1520.0	0.0005113	123.734999895
1520.0	0.0005113	123.782000065
1520.0	0.0005108	123.812999964
1520.0	0.0005108	123.859999895
1520.0	0.0005113	123.907000065
1520.0	0.0005113	123.937999964
1520.0	0.0005115	123.984999895
1520.0	0.0005115	124.032000065
1520.0	0.0005113	124.062999964
1520.0	0.0005115	124.109999895
1520.0	0.0005115	124.141000032
1530.0	0.00051	124.421999931
1530.0	0.0005095	124.469000101
1530.0	0.0005093	124.5
1530.0	0.0005093	124.546999931
1530.0	0.000509	124.594000101
1530.0	0.000509	124.625
1530.0	0.0005095	124.671999931
1530.0	0.0005095	124.703999996
1530.0	0.0005095	124.75
1530.0	0.00051	124.796999931
1530.0	0.0005095	124.828999996
1530.0	0.0005095	124.875
1530.0	0.00051	124.921999931
1530.0	0.00051	124.953999996
1530.0	0.00051	125.0
1530.0	0.0005105	125.032000065
1530.0	0.0005103	125.078999996
1530.0	0.0005103	125.125
1530.0	0.0005103	125.157000065
1530.0	0.00051	125.203999996
1530.0	0.0005103	125.25
1530.0	0.00051	125.282000065
1530.0	0.00051	125.328999996
1530.0	0.0005095	125.359999895
1530.0	0.0005095	125.407000065
1530.0	0.0005095	125.453999996
1530.0	0.00051	125.484999895
1530.0	0.0005095	125.532000065
1530.0	0.00051	125.578999996
1530.0	0.00051	125.609999895
1530.0	0.0005103	125.657000065
1530.0	0.0005105	125.703999996
1530.0	0.0005105	125.734999895
1530.0	0.0005105	125.782000065
1530.0	0.0005105	125.828999996
1530.0	0.0005103	125.859999895
1530.0	0.0005103	125.907000065
1540.0	0.0005078	126.171999931
1540.0	0.0005068	126.219000101
1540.0	0.0005063	126.266000032
1540.0	0.0005055	126.296999931
1540.0	0.0005055	126.344000101
1540.0	0.0005058	126.391000032
1540.0	0.0005063	126.421999931
1540.0	0.0005063	126.469000101
1540.0	0.0005058	126.516000032
1540.0	0.0005055	126.546999931
1540.0	0.0005055	126.594000101
1540.0	0.0005055	126.625
1540.0	0.0005053	126.671999931
1540.0	0.0005055	126.719000101
1540.0	0.0005053	126.75
1540.0	0.0005053	126.796999931
1540.0	0.0005055	126.844000101
1540.0	0.0005055	126.875
1540.0	0.0005055	126.921999931
1540.0	0.0005058	126.953999996
1540.0	0.0005063	127.0
1540.0	0.0005063	127.046999931
1540.0	0.0005063	127.078999996
1540.0	0.0005063	127.125
1540.0	0.0005065	127.171999931
1540.0	0.0005063	127.203999996
1540.0	0.0005065	127.25
1540.0	0.0005063	127.282000065
1540.0	0.0005063	127.328999996
1540.0	0.0005063	127.375
1540.0	0.0005063	127.407000065
1540.0	0.0005063	127.453999996
1540.0	0.0005065	127.5
1540.0	0.0005068	127.532000065
1540.0	0.0005068	127.578999996
1540.0	0.0005065	127.609999895
1540.0	0.0005063	127.657000065
1550.0	0.000502	127.937999964
1550.0	0.0005008	127.969000101
1550.0	0.0004995	128.016000032
1550.0	0.000499	128.062999964
1550.0	0.0004983	128.094000101
1550.0	0.0004978	128.141000032
1550.0	0.000497	128.187999964
1550.0	0.000497	128.219000101
1550.0	0.000497	128.266000032
1550.0	0.0004968	128.296999931
1550.0	0.0004965	128.344000101
1550.0	0.0004965	128.391000032
1550.0	0.0004968	128.421999931
1550.0	0.0004968	128.469000101
1550.0	0.0004968	128.516000032
1550.0	0.0004968	128.546999931
1550.0	0.0004968	128.594000101
1550.0	0.0004968	128.625
1550.0	0.0004968	128.671999931
1550.0	0.0004965	128.719000101
1550.0	0.0004963	128.75
1550.0	0.0004963	128.796999931
1550.0	0.0004963	128.844000101
1550.0	0.0004963	128.875
1550.0	0.0004963	128.921999931
1550.0	0.0004963	128.969000101
1550.0	0.0004963	129.0
1550.0	0.0004963	129.046999931
1550.0	0.0004965	129.078999996
1550.0	0.0004965	129.125
1550.0	0.000497	129.171999931
1550.0	0.0004968	129.203999996
1550.0	0.0004968	129.25
1550.0	0.0004968	129.296999931
1550.0	0.0004965	129.328999996
1550.0	0.0004965	129.375
1550.0	0.0004968	129.421999931
1560.0	0.0004905	129.687999964
1560.0	0.000489	129.734999895
1560.0	0.0004878	129.766000032
1560.0	0.0004868	129.812999964
1560.0	0.0004863	129.859999895
1560.0	0.0004853	129.891000032
1560.0	0.0004845	129.937999964
1560.0	0.0004845	129.984999895
1560.0	0.0004843	130.016000032
1560.0	0.0004845	130.062999964
1560.0	0.0004843	130.109999895
1560.0	0.000484	130.141000032
1560.0	0.0004838	130.187999964
1560.0	0.0004838	130.219000101
1560.0	0.0004833	130.266000032
1560.0	0.0004833	130.312999964
1560.0	0.0004833	130.344000101
1560.0	0.0004833	130.391000032
1560.0	0.0004833	130.437999964
1560.0	0.0004833	130.469000101
1560.0	0.0004838	130.516000032
1560.0	0.000484	130.546999931
1560.0	0.0004838	130.594000101
1560.0	0.0004838	130.641000032
1560.0	0.000484	130.671999931
1560.0	0.0004838	130.719000101
1560.0	0.0004838	130.766000032
1560.0	0.0004833	130.796999931
1560.0	0.0004838	130.844000101
1560.0	0.0004838	130.875
1560.0	0.0004843	130.921999931
1560.0	0.0004843	130.969000101
1560.0	0.000484	131.0
1560.0	0.000484	131.046999931
1560.0	0.000484	131.094000101
1560.0	0.0004838	131.125
1560.0	0.0004833	131.171999931
1570.0	0.0004775	131.437999964
1570.0	0.0004753	131.484999895
1570.0	0.0004738	131.516000032
1570.0	0.0004725	131.562999964
1570.0	0.0004715	131.609999895
1570.0	0.0004705	131.641000032
1570.0	0.0004693	131.687999964
1570.0	0.0004688	131.734999895
1570.0	0.0004688	131.766000032
1570.0	0.0004683	131.812999964
1570.0	0.0004678	131.859999895
1570.0	0.0004675	131.891000032
1570.0	0.0004675	131.937999964
1570.0	0.0004678	131.969000101
1570.0	0.0004678	132.016000032
1570.0	0.0004678	132.062999964
1570.0	0.0004678	132.094000101
1570.0	0.0004675	132.141000032
1570.0	0.0004675	132.187999964
1570.0	0.0004678	132.219000101
1570.0	0.0004678	132.266000032
1570.0	0.000468	132.312999964
1570.0	0.000468	132.344000101
1570.0	0.000468	132.391000032
1570.0	0.0004678	132.421999931
1570.0	0.0004675	132.469000101
1570.0	0.0004675	132.516000032
1570.0	0.0004675	132.562999964
1570.0	0.0004675	132.594000101
1570.0	0.0004675	132.641000032
1570.0	0.000467	132.671999931
1570.0	0.0004668	132.719000101
1570.0	0.000467	132.766000032
1570.0	0.0004675	132.796999931
1570.0	0.0004675	132.844000101
1570.0	0.0004675	132.891000032
1580.0	0.00046	133.157000065
1580.0	0.000457	133.187999964
1580.0	0.000455	133.234999895
1580.0	0.0004533	133.282000065
1580.0	0.0004518	133.312999964
1580.0	0.0004508	133.359999895
1580.0	0.00045	133.407000065
1580.0	0.0004493	133.437999964
1580.0	0.0004483	133.484999895
1580.0	0.000448	133.532000065
1580.0	0.0004478	133.562999964
1580.0	0.0004475	133.609999895
1580.0	0.000447	133.641000032
1580.0	0.000447	133.687999964
1580.0	0.0004475	133.734999895
1580.0	0.0004475	133.766000032
1580.0	0.0004475	133.812999964
1580.0	0.000447	133.859999895
1580.0	0.000447	133.891000032
1580.0	0.0004475	133.937999964
1580.0	0.0004475	133.969000101
1580.0	0.0004478	134.016000032
1580.0	0.0004475	134.062999964
1580.0	0.0004478	134.109999895
1580.0	0.0004478	134.141000032
1580.0	0.0004478	134.187999964
1580.0	0.0004478	134.234999895
1580.0	0.0004475	134.266000032
1580.0	0.0004475	134.312999964
1580.0	0.0004478	134.359999895
1580.0	0.0004475	134.391000032
1580.0	0.0004478	134.437999964
1580.0	0.0004478	134.484999895
1580.0	0.0004478	134.516000032
1580.0	0.000448	134.562999964
1580.0	0.000448	134.594000101
1580.0	0.000448	134.641000032
1590.0	0.000439	134.921999931
1590.0	0.0004358	134.953999996
1590.0	0.000433	135.0
1590.0	0.0004313	135.032000065
1590.0	0.0004293	135.078999996
1590.0	0.000428	135.125
1590.0	0.0004268	135.157000065
1590.0	0.0004263	135.203999996
1590.0	0.0004258	135.25
1590.0	0.0004255	135.282000065
1590.0	0.0004255	135.328999996
1590.0	0.0004258	135.375
1590.0	0.0004258	135.407000065
1590.0	0.0004255	135.453999996
1590.0	0.0004255	135.484999895
1590.0	0.0004255	135.532000065
1590.0	0.0004255	135.578999996
1590.0	0.0004253	135.609999895
1590.0	0.000425	135.657000065
1590.0	0.0004253	135.703999996
1590.0	0.0004245	135.734999895
1590.0	0.0004245	135.782000065
1590.0	0.0004243	135.828999996
1590.0	0.0004243	135.859999895
1590.0	0.0004243	135.907000065
1590.0	0.0004245	135.953999996
1590.0	0.0004245	135.984999895
1590.0	0.000425	136.032000065
1590.0	0.0004253	136.062999964
1590.0	0.0004255	136.109999895
1590.0	0.0004255	136.157000065
1590.0	0.0004255	136.187999964
1590.0	0.0004255	136.234999895
1590.0	0.0004253	136.282000065
1590.0	0.000425	136.312999964
1590.0	0.000425	136.359999895
1590.0	0.000425	136.407000065
1600.0	0.0004158	136.671999931
1600.0	0.0004128	136.719000101
1600.0	0.0004103	136.75
1600.0	0.0004083	136.796999931
1600.0	0.0004065	136.844000101
1600.0	0.0004053	136.875
1600.0	0.000404	136.921999931
1600.0	0.000403	136.969000101
1600.0	0.000402	137.0
1600.0	0.0004015	137.046999931
1600.0	0.0004008	137.078999996
1600.0	0.0004005	137.125
1600.0	0.0004003	137.171999931
1600.0	0.0004	137.203999996
1600.0	0.0004	137.25
1600.0	0.0004	137.296999931
1600.0	0.0004003	137.328999996
1600.0	0.0004005	137.375
1600.0	0.0004003	137.407000065
1600.0	0.0004003	137.453999996
1600.0	0.0004003	137.5
1600.0	0.0004003	137.532000065
1600.0	0.0004003	137.578999996
1600.0	0.0004003	137.625
1600.0	0.0004	137.657000065
1600.0	0.0004003	137.703999996
1600.0	0.0004	137.734999895
1600.0	0.0004	137.782000065
1600.0	0.0004003	137.828999996
1600.0	0.0004	137.859999895
1600.0	0.0004	137.907000065
1600.0	0.0003995	137.953999996
1600.0	0.0003995	137.984999895
1600.0	0.0003993	138.032000065
1600.0	0.0003993	138.078999996
1600.0	0.0003995	138.109999895
1600.0	0.0004	138.157000065
1610.0	0.0003895	138.421999931
1610.0	0.0003863	138.469000101
1610.0	0.0003828	138.516000032
1610.0	0.0003803	138.546999931
1610.0	0.000378	138.594000101
1610.0	0.0003765	138.641000032
1610.0	0.000375	138.671999931
1610.0	0.0003743	138.719000101
1610.0	0.0003733	138.75
1610.0	0.0003728	138.796999931
1610.0	0.0003725	138.844000101
1610.0	0.0003718	138.875
1610.0	0.0003718	138.921999931
1610.0	0.0003718	138.969000101
1610.0	0.0003715	139.0
1610.0	0.0003718	139.046999931
1610.0	0.0003718	139.078999996
1610.0	0.000372	139.125
1610.0	0.000372	139.171999931
1610.0	0.0003725	139.203999996
1610.0	0.0003725	139.25
1610.0	0.0003728	139.296999931
1610.0	0.000373	139.328999996
1610.0	0.0003733	139.375
1610.0	0.0003733	139.407000065
1610.0	0.000373	139.453999996
1610.0	0.0003728	139.5
1610.0	0.0003725	139.532000065
1610.0	0.0003725	139.578999996
1610.0	0.0003728	139.625
1610.0	0.0003725	139.657000065
1610.0	0.0003725	139.703999996
1610.0	0.0003728	139.75
1610.0	0.0003725	139.782000065
1610.0	0.0003725	139.828999996
1610.0	0.000372	139.875
1610.0	0.000372	139.907000065
1620.0	0.0003613	140.187999964
1620.0	0.0003565	140.234999895
1620.0	0.000353	140.282000065
1620.0	0.0003505	140.312999964
1620.0	0.000348	140.359999895
1620.0	0.0003465	140.407000065
1620.0	0.0003453	140.437999964
1620.0	0.0003443	140.484999895
1620.0	0.0003438	140.516000032
1620.0	0.0003433	140.562999964
1620.0	0.0003433	140.609999895
1620.0	0.0003438	140.641000032
1620.0	0.0003433	140.687999964
1620.0	0.0003433	140.734999895
1620.0	0.0003433	140.766000032
1620.0	0.0003433	140.812999964
1620.0	0.0003438	140.844000101
1620.0	0.0003433	140.891000032
1620.0	0.0003433	140.937999964
1620.0	0.0003433	140.969000101
1620.0	0.000343	141.016000032
1620.0	0.0003428	141.062999964
1620.0	0.0003428	141.094000101
1620.0	0.000343	141.141000032
1620.0	0.000343	141.187999964
1620.0	0.0003433	141.219000101
1620.0	0.000343	141.266000032
1620.0	0.0003425	141.296999931
1620.0	0.0003425	141.344000101
1620.0	0.0003425	141.391000032
1620.0	0.0003425	141.421999931
1620.0	0.0003428	141.469000101
1620.0	0.0003425	141.516000032
1620.0	0.0003425	141.546999931
1620.0	0.0003425	141.594000101
1620.0	0.0003428	141.641000032
1630.0	0.0003313	141.907000065
1630.0	0.000327	141.953999996
1630.0	0.000324	142.0
1630.0	0.0003213	142.032000065
1630.0	0.0003193	142.078999996
1630.0	0.0003178	142.109999895
1630.0	0.0003163	142.157000065
1630.0	0.0003153	142.203999996
1630.0	0.0003145	142.234999895
1630.0	0.0003138	142.282000065
1630.0	0.0003133	142.328999996
1630.0	0.000313	142.359999895
1630.0	0.0003128	142.407000065
1630.0	0.000313	142.437999964
1630.0	0.000313	142.484999895
1630.0	0.000313	142.532000065
1630.0	0.000313	142.562999964
1630.0	0.000313	142.609999895
1630.0	0.0003133	142.657000065
1630.0	0.0003133	142.687999964
1630.0	0.000313	142.734999895
1630.0	0.000313	142.766000032
1630.0	0.000313	142.812999964
1630.0	0.000313	142.859999895
1630.0	0.0003128	142.891000032
1630.0	0.0003125	142.937999964
1630.0	0.000312	142.984999895
1630.0	0.0003125	143.016000032
1630.0	0.000312	143.062999964
1630.0	0.0003118	143.109999895
1630.0	0.0003118	143.141000032
1630.0	0.0003118	143.187999964
1630.0	0.0003118	143.219000101
1630.0	0.0003118	143.266000032
1630.0	0.0003118	143.312999964
1630.0	0.000312	143.344000101
1630.0	0.0003118	143.391000032
1640.0	0.0002995	143.671999931
1640.0	0.0002955	143.719000101
1640.0	0.0002925	143.75
1640.0	0.00029	143.796999931
1640.0	0.0002875	143.844000101
1640.0	0.0002855	143.875
1640.0	0.0002845	143.921999931
1640.0	0.000284	143.953999996
1640.0	0.0002838	144.0
1640.0	0.000283	144.046999931
1640.0	0.0002828	144.078999996
1640.0	0.000283	144.125
1640.0	0.0002828	144.171999931
1640.0	0.0002825	144.203999996
1640.0	0.0002825	144.25
1640.0	0.000282	144.282000065
1640.0	0.000282	144.328999996
1640.0	0.0002825	144.375
1640.0	0.000282	144.407000065
1640.0	0.0002818	144.453999996
1640.0	0.0002818	144.5
1640.0	0.0002815	144.532000065
1640.0	0.0002818	144.578999996
1640.0	0.0002818	144.609999895
1640.0	0.0002818	144.657000065
1640.0	0.000282	144.703999996
1640.0	0.000282	144.734999895
1640.0	0.000282	144.782000065
1640.0	0.000282	144.828999996
1640.0	0.0002818	144.859999895
1640.0	0.0002818	144.907000065
1640.0	0.0002818	144.953999996
1640.0	0.0002815	144.984999895
1640.0	0.0002815	145.032000065
1640.0	0.0002818	145.062999964
1640.0	0.0002818	145.109999895
1640.0	0.000282	145.157000065
1650.0	0.0002695	145.437999964
1650.0	0.0002663	145.469000101
1650.0	0.000263	145.516000032
1650.0	0.0002603	145.562999964
1650.0	0.0002583	145.594000101
1650.0	0.0002568	145.641000032
1650.0	0.0002558	145.687999964
1650.0	0.000255	145.719000101
1650.0	0.0002545	145.766000032
1650.0	0.000254	145.796999931
1650.0	0.000254	145.844000101
1650.0	0.0002533	145.891000032
1650.0	0.0002533	145.921999931
1650.0	0.0002533	145.969000101
1650.0	0.0002533	146.016000032
1650.0	0.0002538	146.046999931
1650.0	0.000253	146.094000101
1650.0	0.0002528	146.141000032
1650.0	0.0002528	146.171999931
1650.0	0.0002525	146.219000101
1650.0	0.0002528	146.25
1650.0	0.0002528	146.296999931
1650.0	0.000253	146.344000101
1650.0	0.0002533	146.375
1650.0	0.0002533	146.421999931
1650.0	0.0002538	146.469000101
1650.0	0.0002538	146.5
1650.0	0.0002538	146.546999931
1650.0	0.0002538	146.594000101
1650.0	0.000253	146.625
1650.0	0.0002528	146.671999931
1650.0	0.0002528	146.719000101
1650.0	0.0002528	146.75
1650.0	0.0002528	146.796999931
1650.0	0.000253	146.828999996
1650.0	0.000253	146.875
1650.0	0.0002528	146.921999931
1660.0	0.000242	147.203999996
1660.0	0.0002388	147.234999895
1660.0	0.0002363	147.282000065
1660.0	0.0002338	147.328999996
1660.0	0.0002313	147.375
1660.0	0.0002295	147.407000065
1660.0	0.0002283	147.453999996
1660.0	0.0002275	147.484999895
1660.0	0.0002268	147.532000065
1660.0	0.0002265	147.578999996
1660.0	0.0002263	147.609999895
1660.0	0.0002263	147.657000065
1660.0	0.0002258	147.703999996
1660.0	0.0002255	147.734999895
1660.0	0.0002255	147.782000065
1660.0	0.0002255	147.828999996
1660.0	0.0002258	147.859999895
1660.0	0.0002258	147.907000065
1660.0	0.0002258	147.937999964
1660.0	0.0002263	147.984999895
1660.0	0.0002258	148.032000065
1660.0	0.0002255	148.062999964
1660.0	0.0002258	148.109999895
1660.0	0.0002263	148.157000065
1660.0	0.0002263	148.187999964
1660.0	0.0002258	148.234999895
1660.0	0.0002258	148.266000032
1660.0	0.0002258	148.312999964
1660.0	0.0002258	148.359999895
1660.0	0.0002255	148.391000032
1660.0	0.0002255	148.437999964
1660.0	0.0002253	148.484999895
1660.0	0.0002253	148.516000032
1660.0	0.0002255	148.562999964
1660.0	0.0002253	148.609999895
1660.0	0.0002253	148.641000032
1660.0	0.0002253	148.687999964
1670.0	0.0002163	148.969000101
1670.0	0.000213	149.016000032
1670.0	0.0002105	149.046999931
1670.0	0.0002083	149.094000101
1670.0	0.0002068	149.125
1670.0	0.0002053	149.171999931
1670.0	0.0002045	149.219000101
1670.0	0.000204	149.25
1670.0	0.0002033	149.296999931
1670.0	0.000203	149.344000101
1670.0	0.0002028	149.375
1670.0	0.0002028	149.421999931
1670.0	0.0002028	149.453999996
1670.0	0.0002028	149.5
1670.0	0.0002028	149.546999931
1670.0	0.0002025	149.578999996
1670.0	0.0002028	149.625
1670.0	0.0002028	149.671999931
1670.0	0.000203	149.703999996
1670.0	0.000203	149.75
1670.0	0.0002028	149.782000065
1670.0	0.0002025	149.828999996
1670.0	0.0002025	149.875
1670.0	0.0002025	149.921999931
1670.0	0.0002028	149.953999996
1670.0	0.0002028	150.0
1670.0	0.0002028	150.032000065
1670.0	0.0002028	150.078999996
1670.0	0.0002028	150.125
1670.0	0.0002025	150.157000065
1670.0	0.000202	150.203999996
1670.0	0.000202	150.25
1670.0	0.000202	150.282000065
1670.0	0.000202	150.328999996
1670.0	0.000202	150.359999895
1670.0	0.000202	150.407000065
1670.0	0.000202	150.453999996
1680.0	0.000193	150.734999895
1680.0	0.00019	150.782000065
1680.0	0.0001875	150.812999964
1680.0	0.0001855	150.859999895
1680.0	0.0001845	150.907000065
1680.0	0.0001833	150.953999996
1680.0	0.000183	150.984999895
1680.0	0.000182	151.032000065
1680.0	0.0001815	151.062999964
1680.0	0.0001808	151.109999895
1680.0	0.0001805	151.157000065
1680.0	0.00018	151.187999964
1680.0	0.0001803	151.234999895
1680.0	0.0001803	151.282000065
1680.0	0.0001805	151.312999964
1680.0	0.0001805	151.359999895
1680.0	0.0001803	151.391000032
1680.0	0.0001803	151.437999964
1680.0	0.0001803	151.484999895
1680.0	0.00018	151.516000032
1680.0	0.0001803	151.562999964
1680.0	0.0001805	151.609999895
1680.0	0.0001808	151.641000032
1680.0	0.0001813	151.687999964
1680.0	0.0001813	151.734999895
1680.0	0.0001813	151.766000032
1680.0	0.0001813	151.812999964
1680.0	0.0001805	151.844000101
1680.0	0.0001805	151.891000032
1680.0	0.0001808	151.937999964
1680.0	0.0001805	151.969000101
1680.0	0.0001805	152.016000032
1680.0	0.0001805	152.062999964
1680.0	0.0001805	152.094000101
1680.0	0.0001813	152.141000032
1680.0	0.0001813	152.171999931
1680.0	0.0001813	152.219000101
1690.0	0.000173	152.5
1690.0	0.0001705	152.546999931
1690.0	0.0001683	152.594000101
1690.0	0.0001668	152.625
1690.0	0.0001653	152.671999931
1690.0	0.0001643	152.719000101
1690.0	0.0001633	152.75
1690.0	0.0001628	152.796999931
1690.0	0.0001625	152.844000101
1690.0	0.000162	152.875
1690.0	0.0001618	152.921999931
1690.0	0.0001618	152.953999996
1690.0	0.0001615	153.0
1690.0	0.0001615	153.046999931
1690.0	0.0001615	153.078999996
1690.0	0.0001615	153.125
1690.0	0.0001613	153.157000065
1690.0	0.0001613	153.203999996
1690.0	0.0001613	153.25
1690.0	0.0001613	153.282000065
1690.0	0.0001608	153.328999996
1690.0	0.0001613	153.375
1690.0	0.0001608	153.421999931
1690.0	0.0001608	153.453999996
1690.0	0.0001608	153.5
1690.0	0.0001608	153.532000065
1690.0	0.0001608	153.578999996
1690.0	0.0001608	153.625
1690.0	0.0001608	153.657000065
1690.0	0.0001608	153.703999996
1690.0	0.0001608	153.75
1690.0	0.0001608	153.782000065
1690.0	0.0001613	153.828999996
1690.0	0.0001613	153.859999895
1690.0	0.0001613	153.907000065
1690.0	0.0001615	153.953999996
1690.0	0.0001615	153.984999895
1700.0	0.0001543	154.282000065
1700.0	0.0001518	154.312999964
1700.0	0.0001503	154.359999895
1700.0	0.000149	154.407000065
1700.0	0.000148	154.437999964
1700.0	0.000147	154.484999895
1700.0	0.0001465	154.532000065
1700.0	0.0001463	154.562999964
1700.0	0.0001455	154.609999895
1700.0	0.0001453	154.641000032
1700.0	0.0001445	154.687999964
1700.0	0.0001445	154.734999895
1700.0	0.000145	154.766000032
1700.0	0.000145	154.812999964
1700.0	0.000145	154.859999895
1700.0	0.0001445	154.891000032
1700.0	0.0001445	154.937999964
1700.0	0.0001445	154.984999895
1700.0	0.000145	155.016000032
1700.0	0.000145	155.062999964
1700.0	0.0001445	155.109999895
1700.0	0.0001445	155.141000032
1700.0	0.0001445	155.187999964
1700.0	0.0001445	155.219000101
1700.0	0.0001443	155.266000032
1700.0	0.000144	155.312999964
1700.0	0.000144	155.344000101
1700.0	0.000144	155.391000032
1700.0	0.0001438	155.437999964
1700.0	0.0001438	155.484999895
1700.0	0.000144	155.516000032
1700.0	0.000144	155.562999964
1700.0	0.0001443	155.594000101
1700.0	0.0001445	155.641000032
1700.0	0.000145	155.687999964
1700.0	0.0001453	155.719000101
1700.0	0.000145	155.766000032
1710.0	0.0001388	156.046999931
1710.0	0.0001365	156.094000101
1710.0	0.0001345	156.141000032
1710.0	0.0001333	156.171999931
1710.0	0.0001325	156.219000101
1710.0	0.0001315	156.25
1710.0	0.0001308	156.296999931
1710.0	0.0001303	156.344000101
1710.0	0.00013	156.375
1710.0	0.00013	156.421999931
1710.0	0.00013	156.469000101
1710.0	0.00013	156.5
1710.0	0.0001303	156.546999931
1710.0	0.00013	156.594000101
1710.0	0.00013	156.625
1710.0	0.0001295	156.671999931
1710.0	0.0001295	156.703999996
1710.0	0.0001295	156.75
1710.0	0.0001295	156.796999931
1710.0	0.0001295	156.828999996
1710.0	0.00013	156.875
1710.0	0.0001295	156.921999931
1710.0	0.00013	156.953999996
1710.0	0.00013	157.0
1710.0	0.00013	157.032000065
1710.0	0.00013	157.078999996
1710.0	0.0001303	157.125
1710.0	0.0001303	157.157000065
1710.0	0.0001305	157.203999996
1710.0	0.0001303	157.25
1710.0	0.0001303	157.282000065
1710.0	0.0001305	157.328999996
1710.0	0.0001305	157.359999895
1710.0	0.0001305	157.407000065
1710.0	0.0001305	157.453999996
1710.0	0.0001303	157.484999895
1710.0	0.0001308	157.532000065
1720.0	0.000125	157.812999964
1720.0	0.000123	157.859999895
1720.0	0.0001215	157.907000065
1720.0	0.0001205	157.937999964
1720.0	0.0001193	157.984999895
1720.0	0.000119	158.016000032
1720.0	0.0001188	158.062999964
1720.0	0.0001183	158.109999895
1720.0	0.0001178	158.141000032
1720.0	0.0001175	158.187999964
1720.0	0.0001175	158.234999895
1720.0	0.0001175	158.266000032
1720.0	0.0001175	158.312999964
1720.0	0.000117	158.344000101
1720.0	0.0001168	158.391000032
1720.0	0.0001165	158.437999964
1720.0	0.0001165	158.469000101
1720.0	0.0001165	158.516000032
1720.0	0.0001165	158.562999964
1720.0	0.0001163	158.594000101
1720.0	0.0001163	158.641000032
1720.0	0.0001158	158.687999964
1720.0	0.0001155	158.719000101
1720.0	0.0001155	158.766000032
1720.0	0.0001158	158.796999931
1720.0	0.0001165	158.844000101
1720.0	0.0001165	158.891000032
1720.0	0.0001168	158.921999931
1720.0	0.0001168	158.969000101
1720.0	0.0001168	159.016000032
1720.0	0.000117	159.046999931
1720.0	0.0001175	159.094000101
1720.0	0.0001175	159.125
1720.0	0.0001175	159.171999931
1720.0	0.0001175	159.219000101
1720.0	0.0001175	159.25
1720.0	0.000117	159.296999931
1730.0	0.0001118	159.594000101
1730.0	0.0001105	159.625
1730.0	0.0001095	159.671999931
1730.0	0.0001088	159.719000101
1730.0	0.000108	159.75
1730.0	0.0001075	159.796999931
1730.0	0.0001065	159.828999996
1730.0	0.0001055	159.875
1730.0	0.0001053	159.921999931
1730.0	0.000105	159.953999996
1730.0	0.0001053	160.0
1730.0	0.000105	160.046999931
1730.0	0.0001045	160.078999996
1730.0	0.0001045	160.125
1730.0	0.0001045	160.157000065
1730.0	0.0001045	160.203999996
1730.0	0.000105	160.25
1730.0	0.0001053	160.282000065
1730.0	0.0001053	160.328999996
1730.0	0.0001055	160.375
1730.0	0.0001058	160.407000065
1730.0	0.0001058	160.453999996
1730.0	0.0001058	160.484999895
1730.0	0.0001055	160.532000065
1730.0	0.0001055	160.578999996
1730.0	0.0001053	160.609999895
1730.0	0.000105	160.657000065
1730.0	0.000105	160.703999996
1730.0	0.0001045	160.734999895
1730.0	0.0001045	160.782000065
1730.0	0.000105	160.812999964
1730.0	0.0001045	160.859999895
1730.0	0.000105	160.907000065
1730.0	0.000105	160.937999964
1730.0	0.000105	160.984999895
1730.0	0.000105	161.032000065
1730.0	0.0001045	161.062999964
1740.0	0.0001	161.359999895
1740.0	9.88e-05	161.407000065
1740.0	9.75e-05	161.437999964
1740.0	9.65e-05	161.484999895
1740.0	9.63e-05	161.532000065
1740.0	9.55e-05	161.562999964
1740.0	9.55e-05	161.609999895
1740.0	9.55e-05	161.657000065
1740.0	9.55e-05	161.687999964
1740.0	9.55e-05	161.734999895
1740.0	9.55e-05	161.766000032
1740.0	9.55e-05	161.812999964
1740.0	9.55e-05	161.859999895
1740.0	9.53e-05	161.891000032
1740.0	9.5e-05	161.937999964
1740.0	9.45e-05	161.984999895
1740.0	9.45e-05	162.016000032
1740.0	9.43e-05	162.062999964
1740.0	9.43e-05	162.109999895
1740.0	9.45e-05	162.141000032
1740.0	9.43e-05	162.187999964
1740.0	9.43e-05	162.219000101
1740.0	9.43e-05	162.266000032
1740.0	9.43e-05	162.312999964
1740.0	9.43e-05	162.359999895
1740.0	9.43e-05	162.391000032
1740.0	9.45e-05	162.437999964
1740.0	9.45e-05	162.469000101
1740.0	9.43e-05	162.516000032
1740.0	9.43e-05	162.562999964
1740.0	9.45e-05	162.594000101
1740.0	9.45e-05	162.641000032
1740.0	9.45e-05	162.687999964
1740.0	9.45e-05	162.719000101
1740.0	9.45e-05	162.766000032
1740.0	9.45e-05	162.796999931
1740.0	9.43e-05	162.844000101
1750.0	9.13e-05	163.141000032
1750.0	9.03e-05	163.187999964
1750.0	8.93e-05	163.234999895
1750.0	8.83e-05	163.266000032
1750.0	8.75e-05	163.312999964
1750.0	8.68e-05	163.344000101
1750.0	8.65e-05	163.391000032
1750.0	8.63e-05	163.437999964
1750.0	8.63e-05	163.469000101
1750.0	8.58e-05	163.516000032
1750.0	8.55e-05	163.562999964
1750.0	8.55e-05	163.594000101
1750.0	8.55e-05	163.641000032
1750.0	8.55e-05	163.671999931
1750.0	8.58e-05	163.719000101
1750.0	8.58e-05	163.766000032
1750.0	8.55e-05	163.796999931
1750.0	8.55e-05	163.844000101
1750.0	8.55e-05	163.891000032
1750.0	8.55e-05	163.921999931
1750.0	8.58e-05	163.969000101
1750.0	8.58e-05	164.016000032
1750.0	8.58e-05	164.046999931
1750.0	8.63e-05	164.094000101
1750.0	8.58e-05	164.125
1750.0	8.63e-05	164.171999931
1750.0	8.63e-05	164.219000101
1750.0	8.55e-05	164.25
1750.0	8.55e-05	164.296999931
1750.0	8.55e-05	164.344000101
1750.0	8.55e-05	164.375
1750.0	8.55e-05	164.421999931
1750.0	8.55e-05	164.453999996
1750.0	8.55e-05	164.5
1750.0	8.55e-05	164.546999931
1750.0	8.55e-05	164.578999996
1750.0	8.55e-05	164.625
1760.0	8.18e-05	164.921999931
1760.0	8.05e-05	164.969000101
1760.0	7.93e-05	165.0
1760.0	7.88e-05	165.046999931
1760.0	7.8e-05	165.094000101
1760.0	7.78e-05	165.125
1760.0	7.75e-05	165.171999931
1760.0	7.75e-05	165.219000101
1760.0	7.7e-05	165.25
1760.0	7.68e-05	165.296999931
1760.0	7.65e-05	165.328999996
1760.0	7.63e-05	165.375
1760.0	7.63e-05	165.421999931
1760.0	7.58e-05	165.453999996
1760.0	7.58e-05	165.5
1760.0	7.58e-05	165.546999931
1760.0	7.63e-05	165.578999996
1760.0	7.63e-05	165.625
1760.0	7.63e-05	165.657000065
1760.0	7.63e-05	165.703999996
1760.0	7.63e-05	165.75
1760.0	7.63e-05	165.782000065
1760.0	7.58e-05	165.828999996
1760.0	7.58e-05	165.875
1760.0	7.63e-05	165.907000065
1760.0	7.58e-05	165.953999996
1760.0	7.58e-05	165.984999895
1760.0	7.55e-05	166.032000065
1760.0	7.58e-05	166.078999996
1760.0	7.58e-05	166.109999895
1760.0	7.58e-05	166.157000065
1760.0	7.63e-05	166.203999996
1760.0	7.65e-05	166.234999895
1760.0	7.65e-05	166.282000065
1760.0	7.65e-05	166.312999964
1760.0	7.65e-05	166.359999895
1760.0	7.63e-05	166.407000065
1770.0	7.3e-05	166.703999996
1770.0	7.2e-05	166.75
1770.0	7.13e-05	166.782000065
1770.0	7.03e-05	166.828999996
1770.0	7e-05	166.875
1770.0	6.93e-05	166.907000065
1770.0	6.93e-05	166.953999996
1770.0	6.93e-05	167.0
1770.0	6.93e-05	167.032000065
1770.0	6.93e-05	167.078999996
1770.0	6.93e-05	167.109999895
1770.0	6.9e-05	167.157000065
1770.0	6.93e-05	167.203999996
1770.0	6.88e-05	167.234999895
1770.0	6.83e-05	167.282000065
1770.0	6.83e-05	167.328999996
1770.0	6.83e-05	167.359999895
1770.0	6.83e-05	167.407000065
1770.0	6.88e-05	167.437999964
1770.0	6.8e-05	167.484999895
1770.0	6.8e-05	167.532000065
1770.0	6.8e-05	167.562999964
1770.0	6.8e-05	167.609999895
1770.0	6.78e-05	167.657000065
1770.0	6.75e-05	167.687999964
1770.0	6.7e-05	167.734999895
1770.0	6.75e-05	167.782000065
1770.0	6.78e-05	167.812999964
1770.0	6.78e-05	167.859999895
1770.0	6.78e-05	167.891000032
1770.0	6.78e-05	167.937999964
1770.0	6.8e-05	167.984999895
1770.0	6.8e-05	168.016000032
1770.0	6.8e-05	168.062999964
1770.0	6.8e-05	168.109999895
1770.0	6.8e-05	168.141000032
1770.0	6.8e-05	168.187999964
1780.0	6.43e-05	168.484999895
1780.0	6.38e-05	168.532000065
1780.0	6.3e-05	168.578999996
1780.0	6.25e-05	168.609999895
1780.0	6.2e-05	168.657000065
1780.0	6.18e-05	168.687999964
1780.0	6.15e-05	168.734999895
1780.0	6.15e-05	168.782000065
1780.0	6.15e-05	168.812999964
1780.0	6.13e-05	168.859999895
1780.0	6.13e-05	168.907000065
1780.0	6.08e-05	168.937999964
1780.0	6.08e-05	168.984999895
1780.0	6.08e-05	169.016000032
1780.0	6.08e-05	169.062999964
1780.0	6.13e-05	169.109999895
1780.0	6.15e-05	169.141000032
1780.0	6.15e-05	169.187999964
1780.0	6.18e-05	169.234999895
1780.0	6.15e-05	169.266000032
1780.0	6.13e-05	169.312999964
1780.0	6.13e-05	169.344000101
1780.0	6.08e-05	169.391000032
1780.0	6.08e-05	169.437999964
1780.0	6.05e-05	169.469000101
1780.0	6.05e-05	169.516000032
1780.0	6.03e-05	169.562999964
1780.0	6.03e-05	169.594000101
1780.0	6.03e-05	169.641000032
1780.0	6.03e-05	169.671999931
1780.0	6.05e-05	169.719000101
1780.0	6.05e-05	169.766000032
1780.0	6.05e-05	169.796999931
1780.0	6.05e-05	169.844000101
1780.0	6.05e-05	169.891000032
1780.0	6.03e-05	169.921999931
1780.0	6.05e-05	169.969000101
1790.0	5.7e-05	170.266000032
1790.0	5.58e-05	170.312999964
1790.0	5.53e-05	170.359999895
1790.0	5.43e-05	170.391000032
1790.0	5.4e-05	170.437999964
1790.0	5.38e-05	170.484999895
1790.0	5.3e-05	170.516000032
1790.0	5.28e-05	170.562999964
1790.0	5.3e-05	170.594000101
1790.0	5.3e-05	170.641000032
1790.0	5.3e-05	170.687999964
1790.0	5.3e-05	170.734999895
1790.0	5.3e-05	170.766000032
1790.0	5.33e-05	170.812999964
1790.0	5.33e-05	170.844000101
1790.0	5.3e-05	170.891000032
1790.0	5.28e-05	170.937999964
1790.0	5.25e-05	170.969000101
1790.0	5.28e-05	171.016000032
1790.0	5.28e-05	171.062999964
1790.0	5.25e-05	171.094000101
1790.0	5.25e-05	171.141000032
1790.0	5.25e-05	171.171999931
1790.0	5.25e-05	171.219000101
1790.0	5.28e-05	171.266000032
1790.0	5.3e-05	171.296999931
1790.0	5.3e-05	171.344000101
1790.0	5.33e-05	171.391000032
1790.0	5.33e-05	171.421999931
1790.0	5.38e-05	171.469000101
1790.0	5.38e-05	171.5
1790.0	5.38e-05	171.546999931
1790.0	5.4e-05	171.594000101
1790.0	5.4e-05	171.625
1790.0	5.38e-05	171.671999931
1790.0	5.38e-05	171.719000101
1790.0	5.3e-05	171.75
1800.0	4.95e-05	172.046999931
1800.0	4.88e-05	172.094000101
1800.0	4.8e-05	172.141000032
1800.0	4.78e-05	172.171999931
1800.0	4.75e-05	172.219000101
1800.0	4.7e-05	172.266000032
1800.0	4.7e-05	172.296999931
1800.0	4.68e-05	172.344000101
1800.0	4.68e-05	172.375
1800.0	4.68e-05	172.421999931
1800.0	4.7e-05	172.469000101
1800.0	4.7e-05	172.5
1800.0	4.7e-05	172.546999931
1800.0	4.68e-05	172.594000101
1800.0	4.68e-05	172.625
1800.0	4.68e-05	172.671999931
1800.0	4.68e-05	172.719000101
1800.0	4.65e-05	172.75
1800.0	4.58e-05	172.796999931
1800.0	4.58e-05	172.828999996
1800.0	4.58e-05	172.875
1800.0	4.63e-05	172.921999931
1800.0	4.63e-05	172.953999996
1800.0	4.63e-05	173.0
1800.0	4.65e-05	173.032000065
1800.0	4.65e-05	173.078999996
1800.0	4.65e-05	173.125
1800.0	4.65e-05	173.157000065
1800.0	4.65e-05	173.203999996
1800.0	4.65e-05	173.25
1800.0	4.68e-05	173.282000065
1800.0	4.68e-05	173.328999996
1800.0	4.7e-05	173.375
1800.0	4.75e-05	173.407000065
1800.0	4.7e-05	173.453999996
1800.0	4.65e-05	173.484999895
1800.0	4.65e-05	173.532000065
