Your edit line - do NOT delete this line
Wavelength [nm], Voltage [V], Elapsed time [s]
800.0	7.33e-05	11.2189998627
800.0	7.2e-05	11.25
800.0	7.08e-05	11.2969999313
800.0	7.08e-05	11.3439998627
800.0	7.13e-05	11.375
800.0	7.13e-05	11.4219999313
800.0	7.13e-05	11.4689998627
800.0	7.13e-05	11.5
800.0	7.05e-05	11.5469999313
800.0	7.03e-05	11.5780000687
800.0	7.05e-05	11.625
800.0	7.08e-05	11.6719999313
800.0	7.03e-05	11.7030000687
800.0	7.03e-05	11.75
800.0	7e-05	11.7809998989
800.0	7e-05	11.8280000687
800.0	6.95e-05	11.875
800.0	6.9e-05	11.9219999313
800.0	6.8e-05	11.9530000687
800.0	6.78e-05	12.0
800.0	6.78e-05	12.0469999313
800.0	6.75e-05	12.0780000687
800.0	6.8e-05	12.125
800.0	6.83e-05	12.1559998989
800.0	6.88e-05	12.2030000687
800.0	6.9e-05	12.25
800.0	6.93e-05	12.2809998989
800.0	6.93e-05	12.3280000687
800.0	6.88e-05	12.375
800.0	6.9e-05	12.4059998989
800.0	6.93e-05	12.4530000687
800.0	6.93e-05	12.5
800.0	7e-05	12.5309998989
800.0	7.03e-05	12.5780000687
800.0	7.08e-05	12.625
800.0	7.08e-05	12.6559998989
810.0	7.13e-05	13.0
810.0	7.13e-05	13.0469999313
810.0	7.13e-05	13.0780000687
810.0	7.13e-05	13.125
810.0	7.18e-05	13.1719999313
810.0	7.2e-05	13.2030000687
810.0	7.25e-05	13.25
810.0	7.3e-05	13.2809998989
810.0	7.33e-05	13.3280000687
810.0	7.33e-05	13.375
810.0	7.33e-05	13.4059998989
810.0	7.38e-05	13.4530000687
810.0	7.4e-05	13.5
810.0	7.43e-05	13.5309998989
810.0	7.5e-05	13.5780000687
810.0	7.45e-05	13.6089999676
810.0	7.45e-05	13.6559998989
810.0	7.43e-05	13.7030000687
810.0	7.45e-05	13.7339999676
810.0	7.45e-05	13.7809998989
810.0	7.5e-05	13.8280000687
810.0	7.5e-05	13.8589999676
810.0	7.53e-05	13.9059998989
810.0	7.58e-05	13.9530000687
810.0	7.63e-05	13.9839999676
810.0	7.58e-05	14.0309998989
810.0	7.55e-05	14.0620000362
810.0	7.53e-05	14.1089999676
810.0	7.45e-05	14.1559998989
810.0	7.5e-05	14.1870000362
810.0	7.53e-05	14.2339999676
810.0	7.45e-05	14.2809998989
810.0	7.45e-05	14.3120000362
810.0	7.45e-05	14.3589999676
810.0	7.45e-05	14.3910000324
810.0	7.4e-05	14.4370000362
810.0	7.38e-05	14.4839999676
820.0	7.68e-05	14.8120000362
820.0	7.75e-05	14.8589999676
820.0	7.8e-05	14.8910000324
820.0	7.88e-05	14.9370000362
820.0	7.93e-05	14.9689998627
820.0	8.03e-05	15.0160000324
820.0	8e-05	15.0620000362
820.0	8e-05	15.0939998627
820.0	8.05e-05	15.1410000324
820.0	8.15e-05	15.1870000362
820.0	8.15e-05	15.2189998627
820.0	8.18e-05	15.2660000324
820.0	8.15e-05	15.3120000362
820.0	8.08e-05	15.3439998627
820.0	8.13e-05	15.3910000324
820.0	8.08e-05	15.4219999313
820.0	8.05e-05	15.4689998627
820.0	8e-05	15.5160000324
820.0	8e-05	15.5469999313
820.0	7.93e-05	15.5939998627
820.0	7.95e-05	15.6410000324
820.0	8.03e-05	15.6719999313
820.0	8.05e-05	15.7189998627
820.0	8.08e-05	15.75
820.0	8.05e-05	15.7969999313
820.0	8.03e-05	15.8439998627
820.0	7.95e-05	15.875
820.0	7.95e-05	15.9219999313
820.0	8e-05	15.9689998627
820.0	8e-05	16.0
820.0	8.03e-05	16.0469999313
820.0	8.08e-05	16.0780000687
820.0	8.13e-05	16.125
820.0	8.08e-05	16.1719999313
820.0	8.03e-05	16.2030000687
820.0	7.95e-05	16.25
820.0	8e-05	16.2969999313
830.0	8.43e-05	16.625
830.0	8.43e-05	16.6559998989
830.0	8.45e-05	16.7030000687
830.0	8.4e-05	16.75
830.0	8.43e-05	16.7969999313
830.0	8.55e-05	16.8280000687
830.0	8.65e-05	16.875
830.0	8.68e-05	16.9219999313
830.0	8.7e-05	16.9530000687
830.0	8.7e-05	17.0
830.0	8.65e-05	17.0309998989
830.0	8.68e-05	17.0780000687
830.0	8.68e-05	17.125
830.0	8.68e-05	17.1559998989
830.0	8.68e-05	17.2030000687
830.0	8.68e-05	17.25
830.0	8.68e-05	17.2809998989
830.0	8.65e-05	17.3280000687
830.0	8.68e-05	17.3589999676
830.0	8.68e-05	17.4059998989
830.0	8.75e-05	17.4530000687
830.0	8.78e-05	17.4839999676
830.0	8.8e-05	17.5309998989
830.0	8.8e-05	17.5780000687
830.0	8.83e-05	17.625
830.0	8.8e-05	17.6559998989
830.0	8.75e-05	17.7030000687
830.0	8.75e-05	17.7339999676
830.0	8.78e-05	17.7809998989
830.0	8.75e-05	17.8280000687
830.0	8.75e-05	17.8589999676
830.0	8.75e-05	17.9059998989
830.0	8.68e-05	17.9530000687
830.0	8.68e-05	17.9839999676
830.0	8.68e-05	18.0309998989
830.0	8.65e-05	18.0620000362
830.0	8.68e-05	18.1089999676
840.0	8.95e-05	18.4370000362
840.0	9.03e-05	18.4839999676
840.0	9.13e-05	18.5160000324
840.0	9.15e-05	18.5620000362
840.0	9.13e-05	18.6089999676
840.0	9.08e-05	18.6410000324
840.0	9.13e-05	18.6870000362
840.0	9.18e-05	18.7189998627
840.0	9.2e-05	18.7660000324
840.0	9.28e-05	18.8120000362
840.0	9.3e-05	18.8439998627
840.0	9.33e-05	18.8910000324
840.0	9.43e-05	18.9370000362
840.0	9.45e-05	18.9689998627
840.0	9.38e-05	19.0160000324
840.0	9.43e-05	19.0469999313
840.0	9.5e-05	19.0939998627
840.0	9.55e-05	19.1410000324
840.0	9.55e-05	19.1719999313
840.0	9.55e-05	19.2189998627
840.0	9.53e-05	19.2660000324
840.0	9.5e-05	19.2969999313
840.0	9.45e-05	19.3439998627
840.0	9.43e-05	19.3910000324
840.0	9.4e-05	19.4219999313
840.0	9.45e-05	19.4689998627
840.0	9.53e-05	19.5
840.0	9.53e-05	19.5469999313
840.0	9.53e-05	19.5939998627
840.0	9.45e-05	19.625
840.0	9.45e-05	19.6719999313
840.0	9.53e-05	19.7189998627
840.0	9.63e-05	19.75
840.0	9.65e-05	19.7969999313
840.0	9.58e-05	19.8280000687
840.0	9.58e-05	19.875
840.0	9.55e-05	19.9219999313
850.0	9.88e-05	20.2339999676
850.0	0.0001	20.2809998989
850.0	0.0001005	20.3280000687
850.0	0.0001008	20.3589999676
850.0	0.0001013	20.4059998989
850.0	0.0001015	20.4530000687
850.0	0.0001013	20.4839999676
850.0	0.0001013	20.5309998989
850.0	0.0001015	20.5620000362
850.0	0.0001018	20.6089999676
850.0	0.000102	20.6559998989
850.0	0.0001028	20.6870000362
850.0	0.000103	20.7339999676
850.0	0.000103	20.7809998989
850.0	0.0001033	20.8120000362
850.0	0.0001028	20.8589999676
850.0	0.0001025	20.9059998989
850.0	0.0001028	20.9370000362
850.0	0.000103	20.9839999676
850.0	0.0001033	21.0160000324
850.0	0.000104	21.0620000362
850.0	0.0001038	21.1089999676
850.0	0.0001038	21.1410000324
850.0	0.0001045	21.1870000362
850.0	0.0001045	21.2339999676
850.0	0.0001043	21.2660000324
850.0	0.0001045	21.3120000362
850.0	0.0001053	21.3439998627
850.0	0.0001053	21.3910000324
850.0	0.0001045	21.4370000362
850.0	0.0001038	21.4689998627
850.0	0.000103	21.5160000324
850.0	0.000103	21.5620000362
850.0	0.000103	21.5939998627
850.0	0.0001028	21.6410000324
850.0	0.0001025	21.6870000362
850.0	0.0001028	21.7189998627
860.0	0.0001088	22.0469999313
860.0	0.00011	22.0939998627
860.0	0.0001115	22.125
860.0	0.0001125	22.1719999313
860.0	0.0001128	22.2030000687
860.0	0.000113	22.25
860.0	0.0001133	22.2969999313
860.0	0.0001133	22.3280000687
860.0	0.0001128	22.375
860.0	0.0001125	22.4059998989
860.0	0.0001128	22.4530000687
860.0	0.000113	22.5
860.0	0.0001133	22.5309998989
860.0	0.0001133	22.5780000687
860.0	0.000113	22.625
860.0	0.000113	22.6559998989
860.0	0.0001133	22.7030000687
860.0	0.0001138	22.75
860.0	0.000114	22.7809998989
860.0	0.0001145	22.8280000687
860.0	0.0001145	22.8589999676
860.0	0.0001143	22.9059998989
860.0	0.000114	22.9530000687
860.0	0.0001138	22.9839999676
860.0	0.0001133	23.0309998989
860.0	0.000113	23.0780000687
860.0	0.0001133	23.1089999676
860.0	0.0001133	23.1559998989
860.0	0.000114	23.1870000362
860.0	0.000114	23.2339999676
860.0	0.000114	23.2809998989
860.0	0.000114	23.3120000362
860.0	0.000114	23.3589999676
860.0	0.0001138	23.4059998989
860.0	0.0001133	23.4370000362
860.0	0.0001133	23.4839999676
860.0	0.000113	23.5160000324
870.0	0.0001195	23.8439998627
870.0	0.0001208	23.875
870.0	0.000122	23.9219999313
870.0	0.000123	23.9689998627
870.0	0.0001233	24.0
870.0	0.0001238	24.0469999313
870.0	0.0001238	24.0780000687
870.0	0.0001233	24.125
870.0	0.0001238	24.1719999313
870.0	0.0001238	24.2030000687
870.0	0.000124	24.25
870.0	0.0001243	24.2969999313
870.0	0.0001245	24.3280000687
870.0	0.0001245	24.375
870.0	0.0001245	24.4219999313
870.0	0.0001243	24.4530000687
870.0	0.000124	24.5
870.0	0.0001243	24.5309998989
870.0	0.0001245	24.5780000687
870.0	0.0001253	24.625
870.0	0.0001253	24.6559998989
870.0	0.0001263	24.7030000687
870.0	0.0001268	24.75
870.0	0.0001265	24.7809998989
870.0	0.0001265	24.8280000687
870.0	0.0001263	24.8589999676
870.0	0.0001255	24.9059998989
870.0	0.0001253	24.9530000687
870.0	0.0001253	24.9839999676
870.0	0.0001255	25.0309998989
870.0	0.0001255	25.0780000687
870.0	0.0001258	25.1089999676
870.0	0.0001263	25.1559998989
870.0	0.0001263	25.1870000362
870.0	0.0001255	25.2339999676
870.0	0.0001253	25.2809998989
870.0	0.0001253	25.3120000362
880.0	0.000132	25.625
880.0	0.0001343	25.6719999313
880.0	0.0001363	25.7189998627
880.0	0.0001365	25.7660000324
880.0	0.0001375	25.7969999313
880.0	0.0001383	25.8439998627
880.0	0.0001388	25.875
880.0	0.0001388	25.9219999313
880.0	0.0001383	25.9689998627
880.0	0.000139	26.0
880.0	0.0001388	26.0469999313
880.0	0.0001393	26.0939998627
880.0	0.0001395	26.125
880.0	0.0001388	26.1719999313
880.0	0.000139	26.2030000687
880.0	0.0001388	26.25
880.0	0.0001388	26.2969999313
880.0	0.0001388	26.3280000687
880.0	0.0001388	26.375
880.0	0.000138	26.4219999313
880.0	0.000138	26.4530000687
880.0	0.000138	26.5
880.0	0.0001378	26.5309998989
880.0	0.0001378	26.5780000687
880.0	0.0001378	26.625
880.0	0.000137	26.6559998989
880.0	0.0001378	26.7030000687
880.0	0.000139	26.75
880.0	0.0001393	26.7809998989
880.0	0.0001393	26.8280000687
880.0	0.000139	26.8589999676
880.0	0.0001388	26.9059998989
880.0	0.0001383	26.9530000687
880.0	0.0001383	26.9839999676
880.0	0.0001388	27.0309998989
880.0	0.000139	27.0780000687
880.0	0.0001393	27.1089999676
890.0	0.0001443	27.4219999313
890.0	0.0001468	27.4689998627
890.0	0.0001483	27.5
890.0	0.00015	27.5469999313
890.0	0.0001518	27.5939998627
890.0	0.000153	27.625
890.0	0.0001543	27.6719999313
890.0	0.000155	27.7189998627
890.0	0.0001553	27.75
890.0	0.0001545	27.7969999313
890.0	0.0001543	27.8280000687
890.0	0.000154	27.875
890.0	0.0001538	27.9219999313
890.0	0.0001538	27.9530000687
890.0	0.0001543	28.0
890.0	0.000155	28.0469999313
890.0	0.000155	28.0780000687
890.0	0.000155	28.125
890.0	0.0001553	28.1559998989
890.0	0.0001545	28.2030000687
890.0	0.0001543	28.25
890.0	0.000154	28.2809998989
890.0	0.0001543	28.3280000687
890.0	0.0001543	28.375
890.0	0.000154	28.4059998989
890.0	0.0001538	28.4530000687
890.0	0.0001538	28.5
890.0	0.000154	28.5309998989
890.0	0.000154	28.5780000687
890.0	0.0001533	28.6089999676
890.0	0.0001533	28.6559998989
890.0	0.0001538	28.7030000687
890.0	0.0001538	28.7339999676
890.0	0.0001543	28.7809998989
890.0	0.0001545	28.8280000687
890.0	0.0001545	28.8589999676
890.0	0.000155	28.9059998989
900.0	0.0001613	29.2189998627
900.0	0.000163	29.25
900.0	0.000165	29.2969999313
900.0	0.0001665	29.3280000687
900.0	0.0001678	29.375
900.0	0.0001683	29.4219999313
900.0	0.0001688	29.4530000687
900.0	0.0001695	29.5
900.0	0.0001705	29.5469999313
900.0	0.0001708	29.5780000687
900.0	0.0001713	29.625
900.0	0.0001713	29.6559998989
900.0	0.0001708	29.7030000687
900.0	0.0001705	29.75
900.0	0.0001705	29.7809998989
900.0	0.0001713	29.8280000687
900.0	0.0001708	29.875
900.0	0.0001705	29.9059998989
900.0	0.0001708	29.9530000687
900.0	0.0001708	29.9839999676
900.0	0.0001713	30.0309998989
900.0	0.0001715	30.0780000687
900.0	0.0001713	30.1089999676
900.0	0.0001713	30.1559998989
900.0	0.0001718	30.2030000687
900.0	0.0001718	30.2339999676
900.0	0.0001718	30.2809998989
900.0	0.000172	30.3280000687
900.0	0.0001725	30.3589999676
900.0	0.0001725	30.4059998989
900.0	0.0001728	30.4370000362
900.0	0.0001733	30.4839999676
900.0	0.000173	30.5309998989
900.0	0.0001725	30.5620000362
900.0	0.000172	30.6089999676
900.0	0.0001718	30.6559998989
900.0	0.0001715	30.6870000362
910.0	0.0001813	31.0
910.0	0.000184	31.0469999313
910.0	0.0001863	31.0780000687
910.0	0.0001875	31.125
910.0	0.000189	31.1559998989
910.0	0.0001903	31.2030000687
910.0	0.0001905	31.25
910.0	0.0001913	31.2969999313
910.0	0.0001918	31.3280000687
910.0	0.0001915	31.375
910.0	0.0001913	31.4059998989
910.0	0.0001913	31.4530000687
910.0	0.0001913	31.5
910.0	0.0001913	31.5309998989
910.0	0.0001918	31.5780000687
910.0	0.0001913	31.625
910.0	0.0001913	31.6559998989
910.0	0.0001915	31.7030000687
910.0	0.0001915	31.7339999676
910.0	0.0001915	31.7809998989
910.0	0.0001918	31.8280000687
910.0	0.0001925	31.8589999676
910.0	0.0001925	31.9059998989
910.0	0.0001925	31.9530000687
910.0	0.000192	31.9839999676
910.0	0.0001925	32.0309998989
910.0	0.0001918	32.0780000687
910.0	0.000192	32.1089999676
910.0	0.0001918	32.1559998989
910.0	0.0001918	32.2030000687
910.0	0.0001918	32.2339999676
910.0	0.0001913	32.2809998989
910.0	0.00019	32.3280000687
910.0	0.00019	32.3589999676
910.0	0.0001905	32.4059998989
910.0	0.0001908	32.4370000362
910.0	0.0001913	32.4839999676
920.0	0.0002005	32.7969999313
920.0	0.0002038	32.8280000687
920.0	0.0002058	32.875
920.0	0.0002075	32.9059998989
920.0	0.000209	32.9530000687
920.0	0.0002095	33.0
920.0	0.0002095	33.0309998989
920.0	0.0002105	33.0780000687
920.0	0.0002115	33.125
920.0	0.000212	33.1559998989
920.0	0.0002125	33.2030000687
920.0	0.0002138	33.2339999676
920.0	0.0002143	33.2809998989
920.0	0.0002138	33.3280000687
920.0	0.0002133	33.3589999676
920.0	0.0002128	33.4059998989
920.0	0.000212	33.4530000687
920.0	0.000212	33.4839999676
920.0	0.000212	33.5309998989
920.0	0.0002118	33.5620000362
920.0	0.0002115	33.6089999676
920.0	0.0002115	33.6559998989
920.0	0.0002113	33.6870000362
920.0	0.0002115	33.7339999676
920.0	0.0002125	33.7809998989
920.0	0.0002133	33.8120000362
920.0	0.0002133	33.8589999676
920.0	0.0002138	33.8910000324
920.0	0.0002133	33.9370000362
920.0	0.0002128	33.9839999676
920.0	0.000213	34.0160000324
920.0	0.000213	34.0620000362
920.0	0.0002133	34.1089999676
920.0	0.0002128	34.1410000324
920.0	0.000213	34.1870000362
920.0	0.000213	34.2339999676
920.0	0.000213	34.2660000324
930.0	0.0002225	34.5780000687
930.0	0.0002253	34.6089999676
930.0	0.0002275	34.6559998989
930.0	0.0002283	34.6870000362
930.0	0.0002295	34.7339999676
930.0	0.0002308	34.7809998989
930.0	0.000232	34.8120000362
930.0	0.0002333	34.8589999676
930.0	0.000234	34.9059998989
930.0	0.000234	34.9370000362
930.0	0.000234	34.9839999676
930.0	0.0002338	35.0160000324
930.0	0.0002338	35.0620000362
930.0	0.000234	35.1089999676
930.0	0.000234	35.1410000324
930.0	0.0002338	35.1870000362
930.0	0.0002333	35.2339999676
930.0	0.000233	35.2660000324
930.0	0.000233	35.3120000362
930.0	0.000233	35.3589999676
930.0	0.000233	35.3910000324
930.0	0.000233	35.4370000362
930.0	0.0002338	35.4689998627
930.0	0.0002338	35.5160000324
930.0	0.000234	35.5620000362
930.0	0.0002343	35.5939998627
930.0	0.0002338	35.6410000324
930.0	0.0002338	35.6870000362
930.0	0.0002343	35.7189998627
930.0	0.0002343	35.7660000324
930.0	0.000234	35.7969999313
930.0	0.0002345	35.8439998627
930.0	0.000235	35.8910000324
930.0	0.0002355	35.9219999313
930.0	0.0002363	35.9689998627
930.0	0.0002363	36.0160000324
930.0	0.0002358	36.0469999313
940.0	0.000242	36.3439998627
940.0	0.000245	36.3910000324
940.0	0.000248	36.4370000362
940.0	0.0002505	36.4689998627
940.0	0.000252	36.5160000324
940.0	0.0002538	36.5620000362
940.0	0.000255	36.5939998627
940.0	0.0002553	36.6410000324
940.0	0.0002558	36.6719999313
940.0	0.0002565	36.7189998627
940.0	0.0002568	36.7660000324
940.0	0.0002575	36.8120000362
940.0	0.0002578	36.8589999676
940.0	0.0002575	36.8910000324
940.0	0.000257	36.9370000362
940.0	0.000257	36.9689998627
940.0	0.0002568	37.0160000324
940.0	0.0002565	37.0620000362
940.0	0.0002565	37.0939998627
940.0	0.0002563	37.1410000324
940.0	0.0002563	37.1870000362
940.0	0.0002568	37.2189998627
940.0	0.0002565	37.2660000324
940.0	0.0002565	37.2969999313
940.0	0.0002568	37.3439998627
940.0	0.0002568	37.3910000324
940.0	0.0002568	37.4219999313
940.0	0.000257	37.4689998627
940.0	0.0002575	37.5160000324
940.0	0.000257	37.5469999313
940.0	0.0002563	37.5939998627
940.0	0.0002568	37.6410000324
940.0	0.0002568	37.6719999313
940.0	0.0002568	37.7189998627
940.0	0.0002565	37.7660000324
940.0	0.0002563	37.7969999313
940.0	0.0002558	37.8439998627
950.0	0.0002638	38.1410000324
950.0	0.0002663	38.1719999313
950.0	0.0002688	38.2189998627
950.0	0.0002713	38.25
950.0	0.000273	38.2969999313
950.0	0.0002743	38.3439998627
950.0	0.0002755	38.375
950.0	0.0002768	38.4219999313
950.0	0.000278	38.4689998627
950.0	0.0002783	38.5
950.0	0.0002788	38.5469999313
950.0	0.0002788	38.5780000687
950.0	0.0002793	38.625
950.0	0.0002795	38.6719999313
950.0	0.00028	38.7030000687
950.0	0.0002795	38.75
950.0	0.0002795	38.7969999313
950.0	0.0002793	38.8280000687
950.0	0.000279	38.875
950.0	0.0002793	38.9059998989
950.0	0.000279	38.9530000687
950.0	0.0002788	39.0
950.0	0.0002783	39.0309998989
950.0	0.000278	39.0780000687
950.0	0.0002775	39.125
950.0	0.0002775	39.1559998989
950.0	0.0002775	39.2030000687
950.0	0.0002775	39.2339999676
950.0	0.0002775	39.2809998989
950.0	0.0002775	39.3280000687
950.0	0.000278	39.3589999676
950.0	0.000278	39.4059998989
950.0	0.000278	39.4530000687
950.0	0.000278	39.4839999676
950.0	0.0002775	39.5309998989
950.0	0.000278	39.5780000687
950.0	0.0002783	39.6089999676
960.0	0.000287	39.9059998989
960.0	0.0002893	39.9370000362
960.0	0.0002918	39.9839999676
960.0	0.0002945	40.0160000324
960.0	0.0002958	40.0620000362
960.0	0.0002975	40.1089999676
960.0	0.000298	40.1410000324
960.0	0.0002988	40.1870000362
960.0	0.0002993	40.2339999676
960.0	0.0002993	40.2660000324
960.0	0.000299	40.3120000362
960.0	0.0002993	40.3439998627
960.0	0.0003003	40.3910000324
960.0	0.0003008	40.4370000362
960.0	0.0003005	40.4689998627
960.0	0.0003013	40.5160000324
960.0	0.0003013	40.5620000362
960.0	0.0003013	40.5939998627
960.0	0.0003018	40.6410000324
960.0	0.0003018	40.6719999313
960.0	0.0003018	40.7189998627
960.0	0.0003018	40.7660000324
960.0	0.0003025	40.7969999313
960.0	0.000303	40.8439998627
960.0	0.0003028	40.8910000324
960.0	0.0003028	40.9219999313
960.0	0.0003025	40.9689998627
960.0	0.0003018	41.0160000324
960.0	0.0003013	41.0469999313
960.0	0.0003003	41.0939998627
960.0	0.0003	41.125
960.0	0.0003	41.1719999313
960.0	0.0002995	41.2189998627
960.0	0.0002993	41.25
960.0	0.0002993	41.2969999313
960.0	0.0002988	41.3439998627
960.0	0.0002988	41.375
970.0	0.0003078	41.6559998989
970.0	0.00031	41.7030000687
970.0	0.0003125	41.75
970.0	0.0003143	41.7809998989
970.0	0.0003163	41.8280000687
970.0	0.000318	41.8589999676
970.0	0.000319	41.9059998989
970.0	0.0003195	41.9530000687
970.0	0.0003208	41.9839999676
970.0	0.000322	42.0309998989
970.0	0.0003228	42.0780000687
970.0	0.0003228	42.1089999676
970.0	0.000323	42.1559998989
970.0	0.0003233	42.1870000362
970.0	0.0003233	42.2339999676
970.0	0.0003233	42.2809998989
970.0	0.0003225	42.3120000362
970.0	0.000322	42.3589999676
970.0	0.000322	42.4059998989
970.0	0.0003225	42.4370000362
970.0	0.0003228	42.4839999676
970.0	0.000323	42.5160000324
970.0	0.000323	42.5620000362
970.0	0.0003233	42.6089999676
970.0	0.0003233	42.6410000324
970.0	0.0003238	42.6870000362
970.0	0.000324	42.7339999676
970.0	0.000324	42.7660000324
970.0	0.0003238	42.8120000362
970.0	0.0003233	42.8589999676
970.0	0.000323	42.8910000324
970.0	0.000323	42.9370000362
970.0	0.0003228	42.9689998627
970.0	0.0003228	43.0160000324
970.0	0.0003228	43.0620000362
970.0	0.0003228	43.0939998627
970.0	0.0003228	43.1410000324
980.0	0.0003278	43.4219999313
980.0	0.0003303	43.4530000687
980.0	0.0003328	43.5
980.0	0.0003345	43.5309998989
980.0	0.0003363	43.5780000687
980.0	0.0003375	43.625
980.0	0.0003388	43.6559998989
980.0	0.000339	43.7030000687
980.0	0.0003393	43.75
980.0	0.0003403	43.7809998989
980.0	0.0003405	43.8280000687
980.0	0.0003405	43.8589999676
980.0	0.0003413	43.9059998989
980.0	0.0003413	43.9530000687
980.0	0.0003418	43.9839999676
980.0	0.0003425	44.0309998989
980.0	0.0003428	44.0780000687
980.0	0.000342	44.1089999676
980.0	0.0003425	44.1559998989
980.0	0.0003428	44.1870000362
980.0	0.0003425	44.2339999676
980.0	0.0003425	44.2809998989
980.0	0.000343	44.3120000362
980.0	0.000343	44.3589999676
980.0	0.000343	44.4059998989
980.0	0.000343	44.4370000362
980.0	0.0003425	44.4839999676
980.0	0.0003418	44.5160000324
980.0	0.0003418	44.5620000362
980.0	0.000342	44.6089999676
980.0	0.0003415	44.6559998989
980.0	0.0003415	44.6870000362
980.0	0.0003415	44.7339999676
980.0	0.0003415	44.7809998989
980.0	0.0003415	44.8120000362
980.0	0.0003415	44.8589999676
980.0	0.0003418	44.8910000324
990.0	0.00035	45.1719999313
990.0	0.0003528	45.2189998627
990.0	0.0003545	45.2660000324
990.0	0.0003558	45.2969999313
990.0	0.0003568	45.3439998627
990.0	0.000358	45.375
990.0	0.0003588	45.4219999313
990.0	0.0003593	45.4689998627
990.0	0.00036	45.5
990.0	0.0003603	45.5469999313
990.0	0.0003603	45.5939998627
990.0	0.0003608	45.625
990.0	0.0003613	45.6719999313
990.0	0.0003613	45.7030000687
990.0	0.0003613	45.75
990.0	0.0003608	45.7969999313
990.0	0.00036	45.8280000687
990.0	0.0003593	45.875
990.0	0.00036	45.9219999313
990.0	0.0003603	45.9530000687
990.0	0.0003603	46.0
990.0	0.0003605	46.0309998989
990.0	0.0003605	46.0780000687
990.0	0.00036	46.125
990.0	0.00036	46.1559998989
990.0	0.0003603	46.2030000687
990.0	0.0003595	46.25
990.0	0.0003595	46.2809998989
990.0	0.0003593	46.3280000687
990.0	0.0003595	46.375
990.0	0.0003605	46.4059998989
990.0	0.0003625	46.4530000687
990.0	0.0003628	46.4839999676
990.0	0.0003625	46.5309998989
990.0	0.0003625	46.5780000687
990.0	0.000362	46.6089999676
990.0	0.0003618	46.6559998989
1000.0	0.0003675	46.9370000362
1000.0	0.00037	46.9689998627
1000.0	0.0003718	47.0160000324
1000.0	0.0003733	47.0620000362
1000.0	0.0003755	47.0939998627
1000.0	0.0003768	47.1410000324
1000.0	0.0003775	47.1870000362
1000.0	0.0003778	47.2189998627
1000.0	0.0003783	47.2660000324
1000.0	0.0003788	47.2969999313
1000.0	0.0003788	47.3439998627
1000.0	0.0003788	47.3910000324
1000.0	0.000379	47.4219999313
1000.0	0.0003793	47.4689998627
1000.0	0.0003793	47.5160000324
1000.0	0.000379	47.5469999313
1000.0	0.0003788	47.5939998627
1000.0	0.000379	47.6410000324
1000.0	0.0003795	47.6719999313
1000.0	0.00038	47.7189998627
1000.0	0.0003808	47.75
1000.0	0.0003815	47.7969999313
1000.0	0.0003818	47.8439998627
1000.0	0.0003815	47.875
1000.0	0.0003818	47.9219999313
1000.0	0.0003815	47.9530000687
1000.0	0.0003813	48.0
1000.0	0.0003818	48.0469999313
1000.0	0.0003818	48.0780000687
1000.0	0.0003815	48.125
1000.0	0.0003813	48.1719999313
1000.0	0.0003808	48.2030000687
1000.0	0.00038	48.25
1000.0	0.00038	48.2969999313
1000.0	0.0003795	48.3280000687
1000.0	0.000379	48.375
1000.0	0.0003793	48.4219999313
1010.0	0.0003888	48.7030000687
1010.0	0.0003925	48.7339999676
1010.0	0.0003945	48.7809998989
1010.0	0.0003963	48.8120000362
1010.0	0.0003978	48.8589999676
1010.0	0.0003988	48.9059998989
1010.0	0.0003993	48.9370000362
1010.0	0.0003993	48.9839999676
1010.0	0.0004003	49.0309998989
1010.0	0.0004003	49.0620000362
1010.0	0.0004003	49.1089999676
1010.0	0.0004003	49.1559998989
1010.0	0.0004	49.1870000362
1010.0	0.0004	49.2339999676
1010.0	0.0004	49.2660000324
1010.0	0.000399	49.3120000362
1010.0	0.000399	49.3589999676
1010.0	0.0003993	49.3910000324
1010.0	0.0003995	49.4370000362
1010.0	0.0003995	49.4839999676
1010.0	0.0003995	49.5160000324
1010.0	0.0004003	49.5620000362
1010.0	0.0004008	49.5939998627
1010.0	0.0004003	49.6410000324
1010.0	0.0004	49.6870000362
1010.0	0.0003993	49.7189998627
1010.0	0.0003993	49.7660000324
1010.0	0.0004003	49.8120000362
1010.0	0.0004003	49.8439998627
1010.0	0.0004003	49.8910000324
1010.0	0.0004008	49.9219999313
1010.0	0.0004015	49.9689998627
1010.0	0.0004015	50.0160000324
1010.0	0.0004018	50.0469999313
1010.0	0.0004018	50.0939998627
1010.0	0.000402	50.1410000324
1010.0	0.0004018	50.1719999313
1020.0	0.000408	50.4530000687
1020.0	0.0004108	50.5
1020.0	0.000413	50.5309998989
1020.0	0.0004145	50.5780000687
1020.0	0.0004163	50.625
1020.0	0.0004175	50.6559998989
1020.0	0.0004183	50.7030000687
1020.0	0.0004195	50.7339999676
1020.0	0.0004203	50.7809998989
1020.0	0.00042	50.8280000687
1020.0	0.0004195	50.8589999676
1020.0	0.0004203	50.9059998989
1020.0	0.0004208	50.9530000687
1020.0	0.0004213	50.9839999676
1020.0	0.0004215	51.0309998989
1020.0	0.0004208	51.0780000687
1020.0	0.0004205	51.1089999676
1020.0	0.0004208	51.1559998989
1020.0	0.0004213	51.1870000362
1020.0	0.0004218	51.2339999676
1020.0	0.000422	51.2809998989
1020.0	0.0004218	51.3120000362
1020.0	0.0004213	51.3589999676
1020.0	0.0004208	51.4059998989
1020.0	0.0004205	51.4370000362
1020.0	0.0004203	51.4839999676
1020.0	0.0004195	51.5160000324
1020.0	0.000419	51.5620000362
1020.0	0.000419	51.6089999676
1020.0	0.0004188	51.6410000324
1020.0	0.0004188	51.6870000362
1020.0	0.000419	51.7339999676
1020.0	0.0004193	51.7660000324
1020.0	0.0004203	51.8120000362
1020.0	0.0004213	51.8439998627
1020.0	0.0004213	51.8910000324
1020.0	0.0004215	51.9370000362
1030.0	0.00043	52.2189998627
1030.0	0.0004328	52.25
1030.0	0.0004345	52.2969999313
1030.0	0.0004365	52.3280000687
1030.0	0.000438	52.375
1030.0	0.000439	52.4219999313
1030.0	0.00044	52.4530000687
1030.0	0.0004408	52.5
1030.0	0.0004418	52.5469999313
1030.0	0.0004418	52.5780000687
1030.0	0.0004418	52.625
1030.0	0.0004413	52.6719999313
1030.0	0.0004405	52.7030000687
1030.0	0.0004405	52.75
1030.0	0.0004405	52.7809998989
1030.0	0.0004405	52.8280000687
1030.0	0.0004403	52.875
1030.0	0.0004405	52.9059998989
1030.0	0.0004405	52.9530000687
1030.0	0.0004408	53.0
1030.0	0.0004415	53.0309998989
1030.0	0.0004418	53.0780000687
1030.0	0.0004415	53.1089999676
1030.0	0.0004413	53.1559998989
1030.0	0.0004408	53.2030000687
1030.0	0.0004408	53.2339999676
1030.0	0.0004405	53.2809998989
1030.0	0.0004408	53.3280000687
1030.0	0.0004413	53.3589999676
1030.0	0.0004408	53.4059998989
1030.0	0.0004413	53.4370000362
1030.0	0.0004413	53.4839999676
1030.0	0.0004408	53.5309998989
1030.0	0.0004413	53.5620000362
1030.0	0.0004415	53.6089999676
1030.0	0.0004418	53.6559998989
1030.0	0.0004418	53.6870000362
1040.0	0.000448	53.9689998627
1040.0	0.0004508	54.0160000324
1040.0	0.0004533	54.0620000362
1040.0	0.0004553	54.0939998627
1040.0	0.0004568	54.1410000324
1040.0	0.0004578	54.1870000362
1040.0	0.000459	54.2189998627
1040.0	0.00046	54.2660000324
1040.0	0.00046	54.2969999313
1040.0	0.0004593	54.3439998627
1040.0	0.000459	54.3910000324
1040.0	0.0004588	54.4219999313
1040.0	0.0004583	54.4689998627
1040.0	0.000459	54.5160000324
1040.0	0.00046	54.5469999313
1040.0	0.0004603	54.5939998627
1040.0	0.0004603	54.625
1040.0	0.0004603	54.6719999313
1040.0	0.0004605	54.7189998627
1040.0	0.0004608	54.75
1040.0	0.0004613	54.7969999313
1040.0	0.0004615	54.8439998627
1040.0	0.0004615	54.875
1040.0	0.0004625	54.9219999313
1040.0	0.0004628	54.9530000687
1040.0	0.000463	55.0
1040.0	0.000463	55.0469999313
1040.0	0.000463	55.0780000687
1040.0	0.0004628	55.125
1040.0	0.0004625	55.1719999313
1040.0	0.0004625	55.2030000687
1040.0	0.000462	55.25
1040.0	0.0004615	55.2809998989
1040.0	0.0004613	55.3280000687
1040.0	0.0004605	55.375
1040.0	0.0004605	55.4059998989
1040.0	0.0004608	55.4530000687
1050.0	0.0004693	55.7339999676
1050.0	0.0004718	55.7809998989
1050.0	0.000474	55.8120000362
1050.0	0.0004765	55.8589999676
1050.0	0.0004778	55.9059998989
1050.0	0.0004793	55.9370000362
1050.0	0.0004805	55.9839999676
1050.0	0.0004818	56.0309998989
1050.0	0.000482	56.0620000362
1050.0	0.0004828	56.1089999676
1050.0	0.000483	56.1410000324
1050.0	0.000482	56.1870000362
1050.0	0.0004815	56.2339999676
1050.0	0.0004818	56.2660000324
1050.0	0.0004815	56.3120000362
1050.0	0.0004815	56.3589999676
1050.0	0.0004815	56.3910000324
1050.0	0.0004813	56.4370000362
1050.0	0.0004815	56.4839999676
1050.0	0.0004815	56.5160000324
1050.0	0.0004813	56.5620000362
1050.0	0.0004813	56.6089999676
1050.0	0.000482	56.6410000324
1050.0	0.0004825	56.6870000362
1050.0	0.0004825	56.7339999676
1050.0	0.0004833	56.7660000324
1050.0	0.0004838	56.8120000362
1050.0	0.0004838	56.8439998627
1050.0	0.0004838	56.8910000324
1050.0	0.0004838	56.9370000362
1050.0	0.0004833	56.9689998627
1050.0	0.0004833	57.0160000324
1050.0	0.000483	57.0620000362
1050.0	0.0004825	57.0939998627
1050.0	0.0004818	57.1410000324
1050.0	0.0004818	57.1719999313
1050.0	0.000482	57.2189998627
1060.0	0.0004878	57.5
1060.0	0.0004895	57.5309998989
1060.0	0.000492	57.5780000687
1060.0	0.000494	57.625
1060.0	0.0004953	57.6559998989
1060.0	0.0004965	57.7030000687
1060.0	0.0004975	57.75
1060.0	0.000499	57.7809998989
1060.0	0.0005	57.8280000687
1060.0	0.0005008	57.875
1060.0	0.0005013	57.9059998989
1060.0	0.0005015	57.9530000687
1060.0	0.0005018	57.9839999676
1060.0	0.0005018	58.0309998989
1060.0	0.0005018	58.0780000687
1060.0	0.0005025	58.1089999676
1060.0	0.0005028	58.1559998989
1060.0	0.0005025	58.2030000687
1060.0	0.0005025	58.2339999676
1060.0	0.0005025	58.2809998989
1060.0	0.0005018	58.3280000687
1060.0	0.0005015	58.3589999676
1060.0	0.0005015	58.4059998989
1060.0	0.0005015	58.4530000687
1060.0	0.0005015	58.4839999676
1060.0	0.0005018	58.5309998989
1060.0	0.000502	58.5620000362
1060.0	0.0005018	58.6089999676
1060.0	0.0005015	58.6559998989
1060.0	0.0005008	58.6870000362
1060.0	0.0005013	58.7339999676
1060.0	0.0005018	58.7809998989
1060.0	0.0005018	58.8120000362
1060.0	0.0005015	58.8589999676
1060.0	0.0005015	58.9059998989
1060.0	0.0005013	58.9370000362
1060.0	0.0005003	58.9839999676
1070.0	0.0005075	59.2660000324
1070.0	0.0005093	59.2969999313
1070.0	0.0005118	59.3439998627
1070.0	0.0005138	59.3910000324
1070.0	0.0005145	59.4219999313
1070.0	0.0005155	59.4689998627
1070.0	0.0005165	59.5160000324
1070.0	0.000517	59.5469999313
1070.0	0.000518	59.5939998627
1070.0	0.0005178	59.6410000324
1070.0	0.000518	59.6719999313
1070.0	0.0005188	59.7189998627
1070.0	0.0005193	59.75
1070.0	0.0005193	59.7969999313
1070.0	0.00052	59.8439998627
1070.0	0.0005205	59.875
1070.0	0.00052	59.9219999313
1070.0	0.000519	59.9689998627
1070.0	0.0005188	60.0
1070.0	0.0005188	60.0469999313
1070.0	0.0005188	60.0780000687
1070.0	0.0005195	60.125
1070.0	0.0005203	60.1719999313
1070.0	0.0005205	60.2030000687
1070.0	0.0005205	60.25
1070.0	0.00052	60.2969999313
1070.0	0.0005195	60.3439998627
1070.0	0.0005205	60.375
1070.0	0.0005203	60.4219999313
1070.0	0.0005203	60.4530000687
1070.0	0.0005205	60.5
1070.0	0.0005213	60.5469999313
1070.0	0.0005213	60.5780000687
1070.0	0.0005208	60.625
1070.0	0.0005208	60.6719999313
1070.0	0.0005203	60.7030000687
1080.0	0.0005278	60.9839999676
1080.0	0.0005293	61.0309998989
1080.0	0.0005313	61.0780000687
1080.0	0.0005325	61.1089999676
1080.0	0.000534	61.1559998989
1080.0	0.0005355	61.1870000362
1080.0	0.0005365	61.2339999676
1080.0	0.0005375	61.2809998989
1080.0	0.0005383	61.3120000362
1080.0	0.000539	61.3589999676
1080.0	0.0005393	61.4059998989
1080.0	0.00054	61.4370000362
1080.0	0.0005408	61.4839999676
1080.0	0.0005405	61.5309998989
1080.0	0.0005403	61.5620000362
1080.0	0.0005403	61.6089999676
1080.0	0.0005393	61.6410000324
1080.0	0.000539	61.6870000362
1080.0	0.000539	61.7339999676
1080.0	0.000538	61.7660000324
1080.0	0.0005375	61.8120000362
1080.0	0.0005375	61.8589999676
1080.0	0.0005375	61.8910000324
1080.0	0.000537	61.9370000362
1080.0	0.000537	61.9689998627
1080.0	0.000538	62.0160000324
1080.0	0.000538	62.0620000362
1080.0	0.0005383	62.0939998627
1080.0	0.000539	62.1410000324
1080.0	0.0005388	62.1870000362
1080.0	0.0005388	62.2189998627
1080.0	0.000539	62.2660000324
1080.0	0.000539	62.3120000362
1080.0	0.0005393	62.3439998627
1080.0	0.0005393	62.3910000324
1080.0	0.0005393	62.4370000362
1080.0	0.0005388	62.4689998627
1090.0	0.0005418	62.75
1090.0	0.0005433	62.7809998989
1090.0	0.0005445	62.8280000687
1090.0	0.0005458	62.875
1090.0	0.0005468	62.9059998989
1090.0	0.0005478	62.9530000687
1090.0	0.0005488	63.0
1090.0	0.0005495	63.0309998989
1090.0	0.0005503	63.0780000687
1090.0	0.0005503	63.1089999676
1090.0	0.00055	63.1559998989
1090.0	0.0005493	63.2030000687
1090.0	0.0005488	63.2339999676
1090.0	0.0005478	63.2809998989
1090.0	0.0005478	63.3280000687
1090.0	0.0005488	63.3589999676
1090.0	0.0005488	63.4059998989
1090.0	0.000549	63.4530000687
1090.0	0.0005495	63.4839999676
1090.0	0.000549	63.5309998989
1090.0	0.000548	63.5620000362
1090.0	0.000549	63.6089999676
1090.0	0.0005503	63.6559998989
1090.0	0.0005503	63.6870000362
1090.0	0.0005508	63.7339999676
1090.0	0.0005503	63.7809998989
1090.0	0.00055	63.8120000362
1090.0	0.0005505	63.8589999676
1090.0	0.0005505	63.8910000324
1090.0	0.0005503	63.9370000362
1090.0	0.0005508	63.9839999676
1090.0	0.0005515	64.0160000324
1090.0	0.0005513	64.0620000362
1090.0	0.0005513	64.1089999676
1090.0	0.0005513	64.1410000324
1090.0	0.0005508	64.1870000362
1090.0	0.0005513	64.2339999676
1100.0	0.000555	64.5160000324
1100.0	0.000557	64.5469999313
1100.0	0.0005583	64.5939998627
1100.0	0.000559	64.6410000324
1100.0	0.0005605	64.6719999313
1100.0	0.0005615	64.7189998627
1100.0	0.0005618	64.75
1100.0	0.0005628	64.7969999313
1100.0	0.0005633	64.8439998627
1100.0	0.0005633	64.875
1100.0	0.0005643	64.9219999313
1100.0	0.000565	64.9530000687
1100.0	0.000565	65.0
1100.0	0.0005643	65.0469999313
1100.0	0.0005643	65.0780000687
1100.0	0.0005643	65.125
1100.0	0.0005633	65.1719999313
1100.0	0.000563	65.2030000687
1100.0	0.0005628	65.25
1100.0	0.0005618	65.2969999313
1100.0	0.0005615	65.3280000687
1100.0	0.0005615	65.375
1100.0	0.0005613	65.4059998989
1100.0	0.0005613	65.4530000687
1100.0	0.0005613	65.5
1100.0	0.0005613	65.5309998989
1100.0	0.0005608	65.5780000687
1100.0	0.0005613	65.625
1100.0	0.0005613	65.6559998989
1100.0	0.0005608	65.7030000687
1100.0	0.0005608	65.7339999676
1100.0	0.0005613	65.7809998989
1100.0	0.0005615	65.8280000687
1100.0	0.0005615	65.8589999676
1100.0	0.0005618	65.9059998989
1100.0	0.0005615	65.9530000687
1100.0	0.0005615	65.9839999676
1110.0	0.000564	66.2660000324
1110.0	0.000565	66.2969999313
1110.0	0.0005663	66.3439998627
1110.0	0.0005668	66.375
1110.0	0.0005668	66.4219999313
1110.0	0.0005675	66.4689998627
1110.0	0.0005675	66.5160000324
1110.0	0.0005678	66.5469999313
1110.0	0.000568	66.5939998627
1110.0	0.000567	66.6410000324
1110.0	0.0005665	66.6719999313
1110.0	0.0005668	66.7189998627
1110.0	0.0005668	66.75
1110.0	0.0005668	66.7969999313
1110.0	0.0005675	66.8439998627
1110.0	0.000567	66.875
1110.0	0.0005665	66.9219999313
1110.0	0.0005668	66.9689998627
1110.0	0.0005675	67.0
1110.0	0.0005678	67.0469999313
1110.0	0.0005683	67.0780000687
1110.0	0.000569	67.125
1110.0	0.0005688	67.1719999313
1110.0	0.000568	67.2030000687
1110.0	0.000568	67.25
1110.0	0.0005683	67.2969999313
1110.0	0.0005683	67.3280000687
1110.0	0.0005688	67.375
1110.0	0.0005688	67.4059998989
1110.0	0.0005683	67.4530000687
1110.0	0.0005688	67.5
1110.0	0.0005688	67.5309998989
1110.0	0.000568	67.5780000687
1110.0	0.0005678	67.625
1110.0	0.0005675	67.6559998989
1110.0	0.0005675	67.7030000687
1110.0	0.0005675	67.75
1120.0	0.0005705	68.0160000324
1120.0	0.0005705	68.0469999313
1120.0	0.0005705	68.0939998627
1120.0	0.0005705	68.125
1120.0	0.0005705	68.1719999313
1120.0	0.0005708	68.2189998627
1120.0	0.0005708	68.25
1120.0	0.0005705	68.2969999313
1120.0	0.0005705	68.3439998627
1120.0	0.0005713	68.375
1120.0	0.0005713	68.4219999313
1120.0	0.0005713	68.4530000687
1120.0	0.0005713	68.5
1120.0	0.0005713	68.5469999313
1120.0	0.0005713	68.5780000687
1120.0	0.0005718	68.625
1120.0	0.0005725	68.6719999313
1120.0	0.0005728	68.7030000687
1120.0	0.000573	68.75
1120.0	0.000573	68.7969999313
1120.0	0.000573	68.8439998627
1120.0	0.0005728	68.875
1120.0	0.000572	68.9219999313
1120.0	0.0005715	68.9689998627
1120.0	0.0005725	69.0
1120.0	0.0005733	69.0469999313
1120.0	0.0005733	69.0780000687
1120.0	0.0005733	69.125
1120.0	0.0005738	69.1719999313
1120.0	0.000573	69.2030000687
1120.0	0.0005725	69.25
1120.0	0.000572	69.2969999313
1120.0	0.0005718	69.3280000687
1120.0	0.0005705	69.375
1120.0	0.0005695	69.4059998989
1120.0	0.000569	69.4530000687
1120.0	0.0005688	69.5
1130.0	0.00057	69.7660000324
1130.0	0.0005693	69.7969999313
1130.0	0.00057	69.8439998627
1130.0	0.0005705	69.8910000324
1130.0	0.0005708	69.9219999313
1130.0	0.0005705	69.9689998627
1130.0	0.0005705	70.0160000324
1130.0	0.0005713	70.0469999313
1130.0	0.0005713	70.0939998627
1130.0	0.0005708	70.1410000324
1130.0	0.0005708	70.1719999313
1130.0	0.0005713	70.2189998627
1130.0	0.0005718	70.25
1130.0	0.0005718	70.2969999313
1130.0	0.0005718	70.3439998627
1130.0	0.0005718	70.375
1130.0	0.0005718	70.4219999313
1130.0	0.000572	70.4530000687
1130.0	0.000572	70.5
1130.0	0.000573	70.5469999313
1130.0	0.000574	70.5780000687
1130.0	0.0005738	70.625
1130.0	0.0005738	70.6719999313
1130.0	0.000573	70.7030000687
1130.0	0.0005725	70.75
1130.0	0.0005725	70.7809998989
1130.0	0.000572	70.8280000687
1130.0	0.0005718	70.875
1130.0	0.0005718	70.9059998989
1130.0	0.0005718	70.9530000687
1130.0	0.0005715	71.0
1130.0	0.0005713	71.0309998989
1130.0	0.0005718	71.0780000687
1130.0	0.0005718	71.125
1130.0	0.000572	71.1559998989
1130.0	0.0005725	71.2030000687
1130.0	0.0005728	71.2339999676
1140.0	0.0005718	71.5160000324
1140.0	0.000572	71.5469999313
1140.0	0.000572	71.5939998627
1140.0	0.000572	71.625
1140.0	0.0005718	71.6719999313
1140.0	0.0005713	71.7189998627
1140.0	0.0005703	71.75
1140.0	0.0005703	71.7969999313
1140.0	0.00057	71.8280000687
1140.0	0.00057	71.875
1140.0	0.00057	71.9219999313
1140.0	0.0005705	71.9530000687
1140.0	0.0005705	72.0
1140.0	0.0005715	72.0469999313
1140.0	0.000572	72.0780000687
1140.0	0.0005718	72.125
1140.0	0.000572	72.1719999313
1140.0	0.0005718	72.2030000687
1140.0	0.000572	72.25
1140.0	0.0005718	72.2809998989
1140.0	0.0005715	72.3280000687
1140.0	0.0005715	72.375
1140.0	0.0005715	72.4059998989
1140.0	0.0005718	72.4530000687
1140.0	0.0005715	72.5
1140.0	0.0005713	72.5309998989
1140.0	0.0005708	72.5780000687
1140.0	0.00057	72.625
1140.0	0.0005688	72.6559998989
1140.0	0.0005688	72.7030000687
1140.0	0.000569	72.75
1140.0	0.000569	72.7809998989
1140.0	0.000569	72.8280000687
1140.0	0.0005693	72.875
1140.0	0.0005688	72.9059998989
1140.0	0.0005688	72.9530000687
1140.0	0.0005693	72.9839999676
1150.0	0.000569	73.2660000324
1150.0	0.0005695	73.2969999313
1150.0	0.0005693	73.3439998627
1150.0	0.0005688	73.375
1150.0	0.0005683	73.4219999313
1150.0	0.0005688	73.4689998627
1150.0	0.0005683	73.5
1150.0	0.0005683	73.5469999313
1150.0	0.0005683	73.5939998627
1150.0	0.000568	73.625
1150.0	0.0005675	73.6719999313
1150.0	0.0005668	73.7030000687
1150.0	0.0005668	73.75
1150.0	0.0005668	73.7969999313
1150.0	0.000567	73.8280000687
1150.0	0.000567	73.875
1150.0	0.0005665	73.9219999313
1150.0	0.0005665	73.9530000687
1150.0	0.000567	74.0
1150.0	0.0005668	74.0309998989
1150.0	0.0005668	74.0780000687
1150.0	0.0005668	74.125
1150.0	0.000567	74.1559998989
1150.0	0.000567	74.2030000687
1150.0	0.000567	74.25
1150.0	0.000567	74.2809998989
1150.0	0.0005668	74.3280000687
1150.0	0.0005678	74.3589999676
1150.0	0.0005683	74.4059998989
1150.0	0.0005688	74.4530000687
1150.0	0.0005683	74.4839999676
1150.0	0.000568	74.5309998989
1150.0	0.0005678	74.5780000687
1150.0	0.0005668	74.625
1150.0	0.0005668	74.6559998989
1150.0	0.0005665	74.7030000687
1150.0	0.0005668	74.7339999676
1160.0	0.0005663	75.0160000324
1160.0	0.0005645	75.0469999313
1160.0	0.0005638	75.0939998627
1160.0	0.0005625	75.125
1160.0	0.0005625	75.1719999313
1160.0	0.0005628	75.2189998627
1160.0	0.0005638	75.25
1160.0	0.0005633	75.2969999313
1160.0	0.000563	75.3280000687
1160.0	0.0005638	75.375
1160.0	0.0005633	75.4219999313
1160.0	0.0005628	75.4530000687
1160.0	0.000563	75.5
1160.0	0.0005628	75.5469999313
1160.0	0.0005633	75.5780000687
1160.0	0.0005643	75.625
1160.0	0.0005643	75.6719999313
1160.0	0.000564	75.7030000687
1160.0	0.0005633	75.75
1160.0	0.000563	75.7969999313
1160.0	0.0005628	75.8280000687
1160.0	0.0005628	75.875
1160.0	0.0005628	75.9219999313
1160.0	0.000562	75.9530000687
1160.0	0.0005618	76.0
1160.0	0.0005615	76.0309998989
1160.0	0.0005605	76.0780000687
1160.0	0.0005605	76.125
1160.0	0.0005608	76.1559998989
1160.0	0.0005605	76.2030000687
1160.0	0.00056	76.25
1160.0	0.00056	76.2809998989
1160.0	0.00056	76.3280000687
1160.0	0.00056	76.3589999676
1160.0	0.0005605	76.4059998989
1160.0	0.0005613	76.4530000687
1160.0	0.0005613	76.4839999676
1170.0	0.0005608	76.7660000324
1170.0	0.0005608	76.7969999313
1170.0	0.0005605	76.8439998627
1170.0	0.0005605	76.8910000324
1170.0	0.000559	76.9219999313
1170.0	0.0005588	76.9689998627
1170.0	0.0005588	77.0160000324
1170.0	0.0005583	77.0469999313
1170.0	0.000558	77.0939998627
1170.0	0.0005583	77.125
1170.0	0.000558	77.1719999313
1170.0	0.0005583	77.2189998627
1170.0	0.0005588	77.25
1170.0	0.0005588	77.2969999313
1170.0	0.0005588	77.3280000687
1170.0	0.000559	77.375
1170.0	0.00056	77.4219999313
1170.0	0.0005593	77.4530000687
1170.0	0.0005593	77.5
1170.0	0.0005603	77.5469999313
1170.0	0.00056	77.5780000687
1170.0	0.0005588	77.625
1170.0	0.0005588	77.6719999313
1170.0	0.000558	77.7030000687
1170.0	0.000557	77.75
1170.0	0.0005568	77.7809998989
1170.0	0.000557	77.8280000687
1170.0	0.0005568	77.875
1170.0	0.000557	77.9059998989
1170.0	0.000557	77.9530000687
1170.0	0.0005563	78.0
1170.0	0.0005565	78.0309998989
1170.0	0.0005563	78.0780000687
1170.0	0.0005565	78.1089999676
1170.0	0.0005568	78.1559998989
1170.0	0.000557	78.2030000687
1170.0	0.000557	78.2339999676
1180.0	0.0005575	78.5160000324
1180.0	0.0005578	78.5469999313
1180.0	0.0005575	78.5939998627
1180.0	0.0005578	78.6410000324
1180.0	0.0005575	78.6719999313
1180.0	0.000557	78.7189998627
1180.0	0.000557	78.7660000324
1180.0	0.0005575	78.7969999313
1180.0	0.0005578	78.8439998627
1180.0	0.000558	78.875
1180.0	0.0005583	78.9219999313
1180.0	0.000558	78.9689998627
1180.0	0.000557	79.0
1180.0	0.0005568	79.0469999313
1180.0	0.0005568	79.0939998627
1180.0	0.0005568	79.125
1180.0	0.0005568	79.1719999313
1180.0	0.0005568	79.2189998627
1180.0	0.000557	79.25
1180.0	0.0005575	79.2969999313
1180.0	0.000557	79.3439998627
1180.0	0.0005565	79.375
1180.0	0.000557	79.4219999313
1180.0	0.000558	79.4530000687
1180.0	0.000558	79.5
1180.0	0.000558	79.5469999313
1180.0	0.0005588	79.5780000687
1180.0	0.0005588	79.625
1180.0	0.000559	79.6719999313
1180.0	0.000559	79.7030000687
1180.0	0.000559	79.75
1180.0	0.0005583	79.7809998989
1180.0	0.000558	79.8280000687
1180.0	0.0005575	79.875
1180.0	0.000557	79.9059998989
1180.0	0.000557	79.9530000687
1180.0	0.000557	80.0
1190.0	0.0005588	80.2660000324
1190.0	0.0005588	80.3120000362
1190.0	0.000558	80.3439998627
1190.0	0.000558	80.3910000324
1190.0	0.0005583	80.4219999313
1190.0	0.0005578	80.4689998627
1190.0	0.000557	80.5160000324
1190.0	0.000557	80.5469999313
1190.0	0.0005568	80.5939998627
1190.0	0.000557	80.6410000324
1190.0	0.0005575	80.6719999313
1190.0	0.0005575	80.7189998627
1190.0	0.0005575	80.7660000324
1190.0	0.0005575	80.7969999313
1190.0	0.0005575	80.8439998627
1190.0	0.0005568	80.875
1190.0	0.0005568	80.9219999313
1190.0	0.000557	80.9689998627
1190.0	0.0005578	81.0
1190.0	0.0005578	81.0469999313
1190.0	0.000558	81.0780000687
1190.0	0.0005583	81.125
1190.0	0.000559	81.1719999313
1190.0	0.0005603	81.2030000687
1190.0	0.0005608	81.25
1190.0	0.0005608	81.2969999313
1190.0	0.0005608	81.3280000687
1190.0	0.0005605	81.375
1190.0	0.00056	81.4219999313
1190.0	0.0005595	81.4530000687
1190.0	0.00056	81.5
1190.0	0.0005593	81.5309998989
1190.0	0.000559	81.5780000687
1190.0	0.0005588	81.625
1190.0	0.0005583	81.6559998989
1190.0	0.0005583	81.7030000687
1190.0	0.0005588	81.75
1200.0	0.0005605	82.0160000324
1200.0	0.0005608	82.0620000362
1200.0	0.0005608	82.0939998627
1200.0	0.0005615	82.1410000324
1200.0	0.000562	82.1719999313
1200.0	0.0005628	82.2189998627
1200.0	0.000562	82.2660000324
1200.0	0.0005618	82.2969999313
1200.0	0.0005618	82.3439998627
1200.0	0.0005618	82.3910000324
1200.0	0.0005618	82.4219999313
1200.0	0.000562	82.4689998627
1200.0	0.0005625	82.5160000324
1200.0	0.0005625	82.5469999313
1200.0	0.000562	82.5939998627
1200.0	0.000562	82.625
1200.0	0.0005625	82.6719999313
1200.0	0.000562	82.7189998627
1200.0	0.0005615	82.75
1200.0	0.0005615	82.7969999313
1200.0	0.000562	82.8280000687
1200.0	0.0005628	82.875
1200.0	0.0005628	82.9219999313
1200.0	0.0005633	82.9530000687
1200.0	0.0005638	83.0
1200.0	0.0005638	83.0469999313
1200.0	0.000563	83.0780000687
1200.0	0.0005628	83.125
1200.0	0.0005625	83.1559998989
1200.0	0.0005625	83.2030000687
1200.0	0.0005625	83.25
1200.0	0.0005618	83.2809998989
1200.0	0.0005613	83.3280000687
1200.0	0.0005608	83.375
1200.0	0.0005605	83.4059998989
1200.0	0.00056	83.4530000687
1200.0	0.0005605	83.5
1210.0	0.0005655	83.7660000324
1210.0	0.0005665	83.7969999313
1210.0	0.0005683	83.8439998627
1210.0	0.000569	83.8910000324
1210.0	0.0005693	83.9219999313
1210.0	0.00057	83.9689998627
1210.0	0.0005695	84.0
1210.0	0.000569	84.0469999313
1210.0	0.0005683	84.0939998627
1210.0	0.000568	84.125
1210.0	0.000568	84.1719999313
1210.0	0.0005678	84.2189998627
1210.0	0.0005678	84.25
1210.0	0.000567	84.2969999313
1210.0	0.0005665	84.3280000687
1210.0	0.0005668	84.375
1210.0	0.0005665	84.4219999313
1210.0	0.0005658	84.4530000687
1210.0	0.0005655	84.5
1210.0	0.0005663	84.5469999313
1210.0	0.0005663	84.5780000687
1210.0	0.0005668	84.625
1210.0	0.0005675	84.6559998989
1210.0	0.0005675	84.7030000687
1210.0	0.0005675	84.75
1210.0	0.000568	84.7809998989
1210.0	0.0005678	84.8280000687
1210.0	0.0005675	84.875
1210.0	0.0005675	84.9219999313
1210.0	0.0005668	84.9530000687
1210.0	0.0005668	85.0
1210.0	0.000568	85.0309998989
1210.0	0.0005688	85.0780000687
1210.0	0.0005688	85.125
1210.0	0.0005688	85.1559998989
1210.0	0.000569	85.2030000687
1210.0	0.000569	85.25
1220.0	0.0005708	85.5160000324
1220.0	0.0005718	85.5469999313
1220.0	0.0005725	85.5939998627
1220.0	0.0005738	85.6410000324
1220.0	0.000575	85.6719999313
1220.0	0.000575	85.7189998627
1220.0	0.0005758	85.75
1220.0	0.0005755	85.7969999313
1220.0	0.0005745	85.8439998627
1220.0	0.0005745	85.875
1220.0	0.000575	85.9219999313
1220.0	0.0005745	85.9689998627
1220.0	0.0005743	86.0
1220.0	0.0005745	86.0469999313
1220.0	0.0005755	86.0939998627
1220.0	0.0005755	86.125
1220.0	0.0005763	86.1719999313
1220.0	0.0005755	86.2189998627
1220.0	0.0005755	86.25
1220.0	0.0005758	86.2969999313
1220.0	0.0005765	86.3280000687
1220.0	0.0005765	86.375
1220.0	0.0005763	86.4219999313
1220.0	0.0005755	86.4530000687
1220.0	0.000575	86.5
1220.0	0.0005753	86.5469999313
1220.0	0.0005753	86.5780000687
1220.0	0.0005755	86.625
1220.0	0.0005755	86.6559998989
1220.0	0.0005755	86.7030000687
1220.0	0.0005755	86.75
1220.0	0.0005758	86.7809998989
1220.0	0.0005763	86.8280000687
1220.0	0.0005763	86.875
1220.0	0.0005763	86.9059998989
1220.0	0.0005758	86.9530000687
1220.0	0.0005755	87.0
1230.0	0.0005795	87.2660000324
1230.0	0.0005815	87.2969999313
1230.0	0.000583	87.3439998627
1230.0	0.000584	87.375
1230.0	0.0005845	87.4219999313
1230.0	0.0005845	87.4689998627
1230.0	0.000585	87.5
1230.0	0.000585	87.5469999313
1230.0	0.0005853	87.5939998627
1230.0	0.0005855	87.625
1230.0	0.0005858	87.6719999313
1230.0	0.000585	87.7030000687
1230.0	0.000585	87.75
1230.0	0.000585	87.7969999313
1230.0	0.0005853	87.8280000687
1230.0	0.0005855	87.875
1230.0	0.0005855	87.9219999313
1230.0	0.0005858	87.9530000687
1230.0	0.0005858	88.0
1230.0	0.0005858	88.0469999313
1230.0	0.0005863	88.0780000687
1230.0	0.0005865	88.125
1230.0	0.0005863	88.1559998989
1230.0	0.0005865	88.2030000687
1230.0	0.0005868	88.25
1230.0	0.000587	88.2809998989
1230.0	0.000587	88.3280000687
1230.0	0.000587	88.375
1230.0	0.0005863	88.4059998989
1230.0	0.0005865	88.4530000687
1230.0	0.0005868	88.4839999676
1230.0	0.0005863	88.5309998989
1230.0	0.0005863	88.5780000687
1230.0	0.0005863	88.6089999676
1230.0	0.0005863	88.6559998989
1230.0	0.0005855	88.7030000687
1230.0	0.0005863	88.7339999676
1240.0	0.0005903	89.0
1240.0	0.0005915	89.0469999313
1240.0	0.000593	89.0939998627
1240.0	0.0005943	89.125
1240.0	0.0005955	89.1719999313
1240.0	0.0005968	89.2030000687
1240.0	0.0005968	89.25
1240.0	0.0005965	89.2969999313
1240.0	0.000597	89.3280000687
1240.0	0.0005975	89.375
1240.0	0.0005978	89.4219999313
1240.0	0.000598	89.4530000687
1240.0	0.000598	89.5
1240.0	0.000597	89.5309998989
1240.0	0.0005968	89.5780000687
1240.0	0.0005965	89.625
1240.0	0.0005958	89.6559998989
1240.0	0.0005953	89.7030000687
1240.0	0.0005953	89.75
1240.0	0.0005953	89.7809998989
1240.0	0.0005953	89.8280000687
1240.0	0.0005963	89.875
1240.0	0.0005968	89.9059998989
1240.0	0.0005975	89.9530000687
1240.0	0.0005983	89.9839999676
1240.0	0.0005983	90.0309998989
1240.0	0.0005988	90.0780000687
1240.0	0.0005993	90.1089999676
1240.0	0.0006	90.1559998989
1240.0	0.0005995	90.2030000687
1240.0	0.0005993	90.2339999676
1240.0	0.0005988	90.2809998989
1240.0	0.000598	90.3120000362
1240.0	0.000597	90.3589999676
1240.0	0.0005975	90.4059998989
1240.0	0.0005978	90.4370000362
1240.0	0.0005975	90.4839999676
1250.0	0.0006008	90.75
1250.0	0.0006018	90.7969999313
1250.0	0.000602	90.8280000687
1250.0	0.0006033	90.875
1250.0	0.000604	90.9219999313
1250.0	0.0006043	90.9530000687
1250.0	0.000605	91.0
1250.0	0.0006053	91.0469999313
1250.0	0.000605	91.0780000687
1250.0	0.0006055	91.125
1250.0	0.0006063	91.1719999313
1250.0	0.0006058	91.2030000687
1250.0	0.0006063	91.25
1250.0	0.0006065	91.2809998989
1250.0	0.0006065	91.3280000687
1250.0	0.000607	91.375
1250.0	0.000608	91.4059998989
1250.0	0.000608	91.4530000687
1250.0	0.0006078	91.5
1250.0	0.0006078	91.5309998989
1250.0	0.0006075	91.5780000687
1250.0	0.0006075	91.625
1250.0	0.0006078	91.6559998989
1250.0	0.000608	91.7030000687
1250.0	0.000609	91.7339999676
1250.0	0.0006093	91.7809998989
1250.0	0.0006093	91.8280000687
1250.0	0.0006088	91.8589999676
1250.0	0.0006083	91.9059998989
1250.0	0.000608	91.9530000687
1250.0	0.000608	91.9839999676
1250.0	0.0006083	92.0309998989
1250.0	0.000609	92.0620000362
1250.0	0.0006093	92.1089999676
1250.0	0.0006093	92.1559998989
1250.0	0.0006093	92.1870000362
1250.0	0.0006088	92.2339999676
1260.0	0.0006115	92.5
1260.0	0.0006125	92.5469999313
1260.0	0.0006133	92.5780000687
1260.0	0.0006143	92.625
1260.0	0.000615	92.6719999313
1260.0	0.0006155	92.7030000687
1260.0	0.0006163	92.75
1260.0	0.000617	92.7809998989
1260.0	0.0006178	92.8280000687
1260.0	0.0006178	92.875
1260.0	0.0006183	92.9059998989
1260.0	0.0006178	92.9530000687
1260.0	0.0006178	93.0
1260.0	0.0006183	93.0309998989
1260.0	0.0006183	93.0780000687
1260.0	0.0006175	93.1089999676
1260.0	0.0006175	93.1559998989
1260.0	0.000618	93.2030000687
1260.0	0.000618	93.2339999676
1260.0	0.000618	93.2809998989
1260.0	0.000618	93.3280000687
1260.0	0.0006175	93.3589999676
1260.0	0.0006178	93.4059998989
1260.0	0.000618	93.4530000687
1260.0	0.000618	93.4839999676
1260.0	0.000618	93.5309998989
1260.0	0.0006188	93.5780000687
1260.0	0.0006188	93.6089999676
1260.0	0.000618	93.6559998989
1260.0	0.000618	93.7030000687
1260.0	0.0006178	93.7339999676
1260.0	0.0006175	93.7809998989
1260.0	0.0006178	93.8120000362
1260.0	0.0006178	93.8589999676
1260.0	0.0006175	93.9059998989
1260.0	0.0006175	93.9370000362
1260.0	0.0006178	93.9839999676
1270.0	0.0006218	94.25
1270.0	0.000623	94.2969999313
1270.0	0.0006233	94.3280000687
1270.0	0.0006238	94.375
1270.0	0.0006245	94.4059998989
1270.0	0.0006255	94.4530000687
1270.0	0.0006255	94.5
1270.0	0.0006255	94.5309998989
1270.0	0.0006255	94.5780000687
1270.0	0.000625	94.625
1270.0	0.000625	94.6559998989
1270.0	0.0006258	94.7030000687
1270.0	0.0006255	94.75
1270.0	0.0006245	94.7809998989
1270.0	0.0006253	94.8280000687
1270.0	0.0006253	94.8589999676
1270.0	0.0006243	94.9059998989
1270.0	0.0006238	94.9530000687
1270.0	0.0006233	94.9839999676
1270.0	0.0006238	95.0309998989
1270.0	0.000624	95.0780000687
1270.0	0.0006243	95.1089999676
1270.0	0.0006243	95.1559998989
1270.0	0.0006245	95.1870000362
1270.0	0.000625	95.2339999676
1270.0	0.0006243	95.2809998989
1270.0	0.000624	95.3120000362
1270.0	0.0006243	95.3589999676
1270.0	0.0006243	95.4059998989
1270.0	0.0006243	95.4370000362
1270.0	0.0006245	95.4839999676
1270.0	0.0006245	95.5160000324
1270.0	0.0006245	95.5620000362
1270.0	0.0006245	95.6089999676
1270.0	0.0006245	95.6559998989
1270.0	0.0006243	95.6870000362
1270.0	0.000625	95.7339999676
1280.0	0.0006288	96.0
1280.0	0.000629	96.0469999313
1280.0	0.00063	96.0780000687
1280.0	0.0006295	96.125
1280.0	0.0006293	96.1559998989
1280.0	0.00063	96.2030000687
1280.0	0.0006313	96.25
1280.0	0.0006315	96.2809998989
1280.0	0.000632	96.3280000687
1280.0	0.0006325	96.375
1280.0	0.0006318	96.4059998989
1280.0	0.0006315	96.4530000687
1280.0	0.0006313	96.5
1280.0	0.0006308	96.5309998989
1280.0	0.0006308	96.5780000687
1280.0	0.0006308	96.6089999676
1280.0	0.0006303	96.6559998989
1280.0	0.0006295	96.7030000687
1280.0	0.00063	96.75
1280.0	0.0006295	96.7809998989
1280.0	0.0006295	96.8280000687
1280.0	0.00063	96.8589999676
1280.0	0.00063	96.9059998989
1280.0	0.00063	96.9530000687
1280.0	0.0006305	96.9839999676
1280.0	0.0006308	97.0309998989
1280.0	0.0006313	97.0780000687
1280.0	0.0006315	97.1089999676
1280.0	0.0006308	97.1559998989
1280.0	0.00063	97.1870000362
1280.0	0.00063	97.2339999676
1280.0	0.0006305	97.2809998989
1280.0	0.0006303	97.3120000362
1280.0	0.0006303	97.3589999676
1280.0	0.0006305	97.4059998989
1280.0	0.0006313	97.4370000362
1280.0	0.0006308	97.4839999676
1290.0	0.0006308	97.75
1290.0	0.0006308	97.7969999313
1290.0	0.0006318	97.8280000687
1290.0	0.0006325	97.875
1290.0	0.000633	97.9059998989
1290.0	0.0006333	97.9530000687
1290.0	0.0006338	98.0
1290.0	0.0006333	98.0309998989
1290.0	0.0006325	98.0780000687
1290.0	0.0006325	98.125
1290.0	0.000632	98.1559998989
1290.0	0.000632	98.2030000687
1290.0	0.000633	98.2339999676
1290.0	0.0006333	98.2809998989
1290.0	0.000633	98.3280000687
1290.0	0.000633	98.3589999676
1290.0	0.000633	98.4059998989
1290.0	0.0006328	98.4530000687
1290.0	0.0006333	98.4839999676
1290.0	0.0006343	98.5309998989
1290.0	0.0006345	98.5780000687
1290.0	0.000635	98.6089999676
1290.0	0.000635	98.6559998989
1290.0	0.0006345	98.6870000362
1290.0	0.0006343	98.7339999676
1290.0	0.0006345	98.7809998989
1290.0	0.0006345	98.8120000362
1290.0	0.000634	98.8589999676
1290.0	0.0006345	98.9059998989
1290.0	0.0006355	98.9370000362
1290.0	0.0006353	98.9839999676
1290.0	0.000635	99.0309998989
1290.0	0.0006353	99.0620000362
1290.0	0.0006355	99.1089999676
1290.0	0.0006358	99.1559998989
1290.0	0.0006353	99.1870000362
1290.0	0.0006343	99.2339999676
1300.0	0.0006345	99.5
1300.0	0.000634	99.5469999313
1300.0	0.0006333	99.5780000687
1300.0	0.000633	99.625
1300.0	0.000632	99.6559998989
1300.0	0.0006313	99.7030000687
1300.0	0.0006313	99.75
1300.0	0.0006315	99.7809998989
1300.0	0.0006315	99.8280000687
1300.0	0.0006318	99.875
1300.0	0.0006325	99.9059998989
1300.0	0.0006328	99.9530000687
1300.0	0.0006325	99.9839999676
1300.0	0.0006328	100.030999899
1300.0	0.000633	100.078000069
1300.0	0.000633	100.108999968
1300.0	0.000633	100.155999899
1300.0	0.000633	100.203000069
1300.0	0.000633	100.233999968
1300.0	0.0006325	100.280999899
1300.0	0.0006325	100.312000036
1300.0	0.000632	100.358999968
1300.0	0.000632	100.405999899
1300.0	0.0006325	100.437000036
1300.0	0.0006325	100.483999968
1300.0	0.000632	100.530999899
1300.0	0.0006325	100.562000036
1300.0	0.0006328	100.608999968
1300.0	0.000633	100.655999899
1300.0	0.0006338	100.687000036
1300.0	0.000634	100.733999968
1300.0	0.000633	100.766000032
1300.0	0.0006328	100.812000036
1300.0	0.000633	100.858999968
1300.0	0.0006325	100.891000032
1300.0	0.000632	100.937000036
1300.0	0.000632	100.983999968
1310.0	0.0006275	101.25
1310.0	0.0006263	101.280999899
1310.0	0.0006258	101.328000069
1310.0	0.0006255	101.375
1310.0	0.0006253	101.405999899
1310.0	0.000625	101.453000069
1310.0	0.000624	101.483999968
1310.0	0.0006238	101.530999899
1310.0	0.0006238	101.578000069
1310.0	0.0006238	101.608999968
1310.0	0.0006233	101.655999899
1310.0	0.0006233	101.703000069
1310.0	0.0006238	101.733999968
1310.0	0.0006245	101.780999899
1310.0	0.000625	101.812000036
1310.0	0.0006255	101.858999968
1310.0	0.0006253	101.905999899
1310.0	0.0006245	101.937000036
1310.0	0.0006245	101.983999968
1310.0	0.0006245	102.030999899
1310.0	0.000625	102.062000036
1310.0	0.0006255	102.108999968
1310.0	0.0006258	102.141000032
1310.0	0.0006263	102.187000036
1310.0	0.0006263	102.233999968
1310.0	0.0006258	102.266000032
1310.0	0.0006255	102.312000036
1310.0	0.0006258	102.358999968
1310.0	0.0006255	102.391000032
1310.0	0.0006255	102.437000036
1310.0	0.0006255	102.483999968
1310.0	0.000625	102.516000032
1310.0	0.000625	102.562000036
1310.0	0.0006253	102.608999968
1310.0	0.0006255	102.641000032
1310.0	0.0006255	102.687000036
1310.0	0.0006253	102.733999968
1320.0	0.0006175	103.0
1320.0	0.0006163	103.030999899
1320.0	0.0006145	103.078000069
1320.0	0.000613	103.125
1320.0	0.000612	103.155999899
1320.0	0.0006115	103.203000069
1320.0	0.0006105	103.25
1320.0	0.00061	103.280999899
1320.0	0.00061	103.328000069
1320.0	0.0006103	103.375
1320.0	0.0006103	103.405999899
1320.0	0.0006105	103.453000069
1320.0	0.0006105	103.483999968
1320.0	0.00061	103.530999899
1320.0	0.000609	103.578000069
1320.0	0.0006088	103.608999968
1320.0	0.000608	103.655999899
1320.0	0.000608	103.703000069
1320.0	0.000608	103.733999968
1320.0	0.000607	103.780999899
1320.0	0.0006068	103.812000036
1320.0	0.0006075	103.858999968
1320.0	0.0006078	103.905999899
1320.0	0.000608	103.937000036
1320.0	0.000608	103.983999968
1320.0	0.0006083	104.030999899
1320.0	0.000608	104.062000036
1320.0	0.0006083	104.108999968
1320.0	0.0006088	104.141000032
1320.0	0.0006088	104.187000036
1320.0	0.0006083	104.233999968
1320.0	0.000608	104.266000032
1320.0	0.0006075	104.312000036
1320.0	0.0006075	104.358999968
1320.0	0.0006078	104.391000032
1320.0	0.0006078	104.437000036
1320.0	0.000608	104.483999968
1330.0	0.0006003	104.75
1330.0	0.0005975	104.780999899
1330.0	0.000595	104.828000069
1330.0	0.0005925	104.875
1330.0	0.00059	104.905999899
1330.0	0.0005893	104.953000069
1330.0	0.0005888	105.0
1330.0	0.0005878	105.030999899
1330.0	0.000587	105.078000069
1330.0	0.000587	105.125
1330.0	0.0005868	105.155999899
1330.0	0.0005865	105.203000069
1330.0	0.0005868	105.233999968
1330.0	0.0005863	105.280999899
1330.0	0.0005855	105.328000069
1330.0	0.000585	105.358999968
1330.0	0.0005843	105.405999899
1330.0	0.0005845	105.453000069
1330.0	0.0005845	105.483999968
1330.0	0.0005853	105.530999899
1330.0	0.0005855	105.562000036
1330.0	0.0005863	105.608999968
1330.0	0.0005868	105.655999899
1330.0	0.0005865	105.687000036
1330.0	0.0005868	105.733999968
1330.0	0.000587	105.780999899
1330.0	0.000587	105.812000036
1330.0	0.0005868	105.858999968
1330.0	0.0005875	105.891000032
1330.0	0.000587	105.937000036
1330.0	0.0005868	105.983999968
1330.0	0.0005868	106.016000032
1330.0	0.0005868	106.062000036
1330.0	0.0005863	106.108999968
1330.0	0.0005858	106.141000032
1330.0	0.0005865	106.187000036
1330.0	0.0005865	106.233999968
1340.0	0.0005743	106.5
1340.0	0.0005695	106.530999899
1340.0	0.0005665	106.578000069
1340.0	0.0005643	106.625
1340.0	0.000562	106.655999899
1340.0	0.0005603	106.703000069
1340.0	0.000559	106.75
1340.0	0.0005588	106.780999899
1340.0	0.0005578	106.828000069
1340.0	0.000557	106.875
1340.0	0.0005575	106.905999899
1340.0	0.0005568	106.953000069
1340.0	0.0005565	106.983999968
1340.0	0.0005563	107.030999899
1340.0	0.0005568	107.078000069
1340.0	0.0005568	107.108999968
1340.0	0.0005568	107.155999899
1340.0	0.0005563	107.203000069
1340.0	0.000555	107.233999968
1340.0	0.0005543	107.280999899
1340.0	0.0005543	107.312000036
1340.0	0.0005543	107.358999968
1340.0	0.000555	107.405999899
1340.0	0.0005553	107.437000036
1340.0	0.0005555	107.483999968
1340.0	0.0005558	107.530999899
1340.0	0.0005563	107.562000036
1340.0	0.0005555	107.608999968
1340.0	0.000555	107.641000032
1340.0	0.0005545	107.687000036
1340.0	0.0005543	107.733999968
1340.0	0.0005543	107.766000032
1340.0	0.0005543	107.812000036
1340.0	0.000554	107.858999968
1340.0	0.0005543	107.891000032
1340.0	0.0005543	107.937000036
1340.0	0.0005543	107.968999863
1350.0	0.0005403	108.25
1350.0	0.0005355	108.280999899
1350.0	0.0005318	108.328000069
1350.0	0.0005288	108.358999968
1350.0	0.0005263	108.405999899
1350.0	0.000524	108.453000069
1350.0	0.0005228	108.483999968
1350.0	0.000522	108.530999899
1350.0	0.0005218	108.578000069
1350.0	0.0005213	108.608999968
1350.0	0.0005205	108.655999899
1350.0	0.0005195	108.687000036
1350.0	0.0005188	108.733999968
1350.0	0.000518	108.780999899
1350.0	0.0005188	108.812000036
1350.0	0.000518	108.858999968
1350.0	0.0005175	108.905999899
1350.0	0.0005175	108.937000036
1350.0	0.0005175	108.983999968
1350.0	0.000517	109.030999899
1350.0	0.0005175	109.062000036
1350.0	0.000518	109.108999968
1350.0	0.000518	109.141000032
1350.0	0.000518	109.187000036
1350.0	0.000518	109.233999968
1350.0	0.000518	109.266000032
1350.0	0.0005178	109.312000036
1350.0	0.0005188	109.358999968
1350.0	0.0005188	109.391000032
1350.0	0.0005188	109.437000036
1350.0	0.0005188	109.468999863
1350.0	0.0005183	109.516000032
1350.0	0.0005188	109.562000036
1350.0	0.0005193	109.593999863
1350.0	0.0005193	109.641000032
1350.0	0.0005188	109.687000036
1350.0	0.0005188	109.718999863
1360.0	0.0005015	109.983999968
1360.0	0.0004968	110.030999899
1360.0	0.000493	110.078000069
1360.0	0.0004903	110.108999968
1360.0	0.0004878	110.155999899
1360.0	0.0004865	110.203000069
1360.0	0.0004853	110.233999968
1360.0	0.0004838	110.280999899
1360.0	0.0004828	110.328000069
1360.0	0.0004815	110.358999968
1360.0	0.0004803	110.405999899
1360.0	0.0004793	110.437000036
1360.0	0.0004793	110.483999968
1360.0	0.0004793	110.530999899
1360.0	0.00048	110.562000036
1360.0	0.0004805	110.608999968
1360.0	0.0004805	110.655999899
1360.0	0.0004805	110.687000036
1360.0	0.0004803	110.733999968
1360.0	0.00048	110.780999899
1360.0	0.0004793	110.812000036
1360.0	0.0004788	110.858999968
1360.0	0.0004783	110.891000032
1360.0	0.0004783	110.937000036
1360.0	0.0004788	110.983999968
1360.0	0.0004788	111.016000032
1360.0	0.0004788	111.062000036
1360.0	0.0004788	111.108999968
1360.0	0.0004788	111.141000032
1360.0	0.0004783	111.187000036
1360.0	0.000478	111.218999863
1360.0	0.0004783	111.266000032
1360.0	0.000478	111.312000036
1360.0	0.0004775	111.343999863
1360.0	0.0004775	111.391000032
1360.0	0.0004775	111.437000036
1360.0	0.0004775	111.468999863
1370.0	0.0004638	111.733999968
1370.0	0.000459	111.780999899
1370.0	0.0004553	111.828000069
1370.0	0.0004525	111.858999968
1370.0	0.00045	111.905999899
1370.0	0.0004478	111.953000069
1370.0	0.0004463	111.983999968
1370.0	0.0004443	112.030999899
1370.0	0.0004438	112.078000069
1370.0	0.0004438	112.108999968
1370.0	0.000443	112.155999899
1370.0	0.0004428	112.187000036
1370.0	0.0004428	112.233999968
1370.0	0.0004425	112.280999899
1370.0	0.000443	112.312000036
1370.0	0.000443	112.358999968
1370.0	0.0004428	112.405999899
1370.0	0.0004418	112.437000036
1370.0	0.0004418	112.483999968
1370.0	0.0004413	112.516000032
1370.0	0.0004405	112.562000036
1370.0	0.0004405	112.608999968
1370.0	0.0004408	112.641000032
1370.0	0.0004405	112.687000036
1370.0	0.00044	112.733999968
1370.0	0.0004405	112.766000032
1370.0	0.0004408	112.812000036
1370.0	0.0004415	112.858999968
1370.0	0.000442	112.891000032
1370.0	0.000442	112.937000036
1370.0	0.0004418	112.968999863
1370.0	0.0004418	113.016000032
1370.0	0.000442	113.062000036
1370.0	0.0004418	113.093999863
1370.0	0.0004418	113.141000032
1370.0	0.0004418	113.187000036
1380.0	0.0004288	113.453000069
1380.0	0.0004245	113.483999968
1380.0	0.0004213	113.530999899
1380.0	0.000418	113.578000069
1380.0	0.0004163	113.608999968
1380.0	0.0004145	113.655999899
1380.0	0.000413	113.687000036
1380.0	0.0004115	113.733999968
1380.0	0.0004115	113.780999899
1380.0	0.0004115	113.812000036
1380.0	0.0004118	113.858999968
1380.0	0.0004125	113.905999899
1380.0	0.000412	113.937000036
1380.0	0.0004115	113.983999968
1380.0	0.0004108	114.016000032
1380.0	0.0004105	114.062000036
1380.0	0.0004105	114.108999968
1380.0	0.0004105	114.141000032
1380.0	0.0004105	114.187000036
1380.0	0.0004103	114.233999968
1380.0	0.0004105	114.266000032
1380.0	0.0004118	114.312000036
1380.0	0.0004115	114.358999968
1380.0	0.0004115	114.391000032
1380.0	0.0004115	114.437000036
1380.0	0.0004115	114.483999968
1380.0	0.0004118	114.516000032
1380.0	0.0004118	114.562000036
1380.0	0.000412	114.593999863
1380.0	0.000412	114.641000032
1380.0	0.000412	114.687000036
1380.0	0.0004118	114.718999863
1380.0	0.0004113	114.766000032
1380.0	0.0004118	114.812000036
1380.0	0.0004115	114.843999863
1380.0	0.0004108	114.891000032
1380.0	0.0004108	114.937000036
1390.0	0.000402	115.203000069
1390.0	0.000398	115.233999968
1390.0	0.0003953	115.280999899
1390.0	0.0003925	115.328000069
1390.0	0.0003903	115.358999968
1390.0	0.0003888	115.405999899
1390.0	0.0003875	115.437000036
1390.0	0.0003865	115.483999968
1390.0	0.0003863	115.530999899
1390.0	0.0003865	115.562000036
1390.0	0.0003865	115.608999968
1390.0	0.0003865	115.655999899
1390.0	0.0003875	115.687000036
1390.0	0.0003878	115.733999968
1390.0	0.0003878	115.766000032
1390.0	0.000388	115.812000036
1390.0	0.000388	115.858999968
1390.0	0.0003878	115.891000032
1390.0	0.0003878	115.937000036
1390.0	0.000388	115.983999968
1390.0	0.0003883	116.016000032
1390.0	0.0003883	116.062000036
1390.0	0.0003883	116.093999863
1390.0	0.0003883	116.141000032
1390.0	0.0003888	116.187000036
1390.0	0.0003895	116.218999863
1390.0	0.0003895	116.266000032
1390.0	0.0003895	116.312000036
1390.0	0.0003903	116.343999863
1390.0	0.0003905	116.391000032
1390.0	0.0003903	116.421999931
1390.0	0.0003903	116.468999863
1390.0	0.0003895	116.516000032
1390.0	0.000389	116.546999931
1390.0	0.0003888	116.593999863
1390.0	0.0003888	116.641000032
1390.0	0.0003888	116.671999931
1400.0	0.0003803	116.937000036
1400.0	0.0003775	116.983999968
1400.0	0.0003753	117.030999899
1400.0	0.0003743	117.062000036
1400.0	0.000374	117.108999968
1400.0	0.000373	117.141000032
1400.0	0.0003728	117.187000036
1400.0	0.0003728	117.233999968
1400.0	0.000372	117.266000032
1400.0	0.0003718	117.312000036
1400.0	0.0003718	117.358999968
1400.0	0.0003718	117.391000032
1400.0	0.0003713	117.437000036
1400.0	0.0003713	117.483999968
1400.0	0.0003705	117.516000032
1400.0	0.0003705	117.562000036
1400.0	0.0003708	117.608999968
1400.0	0.0003708	117.641000032
1400.0	0.0003705	117.687000036
1400.0	0.0003708	117.733999968
1400.0	0.0003708	117.766000032
1400.0	0.0003705	117.812000036
1400.0	0.0003708	117.858999968
1400.0	0.0003705	117.891000032
1400.0	0.0003713	117.937000036
1400.0	0.0003715	117.983999968
1400.0	0.0003713	118.016000032
1400.0	0.0003705	118.062000036
1400.0	0.0003708	118.093999863
1400.0	0.0003708	118.141000032
1400.0	0.0003713	118.187000036
1400.0	0.0003708	118.218999863
1400.0	0.0003705	118.266000032
1400.0	0.0003703	118.312000036
1400.0	0.0003695	118.343999863
1400.0	0.00037	118.391000032
1400.0	0.00037	118.437000036
1410.0	0.0003668	118.703000069
1410.0	0.0003643	118.75
1410.0	0.0003628	118.780999899
1410.0	0.0003628	118.828000069
1410.0	0.0003625	118.875
1410.0	0.0003628	118.905999899
1410.0	0.000363	118.953000069
1410.0	0.000362	118.983999968
1410.0	0.0003615	119.030999899
1410.0	0.0003618	119.078000069
1410.0	0.0003613	119.108999968
1410.0	0.0003613	119.155999899
1410.0	0.0003615	119.203000069
1410.0	0.0003615	119.233999968
1410.0	0.0003613	119.280999899
1410.0	0.0003613	119.328000069
1410.0	0.0003613	119.358999968
1410.0	0.0003613	119.405999899
1410.0	0.0003618	119.437000036
1410.0	0.0003618	119.483999968
1410.0	0.0003618	119.530999899
1410.0	0.0003615	119.578000069
1410.0	0.0003613	119.608999968
1410.0	0.0003608	119.655999899
1410.0	0.0003608	119.687000036
1410.0	0.0003608	119.733999968
1410.0	0.0003605	119.780999899
1410.0	0.00036	119.812000036
1410.0	0.00036	119.858999968
1410.0	0.0003595	119.905999899
1410.0	0.0003595	119.937000036
1410.0	0.0003603	119.983999968
1410.0	0.0003603	120.016000032
1410.0	0.00036	120.062000036
1410.0	0.0003595	120.108999968
1410.0	0.0003595	120.141000032
1410.0	0.0003593	120.187000036
1420.0	0.000359	120.453000069
1420.0	0.000359	120.5
1420.0	0.0003588	120.530999899
1420.0	0.0003583	120.578000069
1420.0	0.0003588	120.625
1420.0	0.000358	120.655999899
1420.0	0.000358	120.703000069
1420.0	0.0003583	120.733999968
1420.0	0.000359	120.780999899
1420.0	0.0003593	120.828000069
1420.0	0.00036	120.858999968
1420.0	0.0003595	120.905999899
1420.0	0.0003588	120.953000069
1420.0	0.000358	120.983999968
1420.0	0.000358	121.030999899
1420.0	0.0003575	121.062000036
1420.0	0.000357	121.108999968
1420.0	0.0003575	121.155999899
1420.0	0.0003578	121.187000036
1420.0	0.000358	121.233999968
1420.0	0.0003588	121.280999899
1420.0	0.0003588	121.312000036
1420.0	0.0003588	121.358999968
1420.0	0.000358	121.405999899
1420.0	0.000358	121.437000036
1420.0	0.0003578	121.483999968
1420.0	0.0003568	121.516000032
1420.0	0.0003565	121.562000036
1420.0	0.0003568	121.608999968
1420.0	0.000357	121.641000032
1420.0	0.0003575	121.687000036
1420.0	0.0003575	121.733999968
1420.0	0.000358	121.766000032
1420.0	0.0003583	121.812000036
1420.0	0.0003583	121.843999863
1420.0	0.0003583	121.891000032
1420.0	0.0003583	121.937000036
1430.0	0.0003605	122.203000069
1430.0	0.0003608	122.25
1430.0	0.0003613	122.280999899
1430.0	0.0003605	122.328000069
1430.0	0.0003613	122.375
1430.0	0.0003618	122.405999899
1430.0	0.0003615	122.453000069
1430.0	0.0003613	122.483999968
1430.0	0.0003613	122.530999899
1430.0	0.0003608	122.578000069
1430.0	0.0003608	122.608999968
1430.0	0.0003615	122.655999899
1430.0	0.0003615	122.703000069
1430.0	0.0003625	122.733999968
1430.0	0.0003633	122.780999899
1430.0	0.0003638	122.812000036
1430.0	0.0003638	122.858999968
1430.0	0.0003633	122.905999899
1430.0	0.000363	122.937000036
1430.0	0.0003628	122.983999968
1430.0	0.0003625	123.030999899
1430.0	0.000362	123.062000036
1430.0	0.0003615	123.108999968
1430.0	0.0003615	123.141000032
1430.0	0.0003625	123.187000036
1430.0	0.0003625	123.233999968
1430.0	0.0003625	123.266000032
1430.0	0.0003628	123.312000036
1430.0	0.000362	123.358999968
1430.0	0.0003615	123.391000032
1430.0	0.0003608	123.437000036
1430.0	0.0003608	123.483999968
1430.0	0.0003608	123.516000032
1430.0	0.0003615	123.562000036
1430.0	0.0003618	123.593999863
1430.0	0.0003618	123.641000032
1430.0	0.0003615	123.687000036
1440.0	0.0003638	123.953000069
1440.0	0.0003638	123.983999968
1440.0	0.0003645	124.030999899
1440.0	0.000365	124.078000069
1440.0	0.0003653	124.125
1440.0	0.0003658	124.155999899
1440.0	0.0003663	124.203000069
1440.0	0.0003665	124.233999968
1440.0	0.0003675	124.280999899
1440.0	0.0003678	124.328000069
1440.0	0.0003678	124.358999968
1440.0	0.000368	124.405999899
1440.0	0.000369	124.453000069
1440.0	0.000369	124.483999968
1440.0	0.0003695	124.530999899
1440.0	0.0003703	124.562000036
1440.0	0.0003695	124.608999968
1440.0	0.0003688	124.655999899
1440.0	0.0003688	124.687000036
1440.0	0.000368	124.733999968
1440.0	0.0003678	124.780999899
1440.0	0.0003683	124.812000036
1440.0	0.000369	124.858999968
1440.0	0.0003695	124.891000032
1440.0	0.00037	124.937000036
1440.0	0.0003703	124.983999968
1440.0	0.0003693	125.016000032
1440.0	0.000369	125.062000036
1440.0	0.000368	125.108999968
1440.0	0.0003668	125.141000032
1440.0	0.0003663	125.187000036
1440.0	0.0003665	125.233999968
1440.0	0.0003665	125.266000032
1440.0	0.0003668	125.312000036
1440.0	0.0003678	125.343999863
1440.0	0.0003683	125.391000032
1440.0	0.0003683	125.437000036
1450.0	0.0003715	125.703000069
1450.0	0.0003728	125.733999968
1450.0	0.0003738	125.780999899
1450.0	0.000375	125.828000069
1450.0	0.0003755	125.858999968
1450.0	0.0003758	125.905999899
1450.0	0.0003763	125.953000069
1450.0	0.000377	125.983999968
1450.0	0.0003765	126.030999899
1450.0	0.0003765	126.062000036
1450.0	0.0003768	126.108999968
1450.0	0.0003768	126.155999899
1450.0	0.0003765	126.187000036
1450.0	0.0003758	126.233999968
1450.0	0.0003755	126.280999899
1450.0	0.0003758	126.312000036
1450.0	0.000377	126.358999968
1450.0	0.0003768	126.391000032
1450.0	0.0003763	126.437000036
1450.0	0.0003755	126.483999968
1450.0	0.0003755	126.516000032
1450.0	0.0003758	126.562000036
1450.0	0.0003763	126.608999968
1450.0	0.0003768	126.641000032
1450.0	0.0003768	126.687000036
1450.0	0.0003775	126.718999863
1450.0	0.0003778	126.766000032
1450.0	0.0003778	126.812000036
1450.0	0.000378	126.843999863
1450.0	0.0003788	126.891000032
1450.0	0.000379	126.937000036
1450.0	0.0003788	126.968999863
1450.0	0.0003788	127.016000032
1450.0	0.0003788	127.062000036
1450.0	0.000378	127.093999863
1450.0	0.000378	127.141000032
1450.0	0.0003778	127.171999931
1460.0	0.00038	127.437000036
1460.0	0.0003818	127.483999968
1460.0	0.0003828	127.530999899
1460.0	0.0003833	127.562000036
1460.0	0.0003843	127.608999968
1460.0	0.0003845	127.655999899
1460.0	0.0003845	127.687000036
1460.0	0.0003843	127.733999968
1460.0	0.0003843	127.766000032
1460.0	0.0003838	127.812000036
1460.0	0.0003833	127.858999968
1460.0	0.000383	127.891000032
1460.0	0.000383	127.937000036
1460.0	0.0003838	127.983999968
1460.0	0.000384	128.030999899
1460.0	0.0003843	128.062000036
1460.0	0.0003843	128.108999968
1460.0	0.0003843	128.141000032
1460.0	0.000384	128.187000036
1460.0	0.000384	128.233999968
1460.0	0.0003843	128.266000032
1460.0	0.0003843	128.312000036
1460.0	0.0003853	128.358999968
1460.0	0.0003858	128.391000032
1460.0	0.0003863	128.437000036
1460.0	0.0003865	128.468999863
1460.0	0.0003875	128.516000032
1460.0	0.0003878	128.562000036
1460.0	0.0003875	128.593999863
1460.0	0.0003883	128.641000032
1460.0	0.0003888	128.687000036
1460.0	0.000389	128.718999863
1460.0	0.000389	128.766000032
1460.0	0.0003888	128.812000036
1460.0	0.000388	128.843999863
1460.0	0.000387	128.891000032
1460.0	0.0003865	128.937000036
1470.0	0.0003875	129.203000069
1470.0	0.0003883	129.25
1470.0	0.0003888	129.280999899
1470.0	0.000389	129.328000069
1470.0	0.0003893	129.358999968
1470.0	0.0003903	129.405999899
1470.0	0.0003905	129.453000069
1470.0	0.0003913	129.483999968
1470.0	0.0003915	129.530999899
1470.0	0.0003918	129.578000069
1470.0	0.0003918	129.608999968
1470.0	0.0003918	129.655999899
1470.0	0.0003918	129.687000036
1470.0	0.0003915	129.733999968
1470.0	0.0003915	129.780999899
1470.0	0.0003915	129.812000036
1470.0	0.0003918	129.858999968
1470.0	0.0003925	129.905999899
1470.0	0.0003925	129.937000036
1470.0	0.0003918	129.983999968
1470.0	0.0003918	130.030999899
1470.0	0.000392	130.062000036
1470.0	0.0003918	130.108999968
1470.0	0.000392	130.141000032
1470.0	0.000392	130.187000036
1470.0	0.0003918	130.233999968
1470.0	0.0003918	130.266000032
1470.0	0.0003918	130.312000036
1470.0	0.0003918	130.358999968
1470.0	0.0003915	130.391000032
1470.0	0.0003913	130.437000036
1470.0	0.0003913	130.468999863
1470.0	0.0003905	130.516000032
1470.0	0.0003905	130.562000036
1470.0	0.0003913	130.593999863
1470.0	0.0003915	130.641000032
1470.0	0.0003925	130.687000036
1480.0	0.0003918	130.953000069
1480.0	0.0003925	130.983999968
1480.0	0.000393	131.030999899
1480.0	0.0003933	131.078000069
1480.0	0.000394	131.108999968
1480.0	0.0003945	131.155999899
1480.0	0.0003953	131.203000069
1480.0	0.000395	131.233999968
1480.0	0.000395	131.280999899
1480.0	0.0003953	131.328000069
1480.0	0.0003963	131.358999968
1480.0	0.000397	131.405999899
1480.0	0.0003978	131.437000036
1480.0	0.000398	131.483999968
1480.0	0.0003988	131.530999899
1480.0	0.0003988	131.562000036
1480.0	0.000398	131.608999968
1480.0	0.0003975	131.655999899
1480.0	0.0003968	131.687000036
1480.0	0.0003963	131.733999968
1480.0	0.0003955	131.780999899
1480.0	0.0003963	131.812000036
1480.0	0.0003963	131.858999968
1480.0	0.0003963	131.891000032
1480.0	0.0003968	131.937000036
1480.0	0.000397	131.983999968
1480.0	0.0003965	132.016000032
1480.0	0.0003963	132.062000036
1480.0	0.0003958	132.108999968
1480.0	0.0003955	132.141000032
1480.0	0.0003953	132.187000036
1480.0	0.0003955	132.218999863
1480.0	0.0003955	132.266000032
1480.0	0.0003958	132.312000036
1480.0	0.0003968	132.343999863
1480.0	0.0003965	132.391000032
1480.0	0.0003965	132.437000036
1490.0	0.0003993	132.703000069
1490.0	0.0003993	132.75
1490.0	0.0003995	132.780999899
1490.0	0.0003995	132.828000069
1490.0	0.0003993	132.858999968
1490.0	0.0003993	132.905999899
1490.0	0.0003995	132.953000069
1490.0	0.0003995	132.983999968
1490.0	0.0003993	133.030999899
1490.0	0.0003995	133.078000069
1490.0	0.0003995	133.108999968
1490.0	0.0004	133.155999899
1490.0	0.0004	133.187000036
1490.0	0.0004	133.233999968
1490.0	0.0004003	133.280999899
1490.0	0.0004008	133.312000036
1490.0	0.0004008	133.358999968
1490.0	0.0004005	133.405999899
1490.0	0.0004008	133.437000036
1490.0	0.0004013	133.483999968
1490.0	0.0004013	133.516000032
1490.0	0.0004013	133.562000036
1490.0	0.0004013	133.608999968
1490.0	0.0004005	133.641000032
1490.0	0.0004005	133.687000036
1490.0	0.0004008	133.733999968
1490.0	0.0004013	133.766000032
1490.0	0.0004005	133.812000036
1490.0	0.0003995	133.858999968
1490.0	0.0003993	133.891000032
1490.0	0.0003995	133.937000036
1490.0	0.0004005	133.968999863
1490.0	0.0004005	134.016000032
1490.0	0.0004005	134.062000036
1490.0	0.0004008	134.093999863
1490.0	0.0004013	134.141000032
1490.0	0.0004008	134.187000036
1500.0	0.0003983	134.453000069
1500.0	0.0003993	134.483999968
1500.0	0.0004003	134.530999899
1500.0	0.0004013	134.578000069
1500.0	0.0004015	134.608999968
1500.0	0.0004018	134.655999899
1500.0	0.0004025	134.703000069
1500.0	0.0004025	134.733999968
1500.0	0.0004018	134.780999899
1500.0	0.000402	134.828000069
1500.0	0.0004028	134.858999968
1500.0	0.0004033	134.905999899
1500.0	0.000404	134.937000036
1500.0	0.000404	134.983999968
1500.0	0.0004038	135.030999899
1500.0	0.0004038	135.062000036
1500.0	0.000403	135.108999968
1500.0	0.0004025	135.155999899
1500.0	0.0004018	135.187000036
1500.0	0.0004018	135.233999968
1500.0	0.0004015	135.266000032
1500.0	0.000402	135.312000036
1500.0	0.000402	135.358999968
1500.0	0.000403	135.391000032
1500.0	0.0004033	135.437000036
1500.0	0.0004038	135.483999968
1500.0	0.0004038	135.516000032
1500.0	0.0004028	135.562000036
1500.0	0.0004025	135.608999968
1500.0	0.000402	135.641000032
1500.0	0.0004018	135.687000036
1500.0	0.0004015	135.718999863
1500.0	0.0004015	135.766000032
1500.0	0.0004015	135.812000036
1500.0	0.0004015	135.843999863
1500.0	0.0004015	135.891000032
1500.0	0.0004015	135.937000036
1510.0	0.0004025	136.203000069
1510.0	0.000403	136.25
1510.0	0.0004038	136.280999899
1510.0	0.000404	136.328000069
1510.0	0.0004045	136.375
1510.0	0.0004043	136.405999899
1510.0	0.000405	136.453000069
1510.0	0.0004053	136.5
1510.0	0.0004053	136.530999899
1510.0	0.000405	136.578000069
1510.0	0.0004043	136.608999968
1510.0	0.000404	136.655999899
1510.0	0.000404	136.703000069
1510.0	0.0004045	136.733999968
1510.0	0.0004045	136.780999899
1510.0	0.000404	136.828000069
1510.0	0.0004038	136.858999968
1510.0	0.0004033	136.905999899
1510.0	0.000403	136.937000036
1510.0	0.0004033	136.983999968
1510.0	0.0004043	137.030999899
1510.0	0.0004045	137.062000036
1510.0	0.000405	137.108999968
1510.0	0.0004053	137.155999899
1510.0	0.0004053	137.187000036
1510.0	0.000405	137.233999968
1510.0	0.000405	137.280999899
1510.0	0.000405	137.312000036
1510.0	0.000405	137.358999968
1510.0	0.0004053	137.391000032
1510.0	0.000405	137.437000036
1510.0	0.0004045	137.483999968
1510.0	0.0004043	137.516000032
1510.0	0.000404	137.562000036
1510.0	0.0004038	137.608999968
1510.0	0.0004038	137.641000032
1510.0	0.000404	137.687000036
1520.0	0.0004068	137.953000069
1520.0	0.000407	138.0
1520.0	0.0004075	138.046999931
1520.0	0.0004075	138.078000069
1520.0	0.000407	138.125
1520.0	0.0004063	138.171999931
1520.0	0.0004058	138.203000069
1520.0	0.0004058	138.25
1520.0	0.0004058	138.280999899
1520.0	0.0004055	138.328000069
1520.0	0.0004058	138.375
1520.0	0.0004063	138.405999899
1520.0	0.0004068	138.453000069
1520.0	0.0004068	138.5
1520.0	0.0004068	138.530999899
1520.0	0.0004065	138.578000069
1520.0	0.0004065	138.608999968
1520.0	0.0004065	138.655999899
1520.0	0.0004055	138.703000069
1520.0	0.000405	138.733999968
1520.0	0.0004055	138.780999899
1520.0	0.0004058	138.828000069
1520.0	0.0004058	138.858999968
1520.0	0.0004063	138.905999899
1520.0	0.0004063	138.937000036
1520.0	0.0004058	138.983999968
1520.0	0.0004058	139.030999899
1520.0	0.0004055	139.062000036
1520.0	0.000405	139.108999968
1520.0	0.0004045	139.155999899
1520.0	0.0004045	139.187000036
1520.0	0.000405	139.233999968
1520.0	0.0004053	139.280999899
1520.0	0.0004058	139.312000036
1520.0	0.0004055	139.358999968
1520.0	0.0004055	139.391000032
1520.0	0.0004053	139.437000036
1530.0	0.0004028	139.718999863
1530.0	0.0004028	139.75
1530.0	0.000403	139.796999931
1530.0	0.000403	139.828000069
1530.0	0.0004038	139.875
1530.0	0.0004038	139.921999931
1530.0	0.0004045	139.953000069
1530.0	0.000405	140.0
1530.0	0.000405	140.046999931
1530.0	0.0004045	140.078000069
1530.0	0.000405	140.125
1530.0	0.0004058	140.171999931
1530.0	0.0004055	140.203000069
1530.0	0.0004055	140.25
1530.0	0.0004055	140.280999899
1530.0	0.000405	140.328000069
1530.0	0.0004053	140.375
1530.0	0.0004055	140.405999899
1530.0	0.0004058	140.453000069
1530.0	0.0004055	140.5
1530.0	0.0004058	140.530999899
1530.0	0.0004063	140.578000069
1530.0	0.0004055	140.608999968
1530.0	0.0004055	140.655999899
1530.0	0.0004058	140.703000069
1530.0	0.0004065	140.733999968
1530.0	0.000407	140.780999899
1530.0	0.0004078	140.828000069
1530.0	0.0004075	140.858999968
1530.0	0.000407	140.905999899
1530.0	0.000407	140.937000036
1530.0	0.000407	140.983999968
1530.0	0.0004065	141.030999899
1530.0	0.0004063	141.062000036
1530.0	0.0004055	141.108999968
1530.0	0.0004055	141.155999899
1530.0	0.0004058	141.187000036
1540.0	0.0004025	141.468999863
1540.0	0.0004018	141.516000032
1540.0	0.0004013	141.546999931
1540.0	0.0004013	141.593999863
1540.0	0.0004005	141.625
1540.0	0.0004005	141.671999931
1540.0	0.0004003	141.718999863
1540.0	0.0004	141.75
1540.0	0.0003995	141.796999931
1540.0	0.0003995	141.843999863
1540.0	0.0004	141.875
1540.0	0.0004	141.921999931
1540.0	0.0003995	141.953000069
1540.0	0.0003995	142.0
1540.0	0.0004	142.046999931
1540.0	0.0004	142.078000069
1540.0	0.0004	142.125
1540.0	0.0004005	142.171999931
1540.0	0.0004013	142.203000069
1540.0	0.0004013	142.25
1540.0	0.0004013	142.280999899
1540.0	0.0004008	142.328000069
1540.0	0.0004003	142.375
1540.0	0.0004003	142.405999899
1540.0	0.0004	142.453000069
1540.0	0.0003995	142.5
1540.0	0.0003995	142.530999899
1540.0	0.0004003	142.578000069
1540.0	0.0004005	142.608999968
1540.0	0.0004003	142.655999899
1540.0	0.0004008	142.703000069
1540.0	0.0004008	142.75
1540.0	0.0004013	142.780999899
1540.0	0.0004018	142.828000069
1540.0	0.0004018	142.858999968
1540.0	0.0004018	142.905999899
1540.0	0.0004013	142.953000069
1550.0	0.000399	143.218999863
1550.0	0.0003983	143.266000032
1550.0	0.0003975	143.312000036
1550.0	0.0003965	143.343999863
1550.0	0.0003965	143.391000032
1550.0	0.0003963	143.437000036
1550.0	0.0003955	143.468999863
1550.0	0.0003955	143.516000032
1550.0	0.0003955	143.546999931
1550.0	0.0003953	143.593999863
1550.0	0.000395	143.641000032
1550.0	0.000395	143.671999931
1550.0	0.000395	143.718999863
1550.0	0.0003945	143.766000032
1550.0	0.0003943	143.796999931
1550.0	0.000394	143.843999863
1550.0	0.0003943	143.875
1550.0	0.000395	143.921999931
1550.0	0.0003945	143.968999863
1550.0	0.0003938	144.0
1550.0	0.0003933	144.046999931
1550.0	0.0003938	144.093999863
1550.0	0.000393	144.125
1550.0	0.000393	144.171999931
1550.0	0.0003933	144.203000069
1550.0	0.0003925	144.25
1550.0	0.000392	144.296999931
1550.0	0.0003918	144.328000069
1550.0	0.0003913	144.375
1550.0	0.0003908	144.421999931
1550.0	0.0003908	144.453000069
1550.0	0.0003908	144.5
1550.0	0.0003908	144.546999931
1550.0	0.0003918	144.578000069
1550.0	0.0003918	144.625
1550.0	0.0003925	144.671999931
1550.0	0.0003933	144.703000069
1560.0	0.0003905	144.983999968
1560.0	0.0003888	145.030999899
1560.0	0.0003868	145.062000036
1560.0	0.0003855	145.108999968
1560.0	0.000385	145.141000032
1560.0	0.0003843	145.187000036
1560.0	0.000384	145.233999968
1560.0	0.0003838	145.266000032
1560.0	0.000384	145.312000036
1560.0	0.0003838	145.358999968
1560.0	0.0003833	145.391000032
1560.0	0.000384	145.437000036
1560.0	0.0003843	145.468999863
1560.0	0.0003845	145.516000032
1560.0	0.0003853	145.562000036
1560.0	0.0003855	145.593999863
1560.0	0.000385	145.641000032
1560.0	0.0003845	145.687000036
1560.0	0.0003843	145.718999863
1560.0	0.0003845	145.766000032
1560.0	0.000385	145.796999931
1560.0	0.000385	145.843999863
1560.0	0.0003843	145.891000032
1560.0	0.0003843	145.921999931
1560.0	0.000384	145.968999863
1560.0	0.0003833	146.016000032
1560.0	0.0003833	146.046999931
1560.0	0.0003838	146.093999863
1560.0	0.0003838	146.141000032
1560.0	0.0003833	146.171999931
1560.0	0.0003838	146.218999863
1560.0	0.000384	146.25
1560.0	0.0003838	146.296999931
1560.0	0.0003833	146.343999863
1560.0	0.0003833	146.375
1560.0	0.0003825	146.421999931
1560.0	0.000382	146.453000069
1570.0	0.0003753	146.733999968
1570.0	0.000373	146.780999899
1570.0	0.0003715	146.812000036
1570.0	0.0003705	146.858999968
1570.0	0.0003703	146.905999899
1570.0	0.0003695	146.953000069
1570.0	0.0003693	146.983999968
1570.0	0.00037	147.030999899
1570.0	0.0003695	147.062000036
1570.0	0.000369	147.108999968
1570.0	0.0003693	147.155999899
1570.0	0.0003693	147.187000036
1570.0	0.000369	147.233999968
1570.0	0.0003683	147.280999899
1570.0	0.000368	147.312000036
1570.0	0.0003678	147.358999968
1570.0	0.000367	147.391000032
1570.0	0.0003668	147.437000036
1570.0	0.000367	147.483999968
1570.0	0.0003678	147.516000032
1570.0	0.0003683	147.562000036
1570.0	0.0003688	147.608999968
1570.0	0.0003688	147.641000032
1570.0	0.000369	147.687000036
1570.0	0.000369	147.718999863
1570.0	0.0003688	147.766000032
1570.0	0.0003678	147.812000036
1570.0	0.0003678	147.843999863
1570.0	0.000367	147.891000032
1570.0	0.000367	147.937000036
1570.0	0.0003675	147.968999863
1570.0	0.0003675	148.016000032
1570.0	0.0003678	148.062000036
1570.0	0.0003683	148.093999863
1570.0	0.0003688	148.141000032
1570.0	0.0003683	148.171999931
1570.0	0.0003688	148.218999863
1580.0	0.0003618	148.5
1580.0	0.0003593	148.546999931
1580.0	0.0003568	148.578000069
1580.0	0.0003555	148.625
1580.0	0.0003543	148.655999899
1580.0	0.0003528	148.703000069
1580.0	0.0003515	148.75
1580.0	0.0003508	148.780999899
1580.0	0.00035	148.828000069
1580.0	0.0003488	148.875
1580.0	0.0003483	148.905999899
1580.0	0.0003483	148.953000069
1580.0	0.0003483	148.983999968
1580.0	0.0003493	149.030999899
1580.0	0.0003508	149.078000069
1580.0	0.0003513	149.108999968
1580.0	0.0003513	149.155999899
1580.0	0.0003515	149.203000069
1580.0	0.0003515	149.233999968
1580.0	0.0003513	149.280999899
1580.0	0.0003508	149.312000036
1580.0	0.0003505	149.358999968
1580.0	0.00035	149.405999899
1580.0	0.0003503	149.453000069
1580.0	0.0003503	149.483999968
1580.0	0.00035	149.530999899
1580.0	0.0003503	149.578000069
1580.0	0.0003505	149.608999968
1580.0	0.0003508	149.655999899
1580.0	0.0003518	149.687000036
1580.0	0.0003525	149.733999968
1580.0	0.000352	149.780999899
1580.0	0.0003515	149.812000036
1580.0	0.0003513	149.858999968
1580.0	0.0003513	149.905999899
1580.0	0.0003513	149.937000036
1580.0	0.0003515	149.983999968
1590.0	0.0003425	150.25
1590.0	0.0003395	150.296999931
1590.0	0.0003365	150.343999863
1590.0	0.0003343	150.375
1590.0	0.000333	150.421999931
1590.0	0.0003315	150.468999863
1590.0	0.0003313	150.5
1590.0	0.0003315	150.546999931
1590.0	0.0003313	150.593999863
1590.0	0.0003308	150.625
1590.0	0.0003303	150.671999931
1590.0	0.0003303	150.718999863
1590.0	0.0003303	150.75
1590.0	0.0003303	150.796999931
1590.0	0.00033	150.828000069
1590.0	0.0003295	150.875
1590.0	0.0003295	150.921999931
1590.0	0.00033	150.953000069
1590.0	0.0003303	151.0
1590.0	0.00033	151.046999931
1590.0	0.0003295	151.078000069
1590.0	0.0003293	151.125
1590.0	0.000329	151.155999899
1590.0	0.000329	151.203000069
1590.0	0.0003288	151.25
1590.0	0.000328	151.280999899
1590.0	0.0003275	151.328000069
1590.0	0.0003275	151.375
1590.0	0.0003275	151.405999899
1590.0	0.0003278	151.453000069
1590.0	0.000328	151.483999968
1590.0	0.000328	151.530999899
1590.0	0.000328	151.578000069
1590.0	0.0003283	151.608999968
1590.0	0.0003283	151.655999899
1590.0	0.0003283	151.703000069
1590.0	0.0003278	151.733999968
1600.0	0.000319	152.016000032
1600.0	0.0003155	152.062000036
1600.0	0.0003128	152.093999863
1600.0	0.0003108	152.141000032
1600.0	0.0003095	152.171999931
1600.0	0.0003083	152.218999863
1600.0	0.000308	152.266000032
1600.0	0.0003078	152.296999931
1600.0	0.0003075	152.343999863
1600.0	0.0003068	152.391000032
1600.0	0.000307	152.421999931
1600.0	0.0003063	152.468999863
1600.0	0.0003063	152.5
1600.0	0.0003068	152.546999931
1600.0	0.0003068	152.593999863
1600.0	0.0003063	152.625
1600.0	0.0003063	152.671999931
1600.0	0.0003063	152.718999863
1600.0	0.0003058	152.75
1600.0	0.0003058	152.796999931
1600.0	0.0003063	152.828000069
1600.0	0.0003055	152.875
1600.0	0.0003055	152.921999931
1600.0	0.0003058	152.953000069
1600.0	0.0003063	153.0
1600.0	0.0003055	153.046999931
1600.0	0.0003053	153.078000069
1600.0	0.0003058	153.125
1600.0	0.0003065	153.155999899
1600.0	0.000307	153.203000069
1600.0	0.000307	153.25
1600.0	0.0003068	153.280999899
1600.0	0.0003068	153.328000069
1600.0	0.000307	153.375
1600.0	0.0003063	153.405999899
1600.0	0.0003055	153.453000069
1600.0	0.0003058	153.483999968
1610.0	0.0002965	153.766000032
1610.0	0.0002933	153.812000036
1610.0	0.00029	153.858999968
1610.0	0.0002878	153.891000032
1610.0	0.0002863	153.937000036
1610.0	0.000285	153.983999968
1610.0	0.0002843	154.016000032
1610.0	0.0002845	154.062000036
1610.0	0.0002843	154.093999863
1610.0	0.0002838	154.141000032
1610.0	0.000283	154.187000036
1610.0	0.0002825	154.218999863
1610.0	0.0002818	154.266000032
1610.0	0.0002818	154.312000036
1610.0	0.0002813	154.343999863
1610.0	0.0002813	154.391000032
1610.0	0.0002815	154.421999931
1610.0	0.0002813	154.468999863
1610.0	0.0002805	154.516000032
1610.0	0.0002808	154.546999931
1610.0	0.0002808	154.593999863
1610.0	0.0002805	154.641000032
1610.0	0.0002805	154.671999931
1610.0	0.0002813	154.718999863
1610.0	0.0002808	154.75
1610.0	0.0002813	154.796999931
1610.0	0.000282	154.843999863
1610.0	0.0002825	154.875
1610.0	0.000282	154.921999931
1610.0	0.0002818	154.968999863
1610.0	0.0002813	155.0
1610.0	0.0002803	155.046999931
1610.0	0.0002793	155.078000069
1610.0	0.000279	155.125
1610.0	0.0002788	155.171999931
1610.0	0.0002793	155.203000069
1610.0	0.0002808	155.25
1620.0	0.0002718	155.530999899
1620.0	0.0002678	155.578000069
1620.0	0.0002645	155.608999968
1620.0	0.0002625	155.655999899
1620.0	0.0002608	155.687000036
1620.0	0.0002595	155.733999968
1620.0	0.0002593	155.780999899
1620.0	0.0002583	155.812000036
1620.0	0.0002568	155.858999968
1620.0	0.0002558	155.905999899
1620.0	0.0002565	155.937000036
1620.0	0.000257	155.983999968
1620.0	0.0002575	156.016000032
1620.0	0.000257	156.062000036
1620.0	0.000257	156.108999968
1620.0	0.0002568	156.155999899
1620.0	0.0002578	156.187000036
1620.0	0.0002578	156.233999968
1620.0	0.0002575	156.266000032
1620.0	0.0002575	156.312000036
1620.0	0.000257	156.358999968
1620.0	0.0002558	156.391000032
1620.0	0.0002553	156.437000036
1620.0	0.000254	156.483999968
1620.0	0.0002538	156.516000032
1620.0	0.000254	156.562000036
1620.0	0.0002545	156.608999968
1620.0	0.0002545	156.641000032
1620.0	0.000255	156.687000036
1620.0	0.0002555	156.718999863
1620.0	0.0002553	156.766000032
1620.0	0.0002545	156.812000036
1620.0	0.0002543	156.843999863
1620.0	0.0002545	156.891000032
1620.0	0.0002553	156.937000036
1620.0	0.0002563	156.968999863
1620.0	0.0002558	157.016000032
1630.0	0.0002445	157.296999931
1630.0	0.0002413	157.328000069
1630.0	0.0002383	157.375
1630.0	0.0002365	157.421999931
1630.0	0.000235	157.453000069
1630.0	0.000234	157.5
1630.0	0.000234	157.530999899
1630.0	0.000233	157.578000069
1630.0	0.0002318	157.625
1630.0	0.0002315	157.655999899
1630.0	0.0002308	157.703000069
1630.0	0.0002305	157.75
1630.0	0.0002305	157.780999899
1630.0	0.0002305	157.828000069
1630.0	0.00023	157.858999968
1630.0	0.00023	157.905999899
1630.0	0.0002303	157.953000069
1630.0	0.0002295	157.983999968
1630.0	0.00023	158.030999899
1630.0	0.0002305	158.078000069
1630.0	0.0002305	158.108999968
1630.0	0.0002305	158.155999899
1630.0	0.0002305	158.187000036
1630.0	0.0002305	158.233999968
1630.0	0.0002303	158.280999899
1630.0	0.0002308	158.312000036
1630.0	0.0002315	158.358999968
1630.0	0.0002318	158.405999899
1630.0	0.0002325	158.437000036
1630.0	0.0002328	158.483999968
1630.0	0.000232	158.530999899
1630.0	0.0002315	158.562000036
1630.0	0.0002315	158.608999968
1630.0	0.0002305	158.641000032
1630.0	0.00023	158.687000036
1630.0	0.0002303	158.733999968
1630.0	0.00023	158.766000032
1640.0	0.000222	159.046999931
1640.0	0.000218	159.093999863
1640.0	0.0002153	159.125
1640.0	0.0002133	159.171999931
1640.0	0.0002113	159.218999863
1640.0	0.0002093	159.25
1640.0	0.0002083	159.296999931
1640.0	0.000208	159.343999863
1640.0	0.000207	159.375
1640.0	0.000207	159.421999931
1640.0	0.000207	159.453000069
1640.0	0.0002065	159.5
1640.0	0.0002068	159.546999931
1640.0	0.0002068	159.578000069
1640.0	0.0002065	159.625
1640.0	0.0002063	159.671999931
1640.0	0.0002058	159.703000069
1640.0	0.0002055	159.75
1640.0	0.0002063	159.780999899
1640.0	0.0002065	159.828000069
1640.0	0.0002068	159.875
1640.0	0.0002063	159.905999899
1640.0	0.0002063	159.953000069
1640.0	0.0002058	160.0
1640.0	0.0002063	160.030999899
1640.0	0.0002063	160.078000069
1640.0	0.0002063	160.125
1640.0	0.0002058	160.155999899
1640.0	0.0002063	160.203000069
1640.0	0.0002063	160.233999968
1640.0	0.0002055	160.280999899
1640.0	0.0002055	160.328000069
1640.0	0.0002063	160.358999968
1640.0	0.0002068	160.405999899
1640.0	0.000207	160.453000069
1640.0	0.0002075	160.483999968
1640.0	0.0002078	160.530999899
1650.0	0.0002003	160.812000036
1650.0	0.0001965	160.858999968
1650.0	0.0001938	160.891000032
1650.0	0.0001918	160.937000036
1650.0	0.0001895	160.968999863
1650.0	0.000188	161.016000032
1650.0	0.0001875	161.062000036
1650.0	0.0001868	161.093999863
1650.0	0.0001858	161.141000032
1650.0	0.0001853	161.187000036
1650.0	0.0001843	161.218999863
1650.0	0.0001838	161.266000032
1650.0	0.0001833	161.312000036
1650.0	0.0001833	161.343999863
1650.0	0.0001838	161.391000032
1650.0	0.000184	161.421999931
1650.0	0.000184	161.468999863
1650.0	0.0001833	161.516000032
1650.0	0.0001833	161.546999931
1650.0	0.000183	161.593999863
1650.0	0.0001828	161.625
1650.0	0.000183	161.671999931
1650.0	0.0001833	161.718999863
1650.0	0.000183	161.75
1650.0	0.0001833	161.796999931
1650.0	0.000183	161.843999863
1650.0	0.0001828	161.875
1650.0	0.0001828	161.921999931
1650.0	0.0001838	161.968999863
1650.0	0.0001843	162.0
1650.0	0.000184	162.046999931
1650.0	0.0001843	162.078000069
1650.0	0.000184	162.125
1650.0	0.0001838	162.171999931
1650.0	0.0001833	162.203000069
1650.0	0.0001833	162.25
1650.0	0.0001838	162.296999931
1660.0	0.0001763	162.578000069
1660.0	0.0001738	162.625
1660.0	0.0001718	162.655999899
1660.0	0.00017	162.703000069
1660.0	0.0001695	162.733999968
1660.0	0.0001693	162.780999899
1660.0	0.000168	162.828000069
1660.0	0.000167	162.858999968
1660.0	0.0001665	162.905999899
1660.0	0.0001658	162.953000069
1660.0	0.0001655	162.983999968
1660.0	0.0001663	163.030999899
1660.0	0.0001665	163.078000069
1660.0	0.0001665	163.108999968
1660.0	0.0001665	163.155999899
1660.0	0.0001663	163.187000036
1660.0	0.0001653	163.233999968
1660.0	0.000165	163.280999899
1660.0	0.0001645	163.312000036
1660.0	0.000164	163.358999968
1660.0	0.000164	163.405999899
1660.0	0.0001643	163.437000036
1660.0	0.0001643	163.483999968
1660.0	0.000164	163.516000032
1660.0	0.000164	163.562000036
1660.0	0.000164	163.608999968
1660.0	0.0001643	163.641000032
1660.0	0.0001655	163.687000036
1660.0	0.0001655	163.733999968
1660.0	0.0001655	163.766000032
1660.0	0.0001655	163.812000036
1660.0	0.0001655	163.843999863
1660.0	0.0001653	163.891000032
1660.0	0.0001653	163.937000036
1660.0	0.0001655	163.968999863
1660.0	0.0001658	164.016000032
1660.0	0.0001658	164.062000036
1670.0	0.0001578	164.328000069
1670.0	0.0001563	164.375
1670.0	0.000154	164.421999931
1670.0	0.0001513	164.453000069
1670.0	0.0001493	164.5
1670.0	0.000148	164.546999931
1670.0	0.000147	164.578000069
1670.0	0.0001465	164.625
1670.0	0.0001463	164.655999899
1670.0	0.0001463	164.703000069
1670.0	0.0001463	164.75
1670.0	0.0001463	164.780999899
1670.0	0.0001463	164.828000069
1670.0	0.0001463	164.875
1670.0	0.0001468	164.905999899
1670.0	0.000147	164.953000069
1670.0	0.0001478	165.0
1670.0	0.0001488	165.030999899
1670.0	0.0001488	165.078000069
1670.0	0.0001488	165.108999968
1670.0	0.0001483	165.155999899
1670.0	0.000148	165.203000069
1670.0	0.0001475	165.25
1670.0	0.0001475	165.280999899
1670.0	0.0001478	165.328000069
1670.0	0.0001475	165.358999968
1670.0	0.0001478	165.405999899
1670.0	0.000148	165.453000069
1670.0	0.000148	165.483999968
1670.0	0.0001478	165.530999899
1670.0	0.0001478	165.578000069
1670.0	0.0001475	165.608999968
1670.0	0.0001478	165.655999899
1670.0	0.0001483	165.687000036
1670.0	0.0001483	165.733999968
1670.0	0.000148	165.780999899
1670.0	0.0001478	165.812000036
1680.0	0.0001425	166.108999968
1680.0	0.0001395	166.141000032
1680.0	0.000137	166.187000036
1680.0	0.0001355	166.233999968
1680.0	0.0001338	166.266000032
1680.0	0.0001325	166.312000036
1680.0	0.0001318	166.358999968
1680.0	0.0001308	166.391000032
1680.0	0.0001305	166.437000036
1680.0	0.0001308	166.468999863
1680.0	0.0001315	166.516000032
1680.0	0.0001315	166.562000036
1680.0	0.0001318	166.593999863
1680.0	0.0001318	166.641000032
1680.0	0.0001318	166.687000036
1680.0	0.000132	166.718999863
1680.0	0.000132	166.766000032
1680.0	0.000132	166.796999931
1680.0	0.0001318	166.843999863
1680.0	0.0001313	166.891000032
1680.0	0.0001313	166.921999931
1680.0	0.0001305	166.968999863
1680.0	0.0001308	167.016000032
1680.0	0.0001308	167.046999931
1680.0	0.0001303	167.093999863
1680.0	0.0001303	167.125
1680.0	0.0001305	167.171999931
1680.0	0.0001305	167.218999863
1680.0	0.0001305	167.25
1680.0	0.0001303	167.296999931
1680.0	0.0001308	167.343999863
1680.0	0.0001308	167.375
1680.0	0.0001313	167.421999931
1680.0	0.0001313	167.453000069
1680.0	0.0001313	167.5
1680.0	0.0001315	167.546999931
1680.0	0.0001318	167.578000069
1690.0	0.0001243	167.875
1690.0	0.0001218	167.905999899
1690.0	0.0001205	167.953000069
1690.0	0.0001193	168.0
1690.0	0.000119	168.030999899
1690.0	0.0001195	168.078000069
1690.0	0.00012	168.125
1690.0	0.000119	168.155999899
1690.0	0.000119	168.203000069
1690.0	0.000119	168.233999968
1690.0	0.000119	168.280999899
1690.0	0.000119	168.328000069
1690.0	0.0001188	168.358999968
1690.0	0.000118	168.405999899
1690.0	0.0001175	168.453000069
1690.0	0.0001175	168.483999968
1690.0	0.000117	168.530999899
1690.0	0.000117	168.562000036
1690.0	0.000118	168.608999968
1690.0	0.000118	168.655999899
1690.0	0.000118	168.687000036
1690.0	0.000118	168.733999968
1690.0	0.000118	168.780999899
1690.0	0.000118	168.812000036
1690.0	0.0001178	168.858999968
1690.0	0.0001175	168.905999899
1690.0	0.000117	168.937000036
1690.0	0.000117	168.983999968
1690.0	0.000117	169.016000032
1690.0	0.000117	169.062000036
1690.0	0.0001168	169.108999968
1690.0	0.000117	169.141000032
1690.0	0.0001168	169.187000036
1690.0	0.0001163	169.233999968
1690.0	0.0001163	169.266000032
1690.0	0.0001163	169.312000036
1690.0	0.0001165	169.358999968
1700.0	0.0001138	169.641000032
1700.0	0.000112	169.687000036
1700.0	0.0001118	169.718999863
1700.0	0.0001108	169.766000032
1700.0	0.00011	169.812000036
1700.0	0.0001088	169.843999863
1700.0	0.0001075	169.891000032
1700.0	0.0001068	169.937000036
1700.0	0.0001065	169.968999863
1700.0	0.0001065	170.016000032
1700.0	0.0001065	170.046999931
1700.0	0.0001063	170.093999863
1700.0	0.0001055	170.141000032
1700.0	0.000105	170.171999931
1700.0	0.0001045	170.218999863
1700.0	0.000105	170.266000032
1700.0	0.000105	170.296999931
1700.0	0.0001055	170.343999863
1700.0	0.000105	170.391000032
1700.0	0.0001043	170.421999931
1700.0	0.000104	170.468999863
1700.0	0.0001045	170.516000032
1700.0	0.000105	170.546999931
1700.0	0.0001055	170.593999863
1700.0	0.0001063	170.625
1700.0	0.0001063	170.671999931
1700.0	0.0001068	170.718999863
1700.0	0.0001065	170.75
1700.0	0.0001063	170.796999931
1700.0	0.0001068	170.843999863
1700.0	0.000107	170.875
1700.0	0.000107	170.921999931
1700.0	0.0001075	170.953000069
1700.0	0.000107	171.0
1700.0	0.0001058	171.046999931
1700.0	0.0001053	171.093999863
1710.0	0.0001025	171.375
1710.0	0.0001018	171.421999931
1710.0	0.0001008	171.453000069
1710.0	0.0001	171.5
1710.0	9.9e-05	171.546999931
1710.0	9.8e-05	171.578000069
1710.0	9.75e-05	171.625
1710.0	9.68e-05	171.655999899
1710.0	9.63e-05	171.703000069
1710.0	9.65e-05	171.75
1710.0	9.65e-05	171.780999899
1710.0	9.7e-05	171.828000069
1710.0	9.7e-05	171.875
1710.0	9.78e-05	171.905999899
1710.0	9.78e-05	171.953000069
1710.0	9.8e-05	171.983999968
1710.0	9.8e-05	172.030999899
1710.0	9.83e-05	172.078000069
1710.0	9.83e-05	172.108999968
1710.0	9.88e-05	172.155999899
1710.0	9.8e-05	172.203000069
1710.0	9.7e-05	172.233999968
1710.0	9.65e-05	172.280999899
1710.0	9.65e-05	172.312000036
1710.0	9.58e-05	172.358999968
1710.0	9.53e-05	172.405999899
1710.0	9.53e-05	172.437000036
1710.0	9.43e-05	172.483999968
1710.0	9.4e-05	172.530999899
1710.0	9.45e-05	172.562000036
1710.0	9.5e-05	172.608999968
1710.0	9.53e-05	172.655999899
1710.0	9.53e-05	172.687000036
1710.0	9.5e-05	172.733999968
1710.0	9.45e-05	172.766000032
1710.0	9.43e-05	172.812000036
1710.0	9.45e-05	172.858999968
1720.0	9.28e-05	173.141000032
1720.0	9.13e-05	173.187000036
1720.0	9.05e-05	173.218999863
1720.0	9e-05	173.266000032
1720.0	8.93e-05	173.312000036
1720.0	8.9e-05	173.343999863
1720.0	8.9e-05	173.391000032
1720.0	8.83e-05	173.421999931
1720.0	8.8e-05	173.468999863
1720.0	8.83e-05	173.516000032
1720.0	8.8e-05	173.546999931
1720.0	8.75e-05	173.593999863
1720.0	8.75e-05	173.641000032
1720.0	8.68e-05	173.671999931
1720.0	8.75e-05	173.718999863
1720.0	8.78e-05	173.766000032
1720.0	8.78e-05	173.796999931
1720.0	8.75e-05	173.843999863
1720.0	8.75e-05	173.875
1720.0	8.8e-05	173.921999931
1720.0	8.8e-05	173.968999863
1720.0	8.88e-05	174.0
1720.0	8.88e-05	174.046999931
1720.0	8.83e-05	174.078000069
1720.0	8.8e-05	174.125
1720.0	8.8e-05	174.171999931
1720.0	8.78e-05	174.203000069
1720.0	8.7e-05	174.25
1720.0	8.68e-05	174.296999931
1720.0	8.7e-05	174.328000069
1720.0	8.68e-05	174.375
1720.0	8.78e-05	174.421999931
1720.0	8.75e-05	174.453000069
1720.0	8.68e-05	174.5
1720.0	8.65e-05	174.530999899
1720.0	8.65e-05	174.578000069
1720.0	8.63e-05	174.625
1730.0	8.4e-05	174.905999899
1730.0	8.33e-05	174.953000069
1730.0	8.28e-05	174.983999968
1730.0	8.18e-05	175.030999899
1730.0	8.13e-05	175.078000069
1730.0	8.08e-05	175.108999968
1730.0	8.03e-05	175.155999899
1730.0	7.93e-05	175.187000036
1730.0	7.93e-05	175.233999968
1730.0	7.95e-05	175.280999899
1730.0	7.93e-05	175.312000036
1730.0	7.93e-05	175.358999968
1730.0	7.88e-05	175.405999899
1730.0	7.8e-05	175.437000036
1730.0	7.83e-05	175.483999968
1730.0	7.78e-05	175.530999899
1730.0	7.78e-05	175.562000036
1730.0	7.8e-05	175.608999968
1730.0	7.88e-05	175.641000032
1730.0	7.88e-05	175.687000036
1730.0	7.93e-05	175.733999968
1730.0	7.93e-05	175.766000032
1730.0	7.9e-05	175.812000036
1730.0	7.93e-05	175.858999968
1730.0	8e-05	175.891000032
1730.0	8.03e-05	175.937000036
1730.0	7.95e-05	175.968999863
1730.0	7.93e-05	176.016000032
1730.0	7.9e-05	176.062000036
1730.0	7.93e-05	176.093999863
1730.0	7.95e-05	176.141000032
1730.0	8.03e-05	176.187000036
1730.0	7.95e-05	176.218999863
1730.0	7.95e-05	176.266000032
1730.0	7.93e-05	176.312000036
1730.0	7.9e-05	176.343999863
1730.0	7.83e-05	176.391000032
1740.0	7.5e-05	176.671999931
1740.0	7.43e-05	176.718999863
1740.0	7.38e-05	176.75
1740.0	7.3e-05	176.796999931
1740.0	7.3e-05	176.843999863
1740.0	7.3e-05	176.875
1740.0	7.33e-05	176.921999931
1740.0	7.33e-05	176.968999863
1740.0	7.3e-05	177.0
1740.0	7.28e-05	177.046999931
1740.0	7.18e-05	177.078000069
1740.0	7.15e-05	177.125
1740.0	7.13e-05	177.171999931
1740.0	7.2e-05	177.203000069
1740.0	7.25e-05	177.25
1740.0	7.28e-05	177.296999931
1740.0	7.25e-05	177.328000069
1740.0	7.2e-05	177.375
1740.0	7.13e-05	177.405999899
1740.0	7.08e-05	177.453000069
1740.0	7.15e-05	177.5
1740.0	7.25e-05	177.530999899
1740.0	7.28e-05	177.578000069
1740.0	7.3e-05	177.625
1740.0	7.3e-05	177.655999899
1740.0	7.25e-05	177.703000069
1740.0	7.25e-05	177.75
1740.0	7.25e-05	177.780999899
1740.0	7.25e-05	177.828000069
1740.0	7.25e-05	177.875
1740.0	7.2e-05	177.905999899
1740.0	7.15e-05	177.953000069
1740.0	7.15e-05	178.0
1740.0	7.15e-05	178.030999899
1740.0	7.15e-05	178.078000069
1740.0	7.2e-05	178.108999968
1740.0	7.2e-05	178.155999899
1750.0	7.03e-05	178.437000036
1750.0	6.88e-05	178.483999968
1750.0	6.78e-05	178.530999899
1750.0	6.68e-05	178.562000036
1750.0	6.65e-05	178.608999968
1750.0	6.65e-05	178.655999899
1750.0	6.68e-05	178.687000036
1750.0	6.65e-05	178.733999968
1750.0	6.63e-05	178.766000032
1750.0	6.63e-05	178.812000036
1750.0	6.55e-05	178.858999968
1750.0	6.45e-05	178.891000032
1750.0	6.5e-05	178.937000036
1750.0	6.53e-05	178.983999968
1750.0	6.53e-05	179.016000032
1750.0	6.63e-05	179.062000036
1750.0	6.68e-05	179.093999863
1750.0	6.68e-05	179.141000032
1750.0	6.65e-05	179.187000036
1750.0	6.63e-05	179.218999863
1750.0	6.63e-05	179.266000032
1750.0	6.68e-05	179.312000036
1750.0	6.75e-05	179.343999863
1750.0	6.75e-05	179.391000032
1750.0	6.7e-05	179.437000036
1750.0	6.63e-05	179.468999863
1750.0	6.5e-05	179.516000032
1750.0	6.43e-05	179.546999931
1750.0	6.5e-05	179.593999863
1750.0	6.53e-05	179.641000032
1750.0	6.55e-05	179.671999931
1750.0	6.53e-05	179.718999863
1750.0	6.53e-05	179.75
1750.0	6.55e-05	179.796999931
1750.0	6.55e-05	179.843999863
1750.0	6.58e-05	179.875
1750.0	6.58e-05	179.921999931
1760.0	6.55e-05	180.203000069
1760.0	6.53e-05	180.25
1760.0	6.5e-05	180.296999931
1760.0	6.4e-05	180.328000069
1760.0	6.38e-05	180.375
1760.0	6.33e-05	180.421999931
1760.0	6.18e-05	180.453000069
1760.0	6.05e-05	180.5
1760.0	6e-05	180.530999899
1760.0	5.9e-05	180.578000069
1760.0	5.93e-05	180.625
1760.0	5.9e-05	180.655999899
1760.0	5.93e-05	180.703000069
1760.0	5.93e-05	180.75
1760.0	6e-05	180.780999899
1760.0	6e-05	180.828000069
1760.0	5.95e-05	180.875
1760.0	6e-05	180.905999899
1760.0	6.05e-05	180.953000069
1760.0	6.03e-05	180.983999968
1760.0	6.05e-05	181.030999899
1760.0	6.13e-05	181.078000069
1760.0	6.15e-05	181.125
1760.0	6.18e-05	181.155999899
1760.0	6.18e-05	181.203000069
1760.0	6.13e-05	181.233999968
1760.0	6.13e-05	181.280999899
1760.0	6.13e-05	181.328000069
1760.0	6.13e-05	181.358999968
1760.0	6.08e-05	181.405999899
1760.0	6.13e-05	181.453000069
1760.0	6.13e-05	181.483999968
1760.0	6.08e-05	181.530999899
1760.0	6.05e-05	181.562000036
1760.0	6.03e-05	181.608999968
1760.0	5.95e-05	181.655999899
1760.0	5.95e-05	181.687000036
1770.0	5.75e-05	181.983999968
1770.0	5.65e-05	182.016000032
1770.0	5.55e-05	182.062000036
1770.0	5.5e-05	182.108999968
1770.0	5.43e-05	182.141000032
1770.0	5.38e-05	182.187000036
1770.0	5.4e-05	182.233999968
1770.0	5.38e-05	182.266000032
1770.0	5.38e-05	182.312000036
1770.0	5.43e-05	182.343999863
1770.0	5.45e-05	182.391000032
1770.0	5.43e-05	182.437000036
1770.0	5.45e-05	182.468999863
1770.0	5.43e-05	182.516000032
1770.0	5.43e-05	182.562000036
1770.0	5.45e-05	182.593999863
1770.0	5.5e-05	182.641000032
1770.0	5.5e-05	182.671999931
1770.0	5.53e-05	182.718999863
1770.0	5.55e-05	182.766000032
1770.0	5.55e-05	182.796999931
1770.0	5.53e-05	182.843999863
1770.0	5.55e-05	182.891000032
1770.0	5.58e-05	182.921999931
1770.0	5.63e-05	182.968999863
1770.0	5.68e-05	183.016000032
1770.0	5.7e-05	183.046999931
1770.0	5.65e-05	183.093999863
1770.0	5.55e-05	183.125
1770.0	5.5e-05	183.171999931
1770.0	5.45e-05	183.218999863
1770.0	5.38e-05	183.25
1770.0	5.33e-05	183.296999931
1770.0	5.33e-05	183.328000069
1770.0	5.33e-05	183.375
1770.0	5.4e-05	183.421999931
1770.0	5.43e-05	183.453000069
1780.0	5.4e-05	183.75
1780.0	5.3e-05	183.780999899
1780.0	5.25e-05	183.828000069
1780.0	5.2e-05	183.875
1780.0	5.15e-05	183.905999899
1780.0	5.05e-05	183.953000069
1780.0	5e-05	184.0
1780.0	4.93e-05	184.030999899
1780.0	5e-05	184.078000069
1780.0	5e-05	184.108999968
1780.0	4.95e-05	184.155999899
1780.0	4.95e-05	184.203000069
1780.0	4.95e-05	184.233999968
1780.0	4.93e-05	184.280999899
1780.0	4.95e-05	184.328000069
1780.0	5.03e-05	184.358999968
1780.0	5e-05	184.405999899
1780.0	4.93e-05	184.437000036
1780.0	4.95e-05	184.483999968
1780.0	5e-05	184.530999899
1780.0	5.03e-05	184.562000036
1780.0	5.05e-05	184.608999968
1780.0	5.05e-05	184.655999899
1780.0	5.08e-05	184.687000036
1780.0	5.13e-05	184.733999968
1780.0	5.08e-05	184.780999899
1780.0	5.03e-05	184.812000036
1780.0	4.95e-05	184.858999968
1780.0	4.95e-05	184.891000032
1780.0	4.93e-05	184.937000036
1780.0	4.9e-05	184.983999968
1780.0	4.95e-05	185.016000032
1780.0	4.93e-05	185.062000036
1780.0	4.88e-05	185.108999968
1780.0	4.9e-05	185.141000032
1780.0	4.95e-05	185.187000036
1780.0	5e-05	185.218999863
1790.0	4.68e-05	185.516000032
1790.0	4.68e-05	185.546999931
1790.0	4.68e-05	185.593999863
1790.0	4.63e-05	185.641000032
1790.0	4.63e-05	185.671999931
1790.0	4.65e-05	185.718999863
1790.0	4.58e-05	185.766000032
1790.0	4.58e-05	185.796999931
1790.0	4.58e-05	185.843999863
1790.0	4.58e-05	185.875
1790.0	4.63e-05	185.921999931
1790.0	4.63e-05	185.968999863
1790.0	4.58e-05	186.0
1790.0	4.55e-05	186.046999931
1790.0	4.53e-05	186.093999863
1790.0	4.55e-05	186.125
1790.0	4.53e-05	186.171999931
1790.0	4.53e-05	186.203000069
1790.0	4.53e-05	186.25
1790.0	4.53e-05	186.296999931
1790.0	4.55e-05	186.343999863
1790.0	4.58e-05	186.375
1790.0	4.58e-05	186.421999931
1790.0	4.63e-05	186.468999863
1790.0	4.68e-05	186.5
1790.0	4.68e-05	186.546999931
1790.0	4.63e-05	186.578000069
1790.0	4.63e-05	186.625
1790.0	4.58e-05	186.671999931
1790.0	4.55e-05	186.703000069
1790.0	4.58e-05	186.75
1790.0	4.53e-05	186.796999931
1790.0	4.45e-05	186.828000069
1790.0	4.45e-05	186.875
1790.0	4.45e-05	186.905999899
1790.0	4.45e-05	186.953000069
1790.0	4.45e-05	187.0
1800.0	4.28e-05	187.280999899
1800.0	4.2e-05	187.328000069
1800.0	4.2e-05	187.375
1800.0	4.2e-05	187.405999899
1800.0	4.18e-05	187.453000069
1800.0	4.13e-05	187.483999968
1800.0	4.08e-05	187.530999899
1800.0	4.03e-05	187.578000069
1800.0	3.95e-05	187.608999968
1800.0	3.93e-05	187.655999899
1800.0	3.95e-05	187.703000069
1800.0	4.03e-05	187.733999968
1800.0	4.08e-05	187.780999899
1800.0	4.13e-05	187.828000069
1800.0	4.13e-05	187.858999968
1800.0	4.13e-05	187.905999899
1800.0	4.13e-05	187.937000036
1800.0	4.05e-05	187.983999968
1800.0	4e-05	188.030999899
1800.0	4.05e-05	188.062000036
1800.0	4.08e-05	188.108999968
1800.0	4.08e-05	188.155999899
1800.0	4.08e-05	188.187000036
1800.0	4.05e-05	188.233999968
1800.0	4.08e-05	188.266000032
1800.0	4.08e-05	188.312000036
1800.0	4.13e-05	188.358999968
1800.0	4.13e-05	188.391000032
1800.0	4.08e-05	188.437000036
1800.0	4.03e-05	188.483999968
1800.0	4e-05	188.516000032
1800.0	4e-05	188.562000036
1800.0	4.05e-05	188.608999968
1800.0	4.08e-05	188.641000032
1800.0	4.08e-05	188.687000036
1800.0	4.13e-05	188.718999863
1800.0	4.08e-05	188.766000032
