Your edit line - do NOT delete this line
Wavelength [nm], Voltage [V], Elapsed time [s]
900.0	6e-05	14.0
900.0	5.9e-05	14.0469999313
900.0	5.8e-05	14.0939998627
900.0	5.7e-05	14.125
900.0	5.65e-05	14.1719999313
900.0	5.65e-05	14.2189998627
900.0	5.63e-05	14.25
900.0	5.63e-05	14.2969999313
900.0	5.58e-05	14.3280000687
900.0	5.58e-05	14.375
900.0	5.63e-05	14.4219999313
900.0	5.65e-05	14.4530000687
900.0	5.65e-05	14.5
900.0	5.65e-05	14.5469999313
900.0	5.65e-05	14.5780000687
900.0	5.68e-05	14.625
900.0	5.68e-05	14.6719999313
900.0	5.65e-05	14.7030000687
900.0	5.63e-05	14.75
900.0	5.63e-05	14.7809998989
900.0	5.58e-05	14.8280000687
900.0	5.55e-05	14.875
900.0	5.55e-05	14.9059998989
900.0	5.55e-05	14.9530000687
900.0	5.63e-05	15.0
900.0	5.65e-05	15.0309998989
900.0	5.63e-05	15.0780000687
900.0	5.63e-05	15.1089999676
900.0	5.63e-05	15.1559998989
900.0	5.63e-05	15.2030000687
900.0	5.65e-05	15.2339999676
900.0	5.63e-05	15.2809998989
900.0	5.63e-05	15.3280000687
900.0	5.63e-05	15.3589999676
900.0	5.63e-05	15.4059998989
900.0	5.58e-05	15.4370000362
900.0	5.53e-05	15.4839999676
910.0	5.88e-05	15.7969999313
910.0	5.93e-05	15.8280000687
910.0	5.95e-05	15.875
910.0	6e-05	15.9219999313
910.0	6e-05	15.9530000687
910.0	6.03e-05	16.0
910.0	6e-05	16.0469999313
910.0	6e-05	16.0780000687
910.0	6.03e-05	16.125
910.0	6.05e-05	16.1559998989
910.0	6.08e-05	16.2030000687
910.0	6.13e-05	16.25
910.0	6.13e-05	16.2809998989
910.0	6.18e-05	16.3280000687
910.0	6.2e-05	16.375
910.0	6.18e-05	16.4059998989
910.0	6.18e-05	16.4530000687
910.0	6.18e-05	16.4839999676
910.0	6.2e-05	16.5309998989
910.0	6.2e-05	16.5780000687
910.0	6.18e-05	16.6089999676
910.0	6.2e-05	16.6559998989
910.0	6.2e-05	16.7030000687
910.0	6.18e-05	16.7339999676
910.0	6.18e-05	16.7809998989
910.0	6.15e-05	16.8280000687
910.0	6.15e-05	16.8589999676
910.0	6.18e-05	16.9059998989
910.0	6.18e-05	16.9370000362
910.0	6.18e-05	16.9839999676
910.0	6.18e-05	17.0309998989
910.0	6.13e-05	17.0620000362
910.0	6.13e-05	17.1089999676
910.0	6.13e-05	17.1559998989
910.0	6.08e-05	17.1870000362
910.0	6.13e-05	17.2339999676
910.0	6.13e-05	17.2660000324
920.0	6.43e-05	17.5780000687
920.0	6.5e-05	17.625
920.0	6.55e-05	17.6559998989
920.0	6.58e-05	17.7030000687
920.0	6.65e-05	17.7339999676
920.0	6.7e-05	17.7809998989
920.0	6.75e-05	17.8280000687
920.0	6.78e-05	17.8589999676
920.0	6.75e-05	17.9059998989
920.0	6.75e-05	17.9530000687
920.0	6.75e-05	17.9839999676
920.0	6.78e-05	18.0309998989
920.0	6.78e-05	18.0620000362
920.0	6.75e-05	18.1089999676
920.0	6.75e-05	18.1559998989
920.0	6.7e-05	18.1870000362
920.0	6.7e-05	18.2339999676
920.0	6.78e-05	18.2809998989
920.0	6.78e-05	18.3120000362
920.0	6.78e-05	18.3589999676
920.0	6.78e-05	18.3910000324
920.0	6.75e-05	18.4370000362
920.0	6.75e-05	18.4839999676
920.0	6.75e-05	18.5309998989
920.0	6.75e-05	18.5620000362
920.0	6.75e-05	18.6089999676
920.0	6.78e-05	18.6559998989
920.0	6.75e-05	18.6870000362
920.0	6.75e-05	18.7339999676
920.0	6.75e-05	18.7660000324
920.0	6.78e-05	18.8120000362
920.0	6.8e-05	18.8589999676
920.0	6.8e-05	18.8910000324
920.0	6.8e-05	18.9370000362
920.0	6.8e-05	18.9689998627
920.0	6.83e-05	19.0160000324
920.0	6.83e-05	19.0620000362
930.0	7.08e-05	19.3589999676
930.0	7.18e-05	19.4059998989
930.0	7.2e-05	19.4370000362
930.0	7.25e-05	19.4839999676
930.0	7.28e-05	19.5309998989
930.0	7.3e-05	19.5620000362
930.0	7.33e-05	19.6089999676
930.0	7.3e-05	19.6559998989
930.0	7.33e-05	19.6870000362
930.0	7.4e-05	19.7339999676
930.0	7.43e-05	19.7809998989
930.0	7.38e-05	19.8120000362
930.0	7.38e-05	19.8589999676
930.0	7.38e-05	19.8910000324
930.0	7.4e-05	19.9370000362
930.0	7.43e-05	19.9839999676
930.0	7.43e-05	20.0160000324
930.0	7.45e-05	20.0620000362
930.0	7.45e-05	20.0939998627
930.0	7.45e-05	20.1410000324
930.0	7.45e-05	20.1870000362
930.0	7.45e-05	20.2189998627
930.0	7.45e-05	20.2660000324
930.0	7.5e-05	20.3120000362
930.0	7.53e-05	20.3439998627
930.0	7.5e-05	20.3910000324
930.0	7.53e-05	20.4370000362
930.0	7.55e-05	20.4689998627
930.0	7.55e-05	20.5160000324
930.0	7.58e-05	20.5469999313
930.0	7.53e-05	20.5939998627
930.0	7.53e-05	20.6410000324
930.0	7.53e-05	20.6719999313
930.0	7.55e-05	20.7189998627
930.0	7.53e-05	20.7660000324
930.0	7.53e-05	20.7969999313
930.0	7.53e-05	20.8439998627
940.0	7.83e-05	21.1410000324
940.0	7.9e-05	21.1870000362
940.0	7.95e-05	21.2189998627
940.0	8.05e-05	21.2660000324
940.0	8.13e-05	21.3120000362
940.0	8.15e-05	21.3439998627
940.0	8.2e-05	21.3910000324
940.0	8.2e-05	21.4219999313
940.0	8.18e-05	21.4689998627
940.0	8.18e-05	21.5160000324
940.0	8.15e-05	21.5469999313
940.0	8.18e-05	21.5939998627
940.0	8.13e-05	21.6410000324
940.0	8.13e-05	21.6719999313
940.0	8.13e-05	21.7189998627
940.0	8.13e-05	21.75
940.0	8.18e-05	21.7969999313
940.0	8.18e-05	21.8439998627
940.0	8.18e-05	21.875
940.0	8.18e-05	21.9219999313
940.0	8.2e-05	21.9689998627
940.0	8.2e-05	22.0
940.0	8.2e-05	22.0469999313
940.0	8.18e-05	22.0780000687
940.0	8.18e-05	22.125
940.0	8.2e-05	22.1719999313
940.0	8.2e-05	22.2030000687
940.0	8.18e-05	22.25
940.0	8.18e-05	22.2969999313
940.0	8.18e-05	22.3280000687
940.0	8.18e-05	22.375
940.0	8.18e-05	22.4219999313
940.0	8.18e-05	22.4530000687
940.0	8.18e-05	22.5
940.0	8.25e-05	22.5309998989
940.0	8.28e-05	22.5780000687
940.0	8.25e-05	22.625
950.0	8.5e-05	22.9219999313
950.0	8.63e-05	22.9530000687
950.0	8.65e-05	23.0
950.0	8.7e-05	23.0469999313
950.0	8.78e-05	23.0780000687
950.0	8.78e-05	23.125
950.0	8.8e-05	23.1719999313
950.0	8.83e-05	23.2030000687
950.0	8.88e-05	23.25
950.0	8.88e-05	23.2969999313
950.0	8.88e-05	23.3280000687
950.0	8.9e-05	23.375
950.0	8.93e-05	23.4059998989
950.0	8.95e-05	23.4530000687
950.0	8.95e-05	23.5
950.0	8.93e-05	23.5309998989
950.0	8.95e-05	23.5780000687
950.0	9e-05	23.625
950.0	9.03e-05	23.6559998989
950.0	9.03e-05	23.7030000687
950.0	9.03e-05	23.7339999676
950.0	9.03e-05	23.7809998989
950.0	9.03e-05	23.8280000687
950.0	9e-05	23.8589999676
950.0	8.95e-05	23.9059998989
950.0	8.93e-05	23.9530000687
950.0	8.95e-05	23.9839999676
950.0	9e-05	24.0309998989
950.0	9e-05	24.0620000362
950.0	8.95e-05	24.1089999676
950.0	9e-05	24.1559998989
950.0	9.03e-05	24.1870000362
950.0	9.03e-05	24.2339999676
950.0	8.95e-05	24.2809998989
950.0	8.93e-05	24.3120000362
950.0	8.93e-05	24.3589999676
950.0	8.93e-05	24.3910000324
960.0	9.3e-05	24.6870000362
960.0	9.38e-05	24.7189998627
960.0	9.45e-05	24.7660000324
960.0	9.45e-05	24.8120000362
960.0	9.45e-05	24.8439998627
960.0	9.5e-05	24.8910000324
960.0	9.58e-05	24.9370000362
960.0	9.63e-05	24.9689998627
960.0	9.65e-05	25.0160000324
960.0	9.65e-05	25.0620000362
960.0	9.68e-05	25.0939998627
960.0	9.75e-05	25.1410000324
960.0	9.75e-05	25.1719999313
960.0	9.75e-05	25.2189998627
960.0	9.7e-05	25.2660000324
960.0	9.68e-05	25.2969999313
960.0	9.7e-05	25.3439998627
960.0	9.7e-05	25.3910000324
960.0	9.68e-05	25.4219999313
960.0	9.68e-05	25.4689998627
960.0	9.7e-05	25.5
960.0	9.75e-05	25.5469999313
960.0	9.75e-05	25.5939998627
960.0	9.68e-05	25.625
960.0	9.68e-05	25.6719999313
960.0	9.7e-05	25.7189998627
960.0	9.75e-05	25.75
960.0	9.75e-05	25.7969999313
960.0	9.75e-05	25.8280000687
960.0	9.7e-05	25.875
960.0	9.8e-05	25.9219999313
960.0	9.8e-05	25.9530000687
960.0	9.75e-05	26.0
960.0	9.68e-05	26.0469999313
960.0	9.65e-05	26.0780000687
960.0	9.63e-05	26.125
960.0	9.58e-05	26.1719999313
970.0	0.0001003	26.4530000687
970.0	0.0001015	26.4839999676
970.0	0.0001015	26.5309998989
970.0	0.000102	26.5780000687
970.0	0.000102	26.6089999676
970.0	0.000103	26.6559998989
970.0	0.0001033	26.6870000362
970.0	0.0001038	26.7339999676
970.0	0.0001038	26.7809998989
970.0	0.0001043	26.8120000362
970.0	0.0001045	26.8589999676
970.0	0.0001043	26.9059998989
970.0	0.000105	26.9370000362
970.0	0.0001053	26.9839999676
970.0	0.0001055	27.0309998989
970.0	0.0001063	27.0620000362
970.0	0.0001063	27.1089999676
970.0	0.0001058	27.1559998989
970.0	0.0001055	27.1870000362
970.0	0.0001058	27.2339999676
970.0	0.0001063	27.2660000324
970.0	0.0001055	27.3120000362
970.0	0.0001053	27.3589999676
970.0	0.0001053	27.3910000324
970.0	0.0001053	27.4370000362
970.0	0.0001055	27.4839999676
970.0	0.0001053	27.5309998989
970.0	0.0001058	27.5620000362
970.0	0.0001055	27.6089999676
970.0	0.0001058	27.6410000324
970.0	0.0001063	27.6870000362
970.0	0.0001063	27.7339999676
970.0	0.0001058	27.7809998989
970.0	0.0001055	27.8120000362
970.0	0.0001055	27.8589999676
970.0	0.0001058	27.8910000324
970.0	0.0001063	27.9370000362
980.0	0.0001083	28.2189998627
980.0	0.0001095	28.2660000324
980.0	0.0001103	28.2969999313
980.0	0.0001105	28.3439998627
980.0	0.0001113	28.3910000324
980.0	0.0001118	28.4219999313
980.0	0.0001125	28.4689998627
980.0	0.0001125	28.5160000324
980.0	0.0001128	28.5469999313
980.0	0.000113	28.5939998627
980.0	0.0001138	28.6410000324
980.0	0.0001133	28.6719999313
980.0	0.0001133	28.7189998627
980.0	0.0001133	28.75
980.0	0.0001138	28.7969999313
980.0	0.000114	28.8439998627
980.0	0.000114	28.875
980.0	0.0001138	28.9219999313
980.0	0.0001133	28.9689998627
980.0	0.0001138	29.0
980.0	0.0001138	29.0469999313
980.0	0.0001133	29.0780000687
980.0	0.0001133	29.125
980.0	0.0001133	29.1719999313
980.0	0.0001133	29.2030000687
980.0	0.000114	29.25
980.0	0.0001138	29.2969999313
980.0	0.000114	29.3280000687
980.0	0.0001143	29.375
980.0	0.000115	29.4059998989
980.0	0.0001145	29.4530000687
980.0	0.0001145	29.5
980.0	0.0001145	29.5309998989
980.0	0.0001145	29.5780000687
980.0	0.0001153	29.625
980.0	0.0001145	29.6559998989
980.0	0.0001143	29.7030000687
990.0	0.0001178	29.9839999676
990.0	0.0001188	30.125
990.0	0.000122	30.1719999313
990.0	0.0001228	30.2030000687
990.0	0.000123	30.25
990.0	0.0001233	30.2809998989
990.0	0.000124	30.3280000687
990.0	0.0001243	30.375
990.0	0.0001243	30.4059998989
990.0	0.0001245	30.4530000687
990.0	0.0001245	30.5
990.0	0.0001243	30.5309998989
990.0	0.000124	30.5780000687
990.0	0.000124	30.6089999676
990.0	0.0001243	30.6559998989
990.0	0.0001243	30.7030000687
990.0	0.000124	30.7339999676
990.0	0.000124	30.7809998989
990.0	0.0001238	30.8280000687
990.0	0.000124	30.8589999676
990.0	0.000124	30.9059998989
990.0	0.0001238	30.9370000362
990.0	0.0001238	30.9839999676
990.0	0.0001233	31.0309998989
990.0	0.0001238	31.0620000362
990.0	0.0001233	31.1089999676
990.0	0.000123	31.1559998989
990.0	0.0001233	31.1870000362
990.0	0.0001238	31.2339999676
990.0	0.0001238	31.2660000324
990.0	0.000123	31.3120000362
990.0	0.0001228	31.3589999676
990.0	0.0001228	31.3910000324
990.0	0.0001233	31.4370000362
1000.0	0.000127	31.7189998627
1000.0	0.000129	31.7660000324
1000.0	0.0001295	31.7969999313
1000.0	0.00013	31.8439998627
1000.0	0.0001305	31.875
1000.0	0.0001313	31.9219999313
1000.0	0.000132	31.9689998627
1000.0	0.000132	32.0
1000.0	0.0001328	32.0469999313
1000.0	0.0001333	32.0939998627
1000.0	0.000134	32.125
1000.0	0.0001343	32.1719999313
1000.0	0.0001338	32.2030000687
1000.0	0.0001333	32.25
1000.0	0.0001338	32.2969999313
1000.0	0.0001338	32.3280000687
1000.0	0.0001328	32.375
1000.0	0.000132	32.4219999313
1000.0	0.0001318	32.4530000687
1000.0	0.0001325	32.5
1000.0	0.0001325	32.5309998989
1000.0	0.0001325	32.5780000687
1000.0	0.000132	32.625
1000.0	0.000132	32.6559998989
1000.0	0.0001325	32.7030000687
1000.0	0.0001325	32.75
1000.0	0.0001325	32.7809998989
1000.0	0.0001325	32.8280000687
1000.0	0.000133	32.875
1000.0	0.0001333	32.9059998989
1000.0	0.000133	32.9530000687
1000.0	0.000133	32.9839999676
1000.0	0.000133	33.0309998989
1000.0	0.0001328	33.0780000687
1000.0	0.000133	33.1089999676
1000.0	0.000132	33.1559998989
1000.0	0.0001318	33.2030000687
1010.0	0.0001365	33.4689998627
1010.0	0.0001378	33.5160000324
1010.0	0.0001393	33.5620000362
1010.0	0.0001405	33.5939998627
1010.0	0.0001405	33.6410000324
1010.0	0.0001405	33.6870000362
1010.0	0.0001413	33.7189998627
1010.0	0.0001418	33.7660000324
1010.0	0.0001418	33.7969999313
1010.0	0.000142	33.8439998627
1010.0	0.0001425	33.8910000324
1010.0	0.0001428	33.9219999313
1010.0	0.000143	33.9689998627
1010.0	0.0001433	34.0160000324
1010.0	0.000143	34.0469999313
1010.0	0.000143	34.0939998627
1010.0	0.0001443	34.125
1010.0	0.0001443	34.1719999313
1010.0	0.000144	34.2189998627
1010.0	0.0001438	34.25
1010.0	0.0001438	34.2969999313
1010.0	0.0001443	34.3439998627
1010.0	0.0001445	34.375
1010.0	0.000144	34.4219999313
1010.0	0.0001438	34.4530000687
1010.0	0.0001438	34.5
1010.0	0.000144	34.5469999313
1010.0	0.0001438	34.5780000687
1010.0	0.0001428	34.625
1010.0	0.0001428	34.6719999313
1010.0	0.000143	34.7030000687
1010.0	0.000143	34.75
1010.0	0.0001425	34.7969999313
1010.0	0.0001428	34.8280000687
1010.0	0.0001425	34.875
1010.0	0.0001425	34.9219999313
1010.0	0.0001425	34.9689998627
1020.0	0.0001475	35.2339999676
1020.0	0.0001483	35.2809998989
1020.0	0.00015	35.3280000687
1020.0	0.0001505	35.3589999676
1020.0	0.0001515	35.4059998989
1020.0	0.0001525	35.4530000687
1020.0	0.000153	35.4839999676
1020.0	0.0001533	35.5309998989
1020.0	0.0001538	35.5620000362
1020.0	0.0001533	35.6089999676
1020.0	0.0001538	35.6559998989
1020.0	0.0001545	35.6870000362
1020.0	0.0001553	35.7339999676
1020.0	0.000155	35.7809998989
1020.0	0.000155	35.8120000362
1020.0	0.000155	35.8589999676
1020.0	0.0001555	35.8910000324
1020.0	0.0001555	35.9370000362
1020.0	0.000155	35.9839999676
1020.0	0.000155	36.0160000324
1020.0	0.0001553	36.0620000362
1020.0	0.000155	36.1089999676
1020.0	0.000155	36.1410000324
1020.0	0.0001543	36.1870000362
1020.0	0.0001543	36.2339999676
1020.0	0.0001545	36.2660000324
1020.0	0.0001545	36.3120000362
1020.0	0.0001543	36.3439998627
1020.0	0.0001543	36.3910000324
1020.0	0.0001545	36.4370000362
1020.0	0.0001553	36.4689998627
1020.0	0.000155	36.5160000324
1020.0	0.000155	36.5620000362
1020.0	0.000155	36.5939998627
1020.0	0.0001555	36.6410000324
1020.0	0.000155	36.6719999313
1020.0	0.0001545	36.7189998627
1030.0	0.0001603	37.0
1030.0	0.000162	37.0469999313
1030.0	0.0001633	37.0780000687
1030.0	0.0001643	37.125
1030.0	0.0001655	37.1719999313
1030.0	0.0001663	37.2030000687
1030.0	0.0001663	37.25
1030.0	0.0001663	37.2969999313
1030.0	0.0001665	37.3280000687
1030.0	0.0001675	37.375
1030.0	0.0001678	37.4059998989
1030.0	0.000167	37.4530000687
1030.0	0.000167	37.5
1030.0	0.0001678	37.5309998989
1030.0	0.0001678	37.5780000687
1030.0	0.0001675	37.625
1030.0	0.0001675	37.6559998989
1030.0	0.0001678	37.7030000687
1030.0	0.0001683	37.75
1030.0	0.000169	37.7809998989
1030.0	0.0001688	37.8280000687
1030.0	0.000169	37.8589999676
1030.0	0.0001693	37.9059998989
1030.0	0.00017	37.9530000687
1030.0	0.0001703	37.9839999676
1030.0	0.0001695	38.0309998989
1030.0	0.0001693	38.0780000687
1030.0	0.000169	38.1089999676
1030.0	0.0001693	38.1559998989
1030.0	0.000169	38.1870000362
1030.0	0.0001683	38.2339999676
1030.0	0.0001683	38.2809998989
1030.0	0.0001688	38.3120000362
1030.0	0.0001693	38.3589999676
1030.0	0.0001688	38.4059998989
1030.0	0.0001688	38.4370000362
1030.0	0.0001693	38.4839999676
1040.0	0.0001745	38.7660000324
1040.0	0.000177	38.7969999313
1040.0	0.0001793	38.8439998627
1040.0	0.00018	38.8910000324
1040.0	0.0001808	38.9219999313
1040.0	0.0001818	38.9689998627
1040.0	0.000183	39.0
1040.0	0.000183	39.0469999313
1040.0	0.0001838	39.0939998627
1040.0	0.000183	39.125
1040.0	0.0001828	39.1719999313
1040.0	0.0001838	39.2189998627
1040.0	0.000183	39.25
1040.0	0.000184	39.2969999313
1040.0	0.0001833	39.3439998627
1040.0	0.000183	39.375
1040.0	0.0001838	39.4219999313
1040.0	0.0001843	39.4689998627
1040.0	0.0001843	39.5
1040.0	0.000184	39.5469999313
1040.0	0.0001838	39.5939998627
1040.0	0.0001843	39.625
1040.0	0.0001845	39.6719999313
1040.0	0.0001843	39.7030000687
1040.0	0.0001838	39.75
1040.0	0.0001843	39.7969999313
1040.0	0.0001843	39.8280000687
1040.0	0.0001838	39.875
1040.0	0.000184	39.9219999313
1040.0	0.0001838	39.9530000687
1040.0	0.0001845	40.0
1040.0	0.0001845	40.0309998989
1040.0	0.0001843	40.0780000687
1040.0	0.000184	40.125
1040.0	0.000184	40.1559998989
1040.0	0.0001845	40.2030000687
1040.0	0.0001845	40.25
1050.0	0.0001893	40.5309998989
1050.0	0.000192	40.5780000687
1050.0	0.0001943	40.6089999676
1050.0	0.000195	40.6559998989
1050.0	0.0001965	40.7030000687
1050.0	0.000197	40.7339999676
1050.0	0.0001983	40.7809998989
1050.0	0.0001988	40.8120000362
1050.0	0.000198	40.8589999676
1050.0	0.0001978	40.9059998989
1050.0	0.0001978	40.9370000362
1050.0	0.0001988	40.9839999676
1050.0	0.0001988	41.0160000324
1050.0	0.000198	41.0620000362
1050.0	0.0001978	41.1089999676
1050.0	0.0001983	41.1410000324
1050.0	0.0001988	41.1870000362
1050.0	0.000198	41.2339999676
1050.0	0.000198	41.2660000324
1050.0	0.000198	41.3120000362
1050.0	0.0001983	41.3589999676
1050.0	0.0001988	41.3910000324
1050.0	0.0001978	41.4370000362
1050.0	0.0001978	41.4689998627
1050.0	0.000198	41.5160000324
1050.0	0.0001983	41.5620000362
1050.0	0.0001983	41.5939998627
1050.0	0.0001975	41.6410000324
1050.0	0.0001975	41.6870000362
1050.0	0.0001983	41.7189998627
1050.0	0.0001988	41.7660000324
1050.0	0.0001983	41.7969999313
1050.0	0.000198	41.8439998627
1050.0	0.0001978	41.8910000324
1050.0	0.0001983	41.9219999313
1050.0	0.0001983	41.9689998627
1050.0	0.000198	42.0160000324
1060.0	0.0002055	42.2969999313
1060.0	0.0002078	42.3280000687
1060.0	0.0002095	42.375
1060.0	0.0002118	42.4219999313
1060.0	0.000213	42.4530000687
1060.0	0.0002143	42.5
1060.0	0.000214	42.5469999313
1060.0	0.0002143	42.5780000687
1060.0	0.0002143	42.625
1060.0	0.0002153	42.6559998989
1060.0	0.0002163	42.7030000687
1060.0	0.0002155	42.75
1060.0	0.0002155	42.7809998989
1060.0	0.0002165	42.8280000687
1060.0	0.0002168	42.875
1060.0	0.0002158	42.9059998989
1060.0	0.0002163	42.9530000687
1060.0	0.0002165	42.9839999676
1060.0	0.0002168	43.0309998989
1060.0	0.0002168	43.0780000687
1060.0	0.0002165	43.1089999676
1060.0	0.0002168	43.1559998989
1060.0	0.0002168	43.2030000687
1060.0	0.0002178	43.2339999676
1060.0	0.0002178	43.2809998989
1060.0	0.0002175	43.3280000687
1060.0	0.000217	43.3589999676
1060.0	0.0002178	43.4059998989
1060.0	0.0002175	43.4370000362
1060.0	0.0002168	43.4839999676
1060.0	0.0002165	43.5309998989
1060.0	0.0002168	43.5620000362
1060.0	0.0002178	43.6089999676
1060.0	0.0002178	43.6410000324
1060.0	0.0002175	43.6870000362
1060.0	0.0002168	43.7339999676
1060.0	0.0002168	43.7660000324
1070.0	0.000224	44.0469999313
1070.0	0.0002258	44.0939998627
1070.0	0.0002288	44.1410000324
1070.0	0.0002295	44.1719999313
1070.0	0.0002305	44.2189998627
1070.0	0.0002315	44.25
1070.0	0.000233	44.2969999313
1070.0	0.000234	44.3439998627
1070.0	0.0002338	44.375
1070.0	0.0002338	44.4219999313
1070.0	0.000234	44.4689998627
1070.0	0.0002345	44.5
1070.0	0.0002353	44.5469999313
1070.0	0.0002345	44.5780000687
1070.0	0.0002345	44.625
1070.0	0.0002355	44.6719999313
1070.0	0.0002353	44.7030000687
1070.0	0.0002343	44.75
1070.0	0.0002338	44.7969999313
1070.0	0.0002333	44.8280000687
1070.0	0.0002333	44.875
1070.0	0.0002328	44.9219999313
1070.0	0.0002325	44.9530000687
1070.0	0.000232	45.0
1070.0	0.0002333	45.0469999313
1070.0	0.000233	45.0780000687
1070.0	0.0002338	45.125
1070.0	0.000233	45.1559998989
1070.0	0.0002328	45.2030000687
1070.0	0.0002328	45.25
1070.0	0.0002338	45.2809998989
1070.0	0.0002333	45.3280000687
1070.0	0.0002325	45.375
1070.0	0.0002318	45.4059998989
1070.0	0.000232	45.4530000687
1070.0	0.0002333	45.5
1070.0	0.0002328	45.5309998989
1080.0	0.0002388	45.8120000362
1080.0	0.0002418	45.8589999676
1080.0	0.000244	45.8910000324
1080.0	0.0002455	45.9370000362
1080.0	0.0002478	45.9839999676
1080.0	0.0002495	46.0160000324
1080.0	0.00025	46.0620000362
1080.0	0.0002505	46.0939998627
1080.0	0.0002508	46.1410000324
1080.0	0.000252	46.1870000362
1080.0	0.0002515	46.2189998627
1080.0	0.0002518	46.2660000324
1080.0	0.0002518	46.3120000362
1080.0	0.0002525	46.3439998627
1080.0	0.0002533	46.3910000324
1080.0	0.000253	46.4219999313
1080.0	0.0002525	46.4689998627
1080.0	0.0002525	46.5160000324
1080.0	0.000253	46.5469999313
1080.0	0.0002533	46.5939998627
1080.0	0.000253	46.6410000324
1080.0	0.0002525	46.6719999313
1080.0	0.000253	46.7189998627
1080.0	0.0002528	46.75
1080.0	0.0002528	46.7969999313
1080.0	0.000252	46.8439998627
1080.0	0.000252	46.875
1080.0	0.0002533	46.9219999313
1080.0	0.000254	46.9689998627
1080.0	0.000254	47.0
1080.0	0.0002538	47.0469999313
1080.0	0.0002538	47.0939998627
1080.0	0.0002543	47.125
1080.0	0.000255	47.1719999313
1080.0	0.0002538	47.2030000687
1080.0	0.0002533	47.25
1080.0	0.0002538	47.2969999313
1090.0	0.00026	47.5620000362
1090.0	0.0002633	47.6089999676
1090.0	0.0002645	47.6559998989
1090.0	0.0002663	47.6870000362
1090.0	0.000267	47.7339999676
1090.0	0.0002683	47.7660000324
1090.0	0.0002693	47.8120000362
1090.0	0.0002693	47.8589999676
1090.0	0.0002695	47.8910000324
1090.0	0.00027	47.9370000362
1090.0	0.0002715	47.9839999676
1090.0	0.000272	48.0160000324
1090.0	0.0002713	48.0620000362
1090.0	0.0002708	48.0939998627
1090.0	0.0002705	48.1410000324
1090.0	0.0002708	48.1870000362
1090.0	0.0002703	48.2189998627
1090.0	0.0002703	48.2660000324
1090.0	0.00027	48.3120000362
1090.0	0.0002705	48.3439998627
1090.0	0.0002708	48.3910000324
1090.0	0.0002695	48.4219999313
1090.0	0.0002693	48.4689998627
1090.0	0.0002693	48.5160000324
1090.0	0.0002703	48.5469999313
1090.0	0.0002705	48.5939998627
1090.0	0.0002703	48.6410000324
1090.0	0.0002705	48.6719999313
1090.0	0.0002715	48.7189998627
1090.0	0.0002708	48.7660000324
1090.0	0.0002708	48.7969999313
1090.0	0.00027	48.8439998627
1090.0	0.0002695	48.8910000324
1090.0	0.0002693	48.9219999313
1090.0	0.0002703	48.9689998627
1090.0	0.0002708	49.0160000324
1090.0	0.00027	49.0469999313
1100.0	0.0002775	49.3280000687
1100.0	0.0002788	49.3589999676
1100.0	0.0002813	49.4059998989
1100.0	0.0002818	49.4370000362
1100.0	0.0002828	49.4839999676
1100.0	0.0002838	49.5309998989
1100.0	0.0002858	49.5620000362
1100.0	0.0002868	49.6089999676
1100.0	0.000287	49.6559998989
1100.0	0.000287	49.6870000362
1100.0	0.000287	49.7339999676
1100.0	0.000289	49.7660000324
1100.0	0.000289	49.8120000362
1100.0	0.0002883	49.8589999676
1100.0	0.0002888	49.8910000324
1100.0	0.0002883	49.9370000362
1100.0	0.0002893	49.9839999676
1100.0	0.0002888	50.0160000324
1100.0	0.0002888	50.0620000362
1100.0	0.0002888	50.0939998627
1100.0	0.00029	50.1410000324
1100.0	0.00029	50.1870000362
1100.0	0.0002893	50.2189998627
1100.0	0.000289	50.2660000324
1100.0	0.0002888	50.3120000362
1100.0	0.0002903	50.3439998627
1100.0	0.0002903	50.3910000324
1100.0	0.00029	50.4219999313
1100.0	0.0002903	50.4689998627
1100.0	0.0002905	50.5160000324
1100.0	0.0002915	50.5469999313
1100.0	0.0002903	50.5939998627
1100.0	0.0002895	50.6410000324
1100.0	0.0002895	50.6719999313
1100.0	0.0002893	50.7189998627
1100.0	0.00029	50.7660000324
1100.0	0.0002895	50.7969999313
1110.0	0.0002963	51.0780000687
1110.0	0.0002988	51.1089999676
1110.0	0.0003013	51.1559998989
1110.0	0.000303	51.1870000362
1110.0	0.0003033	51.2339999676
1110.0	0.000304	51.2809998989
1110.0	0.000304	51.3120000362
1110.0	0.0003055	51.3589999676
1110.0	0.0003063	51.4059998989
1110.0	0.0003055	51.4370000362
1110.0	0.0003053	51.4839999676
1110.0	0.0003063	51.5160000324
1110.0	0.0003065	51.5620000362
1110.0	0.0003053	51.6089999676
1110.0	0.0003053	51.6410000324
1110.0	0.0003053	51.6870000362
1110.0	0.0003063	51.7339999676
1110.0	0.0003055	51.7660000324
1110.0	0.0003053	51.8120000362
1110.0	0.0003053	51.8439998627
1110.0	0.0003058	51.8910000324
1110.0	0.000307	51.9370000362
1110.0	0.000307	51.9689998627
1110.0	0.0003063	52.0160000324
1110.0	0.0003058	52.0620000362
1110.0	0.0003055	52.0939998627
1110.0	0.0003063	52.1410000324
1110.0	0.0003058	52.1719999313
1110.0	0.0003055	52.2189998627
1110.0	0.0003055	52.2660000324
1110.0	0.0003065	52.2969999313
1110.0	0.0003068	52.3439998627
1110.0	0.0003063	52.3910000324
1110.0	0.0003058	52.4219999313
1110.0	0.0003063	52.4689998627
1110.0	0.000307	52.5160000324
1110.0	0.0003068	52.5469999313
1120.0	0.0003118	52.8120000362
1120.0	0.000314	52.8589999676
1120.0	0.0003165	52.8910000324
1120.0	0.0003175	52.9370000362
1120.0	0.0003188	52.9839999676
1120.0	0.0003193	53.0160000324
1120.0	0.0003215	53.0620000362
1120.0	0.0003225	53.1089999676
1120.0	0.0003218	53.1410000324
1120.0	0.000322	53.1870000362
1120.0	0.0003225	53.2339999676
1120.0	0.0003243	53.2660000324
1120.0	0.0003238	53.3120000362
1120.0	0.0003238	53.3439998627
1120.0	0.0003233	53.3910000324
1120.0	0.0003243	53.4370000362
1120.0	0.0003245	53.4689998627
1120.0	0.0003243	53.5160000324
1120.0	0.000324	53.5620000362
1120.0	0.0003238	53.5939998627
1120.0	0.000325	53.6410000324
1120.0	0.000325	53.6719999313
1120.0	0.0003238	53.7189998627
1120.0	0.0003228	53.7660000324
1120.0	0.0003228	53.7969999313
1120.0	0.000324	53.8439998627
1120.0	0.0003238	53.8910000324
1120.0	0.0003238	53.9219999313
1120.0	0.0003243	53.9689998627
1120.0	0.0003253	54.0
1120.0	0.000325	54.0469999313
1120.0	0.000324	54.0939998627
1120.0	0.000324	54.125
1120.0	0.000324	54.1719999313
1120.0	0.0003245	54.2189998627
1120.0	0.0003245	54.25
1120.0	0.0003233	54.2969999313
1130.0	0.0003293	54.5620000362
1130.0	0.0003325	54.6089999676
1130.0	0.0003333	54.6410000324
1130.0	0.0003343	54.6870000362
1130.0	0.0003353	54.7189998627
1130.0	0.0003365	54.7660000324
1130.0	0.0003378	54.8120000362
1130.0	0.0003375	54.8439998627
1130.0	0.0003378	54.8910000324
1130.0	0.0003378	54.9370000362
1130.0	0.0003393	54.9689998627
1130.0	0.0003393	55.0160000324
1130.0	0.000338	55.0469999313
1130.0	0.0003378	55.0939998627
1130.0	0.000338	55.1410000324
1130.0	0.0003383	55.1719999313
1130.0	0.000338	55.2189998627
1130.0	0.000338	55.2660000324
1130.0	0.0003378	55.2969999313
1130.0	0.000339	55.3439998627
1130.0	0.0003393	55.3910000324
1130.0	0.0003388	55.4219999313
1130.0	0.0003383	55.4689998627
1130.0	0.0003388	55.5
1130.0	0.0003393	55.5469999313
1130.0	0.0003395	55.5939998627
1130.0	0.0003388	55.625
1130.0	0.0003383	55.6719999313
1130.0	0.000338	55.7189998627
1130.0	0.0003393	55.75
1130.0	0.00034	55.7969999313
1130.0	0.0003393	55.8280000687
1130.0	0.0003383	55.875
1130.0	0.000339	55.9219999313
1130.0	0.000339	55.9530000687
1130.0	0.0003388	56.0
1130.0	0.0003383	56.0469999313
1140.0	0.000345	56.3120000362
1140.0	0.0003483	56.3439998627
1140.0	0.000349	56.3910000324
1140.0	0.0003508	56.4370000362
1140.0	0.0003518	56.4689998627
1140.0	0.0003543	56.5160000324
1140.0	0.0003555	56.5469999313
1140.0	0.0003545	56.5939998627
1140.0	0.0003545	56.6410000324
1140.0	0.000355	56.6719999313
1140.0	0.0003563	56.7189998627
1140.0	0.0003568	56.7660000324
1140.0	0.0003555	56.7969999313
1140.0	0.0003555	56.8439998627
1140.0	0.000357	56.875
1140.0	0.0003575	56.9219999313
1140.0	0.0003563	56.9689998627
1140.0	0.0003558	57.0
1140.0	0.0003555	57.0469999313
1140.0	0.0003568	57.0939998627
1140.0	0.0003578	57.125
1140.0	0.0003565	57.1719999313
1140.0	0.0003565	57.2189998627
1140.0	0.0003575	57.25
1140.0	0.0003568	57.2969999313
1140.0	0.000357	57.3280000687
1140.0	0.0003553	57.375
1140.0	0.000355	57.4219999313
1140.0	0.0003565	57.4530000687
1140.0	0.0003568	57.5
1140.0	0.0003558	57.5469999313
1140.0	0.0003558	57.5780000687
1140.0	0.0003558	57.625
1140.0	0.0003565	57.6559998989
1140.0	0.0003565	57.7030000687
1140.0	0.0003545	57.75
1140.0	0.0003545	57.7809998989
1150.0	0.0003588	58.0469999313
1150.0	0.0003608	58.0939998627
1150.0	0.0003625	58.1410000324
1150.0	0.000364	58.1719999313
1150.0	0.0003655	58.2189998627
1150.0	0.0003675	58.2660000324
1150.0	0.0003665	58.2969999313
1150.0	0.0003668	58.3439998627
1150.0	0.0003668	58.375
1150.0	0.0003683	58.4219999313
1150.0	0.0003693	58.4689998627
1150.0	0.0003683	58.5
1150.0	0.0003683	58.5469999313
1150.0	0.0003683	58.5939998627
1150.0	0.00037	58.625
1150.0	0.000369	58.6719999313
1150.0	0.0003683	58.7030000687
1150.0	0.000368	58.75
1150.0	0.0003693	58.7969999313
1150.0	0.0003695	58.8280000687
1150.0	0.0003695	58.875
1150.0	0.000369	58.9219999313
1150.0	0.0003688	58.9530000687
1150.0	0.0003703	59.0
1150.0	0.0003705	59.0309998989
1150.0	0.0003693	59.0780000687
1150.0	0.0003695	59.125
1150.0	0.0003705	59.1559998989
1150.0	0.0003705	59.2030000687
1150.0	0.0003713	59.25
1150.0	0.00037	59.2809998989
1150.0	0.0003695	59.3280000687
1150.0	0.0003705	59.375
1150.0	0.0003708	59.4059998989
1150.0	0.0003695	59.4530000687
1150.0	0.0003695	59.4839999676
1150.0	0.00037	59.5309998989
1160.0	0.0003753	59.7969999313
1160.0	0.000377	59.8439998627
1160.0	0.000379	59.875
1160.0	0.0003808	59.9219999313
1160.0	0.0003838	59.9689998627
1160.0	0.0003845	60.0
1160.0	0.000384	60.0469999313
1160.0	0.000384	60.0780000687
1160.0	0.0003833	60.125
1160.0	0.0003853	60.1719999313
1160.0	0.0003853	60.2030000687
1160.0	0.0003843	60.25
1160.0	0.000383	60.2969999313
1160.0	0.0003843	60.3280000687
1160.0	0.0003855	60.375
1160.0	0.0003843	60.4219999313
1160.0	0.0003843	60.4530000687
1160.0	0.000384	60.5
1160.0	0.0003853	60.5309998989
1160.0	0.0003855	60.5780000687
1160.0	0.000385	60.625
1160.0	0.0003843	60.6559998989
1160.0	0.0003853	60.7030000687
1160.0	0.0003855	60.75
1160.0	0.0003855	60.7809998989
1160.0	0.0003843	60.8280000687
1160.0	0.000384	60.8589999676
1160.0	0.0003855	60.9059998989
1160.0	0.0003858	60.9530000687
1160.0	0.0003845	60.9839999676
1160.0	0.0003838	61.0309998989
1160.0	0.0003843	61.0780000687
1160.0	0.000383	61.125
1160.0	0.0003828	61.1559998989
1160.0	0.0003825	61.2030000687
1160.0	0.0003815	61.25
1170.0	0.0003888	61.5160000324
1170.0	0.00039	61.5620000362
1170.0	0.000393	61.6089999676
1170.0	0.000395	61.6410000324
1170.0	0.0003955	61.6870000362
1170.0	0.0003953	61.7189998627
1170.0	0.0003955	61.7660000324
1170.0	0.0003963	61.8120000362
1170.0	0.0003978	61.8439998627
1170.0	0.0003965	61.8910000324
1170.0	0.0003963	61.9219999313
1170.0	0.0003958	61.9689998627
1170.0	0.0003968	62.0160000324
1170.0	0.0003968	62.0469999313
1170.0	0.0003958	62.0939998627
1170.0	0.0003963	62.1410000324
1170.0	0.0003965	62.1719999313
1170.0	0.000398	62.2189998627
1170.0	0.0003983	62.2660000324
1170.0	0.0003975	62.2969999313
1170.0	0.000397	62.3439998627
1170.0	0.000397	62.375
1170.0	0.000399	62.4219999313
1170.0	0.0003988	62.4689998627
1170.0	0.0003978	62.5
1170.0	0.000398	62.5469999313
1170.0	0.0003995	62.5939998627
1170.0	0.0003988	62.625
1170.0	0.0003978	62.6719999313
1170.0	0.0003978	62.7030000687
1170.0	0.0003983	62.75
1170.0	0.0003993	62.7969999313
1170.0	0.0003988	62.8280000687
1170.0	0.0003975	62.875
1170.0	0.000397	62.9219999313
1170.0	0.0003975	62.9530000687
1170.0	0.000399	63.0
1180.0	0.000402	63.2660000324
1180.0	0.000405	63.3120000362
1180.0	0.0004065	63.3439998627
1180.0	0.0004078	63.3910000324
1180.0	0.0004105	63.4370000362
1180.0	0.0004103	63.4689998627
1180.0	0.0004103	63.5160000324
1180.0	0.0004105	63.5620000362
1180.0	0.0004118	63.5939998627
1180.0	0.0004115	63.6410000324
1180.0	0.0004113	63.6719999313
1180.0	0.0004113	63.7189998627
1180.0	0.0004113	63.7660000324
1180.0	0.0004128	63.7969999313
1180.0	0.0004118	63.8439998627
1180.0	0.000412	63.8910000324
1180.0	0.0004118	63.9219999313
1180.0	0.000413	63.9689998627
1180.0	0.000412	64.0160000324
1180.0	0.0004118	64.0469999313
1180.0	0.0004108	64.0939998627
1180.0	0.0004108	64.1410000324
1180.0	0.0004105	64.1719999313
1180.0	0.0004118	64.2189998627
1180.0	0.000412	64.2660000324
1180.0	0.0004105	64.2969999313
1180.0	0.0004108	64.3439998627
1180.0	0.0004118	64.375
1180.0	0.0004128	64.4219999313
1180.0	0.0004113	64.4689998627
1180.0	0.0004108	64.5
1180.0	0.0004108	64.5469999313
1180.0	0.000412	64.5939998627
1180.0	0.000412	64.625
1180.0	0.0004108	64.6719999313
1180.0	0.0004108	64.7030000687
1190.0	0.0004145	64.9839999676
1190.0	0.0004175	65.0160000324
1190.0	0.0004178	65.0620000362
1190.0	0.000419	65.1089999676
1190.0	0.0004193	65.1410000324
1190.0	0.00042	65.1870000362
1190.0	0.000422	65.2339999676
1190.0	0.0004208	65.2660000324
1190.0	0.0004213	65.3120000362
1190.0	0.000422	65.3439998627
1190.0	0.000423	65.3910000324
1190.0	0.0004238	65.4370000362
1190.0	0.0004228	65.4689998627
1190.0	0.0004228	65.5160000324
1190.0	0.0004228	65.5620000362
1190.0	0.0004245	65.5939998627
1190.0	0.0004233	65.6410000324
1190.0	0.000423	65.6870000362
1190.0	0.000423	65.7189998627
1190.0	0.0004243	65.7660000324
1190.0	0.0004245	65.7969999313
1190.0	0.0004233	65.8439998627
1190.0	0.000423	65.8910000324
1190.0	0.000423	65.9219999313
1190.0	0.000425	65.9689998627
1190.0	0.0004245	66.0160000324
1190.0	0.0004238	66.0469999313
1190.0	0.0004238	66.0939998627
1190.0	0.000424	66.125
1190.0	0.000425	66.1719999313
1190.0	0.000425	66.2189998627
1190.0	0.000424	66.25
1190.0	0.0004238	66.2969999313
1190.0	0.0004245	66.3439998627
1190.0	0.0004255	66.375
1190.0	0.000424	66.4219999313
1190.0	0.000424	66.4530000687
1200.0	0.00043	66.7339999676
1200.0	0.0004313	66.7660000324
1200.0	0.0004328	66.8120000362
1200.0	0.0004328	66.8589999676
1200.0	0.0004333	66.8910000324
1200.0	0.000434	66.9370000362
1200.0	0.0004355	66.9839999676
1200.0	0.0004363	67.0160000324
1200.0	0.0004345	67.0620000362
1200.0	0.0004353	67.0939998627
1200.0	0.0004355	67.1410000324
1200.0	0.0004378	67.1870000362
1200.0	0.0004375	67.2189998627
1200.0	0.0004375	67.2660000324
1200.0	0.0004368	67.3120000362
1200.0	0.0004383	67.3439998627
1200.0	0.0004375	67.3910000324
1200.0	0.0004388	67.4370000362
1200.0	0.0004375	67.4689998627
1200.0	0.0004368	67.5160000324
1200.0	0.000437	67.5620000362
1200.0	0.0004388	67.5939998627
1200.0	0.0004375	67.6410000324
1200.0	0.0004375	67.6870000362
1200.0	0.0004375	67.7189998627
1200.0	0.0004388	67.7660000324
1200.0	0.0004393	67.7969999313
1200.0	0.0004375	67.8439998627
1200.0	0.0004375	67.8910000324
1200.0	0.0004368	67.9219999313
1200.0	0.000438	67.9689998627
1200.0	0.0004378	68.0160000324
1200.0	0.0004368	68.0469999313
1200.0	0.0004368	68.0939998627
1200.0	0.0004368	68.1410000324
1200.0	0.0004368	68.1719999313
1200.0	0.0004383	68.2189998627
1210.0	0.0004413	68.4839999676
1210.0	0.0004418	68.5309998989
1210.0	0.000443	68.5780000687
1210.0	0.000445	68.6089999676
1210.0	0.0004463	68.6559998989
1210.0	0.000445	68.6870000362
1210.0	0.0004453	68.7339999676
1210.0	0.0004453	68.7809998989
1210.0	0.0004478	68.8120000362
1210.0	0.000448	68.8589999676
1210.0	0.0004468	68.9059998989
1210.0	0.0004468	68.9370000362
1210.0	0.000447	68.9839999676
1210.0	0.0004488	69.0160000324
1210.0	0.0004478	69.0620000362
1210.0	0.0004478	69.1089999676
1210.0	0.0004478	69.1410000324
1210.0	0.000449	69.1870000362
1210.0	0.0004488	69.2339999676
1210.0	0.0004475	69.2660000324
1210.0	0.0004475	69.3120000362
1210.0	0.0004468	69.3589999676
1210.0	0.0004488	69.3910000324
1210.0	0.0004475	69.4370000362
1210.0	0.0004475	69.4689998627
1210.0	0.0004468	69.5160000324
1210.0	0.0004488	69.5620000362
1210.0	0.000449	69.5939998627
1210.0	0.000448	69.6410000324
1210.0	0.000448	69.6870000362
1210.0	0.0004488	69.7189998627
1210.0	0.000449	69.7660000324
1210.0	0.000449	69.7969999313
1210.0	0.000448	69.8439998627
1210.0	0.0004475	69.8910000324
1210.0	0.0004475	69.9219999313
1210.0	0.000449	69.9689998627
1220.0	0.000453	70.2339999676
1220.0	0.000454	70.2809998989
1220.0	0.000454	70.3280000687
1220.0	0.0004543	70.3589999676
1220.0	0.0004565	70.4059998989
1220.0	0.0004563	70.4370000362
1220.0	0.0004565	70.4839999676
1220.0	0.0004575	70.5309998989
1220.0	0.0004593	70.5620000362
1220.0	0.0004593	70.6089999676
1220.0	0.000458	70.6559998989
1220.0	0.000458	70.6870000362
1220.0	0.0004593	70.7339999676
1220.0	0.00046	70.7660000324
1220.0	0.0004588	70.8120000362
1220.0	0.0004588	70.8589999676
1220.0	0.000459	70.8910000324
1220.0	0.0004608	70.9370000362
1220.0	0.0004613	70.9839999676
1220.0	0.0004613	71.0160000324
1220.0	0.0004588	71.0620000362
1220.0	0.0004583	71.0939998627
1220.0	0.0004605	71.1410000324
1220.0	0.00046	71.1870000362
1220.0	0.0004595	71.2189998627
1220.0	0.0004603	71.2660000324
1220.0	0.00046	71.3120000362
1220.0	0.0004615	71.3589999676
1220.0	0.0004618	71.3910000324
1220.0	0.0004603	71.4370000362
1220.0	0.0004603	71.4689998627
1220.0	0.0004603	71.5160000324
1220.0	0.0004615	71.5620000362
1220.0	0.0004613	71.5939998627
1220.0	0.00046	71.6410000324
1220.0	0.00046	71.6870000362
1230.0	0.0004638	71.9530000687
1230.0	0.0004665	71.9839999676
1230.0	0.0004668	72.0309998989
1230.0	0.0004678	72.0780000687
1230.0	0.0004708	72.1089999676
1230.0	0.0004713	72.1559998989
1230.0	0.0004718	72.2030000687
1230.0	0.0004705	72.2339999676
1230.0	0.0004708	72.2809998989
1230.0	0.0004713	72.3280000687
1230.0	0.0004728	72.3589999676
1230.0	0.0004738	72.4059998989
1230.0	0.000472	72.4370000362
1230.0	0.000472	72.4839999676
1230.0	0.0004728	72.5309998989
1230.0	0.0004743	72.5620000362
1230.0	0.0004738	72.6089999676
1230.0	0.0004725	72.6559998989
1230.0	0.000472	72.6870000362
1230.0	0.0004733	72.7339999676
1230.0	0.000474	72.7660000324
1230.0	0.0004718	72.8120000362
1230.0	0.0004718	72.8589999676
1230.0	0.0004713	72.8910000324
1230.0	0.000473	72.9370000362
1230.0	0.000473	72.9839999676
1230.0	0.0004715	73.0160000324
1230.0	0.0004715	73.0620000362
1230.0	0.0004715	73.0939998627
1230.0	0.0004738	73.1410000324
1230.0	0.0004738	73.1870000362
1230.0	0.0004725	73.2189998627
1230.0	0.0004725	73.2660000324
1230.0	0.0004738	73.3120000362
1230.0	0.0004738	73.3439998627
1230.0	0.0004715	73.3910000324
1230.0	0.0004715	73.4370000362
1240.0	0.000475	73.7030000687
1240.0	0.000477	73.75
1240.0	0.0004788	73.7809998989
1240.0	0.0004775	73.8280000687
1240.0	0.0004783	73.8589999676
1240.0	0.000479	73.9059998989
1240.0	0.0004803	73.9530000687
1240.0	0.0004808	74.0
1240.0	0.00048	74.0309998989
1240.0	0.00048	74.0780000687
1240.0	0.00048	74.1089999676
1240.0	0.00048	74.1559998989
1240.0	0.0004815	74.2030000687
1240.0	0.0004803	74.2339999676
1240.0	0.0004805	74.2809998989
1240.0	0.0004808	74.3280000687
1240.0	0.000482	74.3589999676
1240.0	0.0004818	74.4059998989
1240.0	0.00048	74.4370000362
1240.0	0.00048	74.4839999676
1240.0	0.0004793	74.5309998989
1240.0	0.0004813	74.5620000362
1240.0	0.00048	74.6089999676
1240.0	0.0004803	74.6559998989
1240.0	0.0004805	74.6870000362
1240.0	0.000482	74.7339999676
1240.0	0.0004825	74.7660000324
1240.0	0.0004808	74.8120000362
1240.0	0.0004805	74.8589999676
1240.0	0.00048	74.8910000324
1240.0	0.000482	74.9370000362
1240.0	0.0004813	74.9839999676
1240.0	0.00048	75.0160000324
1240.0	0.00048	75.0620000362
1240.0	0.0004813	75.1089999676
1240.0	0.0004813	75.1410000324
1240.0	0.00048	75.1870000362
1250.0	0.000483	75.4530000687
1250.0	0.0004855	75.5
1250.0	0.000485	75.5309998989
1250.0	0.0004875	75.5780000687
1250.0	0.0004868	75.625
1250.0	0.0004875	75.6559998989
1250.0	0.0004888	75.7030000687
1250.0	0.00049	75.75
1250.0	0.0004888	75.7809998989
1250.0	0.0004888	75.8280000687
1250.0	0.0004893	75.8589999676
1250.0	0.0004913	75.9059998989
1250.0	0.0004918	75.9530000687
1250.0	0.000492	75.9839999676
1250.0	0.0004905	76.0309998989
1250.0	0.0004895	76.0780000687
1250.0	0.0004913	76.1089999676
1250.0	0.0004915	76.1559998989
1250.0	0.0004895	76.1870000362
1250.0	0.0004893	76.2339999676
1250.0	0.000489	76.2809998989
1250.0	0.0004908	76.3120000362
1250.0	0.00049	76.3589999676
1250.0	0.00049	76.4059998989
1250.0	0.0004895	76.4370000362
1250.0	0.0004908	76.4839999676
1250.0	0.0004918	76.5160000324
1250.0	0.0004918	76.5620000362
1250.0	0.00049	76.6089999676
1250.0	0.00049	76.6410000324
1250.0	0.0004915	76.6870000362
1250.0	0.0004925	76.7339999676
1250.0	0.0004913	76.7660000324
1250.0	0.0004908	76.8120000362
1250.0	0.0004905	76.8439998627
1250.0	0.0004925	76.8910000324
1250.0	0.0004925	76.9370000362
1260.0	0.000494	77.2030000687
1260.0	0.0004938	77.25
1260.0	0.0004958	77.2809998989
1260.0	0.0004955	77.3280000687
1260.0	0.0004963	77.3589999676
1260.0	0.000497	77.4059998989
1260.0	0.000498	77.4530000687
1260.0	0.0004983	77.4839999676
1260.0	0.0004978	77.5309998989
1260.0	0.0004978	77.5780000687
1260.0	0.0004983	77.6089999676
1260.0	0.0005	77.6559998989
1260.0	0.0005003	77.6870000362
1260.0	0.000499	77.7339999676
1260.0	0.000499	77.7809998989
1260.0	0.000499	77.8120000362
1260.0	0.0005005	77.8589999676
1260.0	0.0005008	77.8910000324
1260.0	0.0004993	77.9370000362
1260.0	0.000499	77.9839999676
1260.0	0.0005005	78.0160000324
1260.0	0.0005005	78.0620000362
1260.0	0.000499	78.1089999676
1260.0	0.0004993	78.1410000324
1260.0	0.0004993	78.1870000362
1260.0	0.0005013	78.2339999676
1260.0	0.0005013	78.2660000324
1260.0	0.0005008	78.3120000362
1260.0	0.0005008	78.3439998627
1260.0	0.0005015	78.3910000324
1260.0	0.000502	78.4370000362
1260.0	0.0005018	78.4689998627
1260.0	0.0005003	78.5160000324
1260.0	0.0005005	78.5620000362
1260.0	0.0005018	78.5939998627
1260.0	0.0005018	78.6410000324
1260.0	0.0005003	78.6719999313
1270.0	0.000503	78.9530000687
1270.0	0.0005063	78.9839999676
1270.0	0.000507	79.0309998989
1270.0	0.0005065	79.0620000362
1270.0	0.0005068	79.1089999676
1270.0	0.000507	79.1559998989
1270.0	0.00051	79.1870000362
1270.0	0.00051	79.2339999676
1270.0	0.0005083	79.2809998989
1270.0	0.0005078	79.3120000362
1270.0	0.0005103	79.3589999676
1270.0	0.0005103	79.3910000324
1270.0	0.000509	79.4370000362
1270.0	0.000509	79.4839999676
1270.0	0.0005093	79.5160000324
1270.0	0.0005113	79.5620000362
1270.0	0.00051	79.6089999676
1270.0	0.0005093	79.6410000324
1270.0	0.0005095	79.6870000362
1270.0	0.0005103	79.7189998627
1270.0	0.000512	79.7660000324
1270.0	0.0005115	79.8120000362
1270.0	0.0005095	79.8439998627
1270.0	0.000509	79.8910000324
1270.0	0.0005108	79.9370000362
1270.0	0.0005103	79.9689998627
1270.0	0.0005113	80.0160000324
1270.0	0.0005095	80.0620000362
1270.0	0.0005093	80.0939998627
1270.0	0.000512	80.1410000324
1270.0	0.0005118	80.1719999313
1270.0	0.0005108	80.2189998627
1270.0	0.0005108	80.2660000324
1270.0	0.0005105	80.3120000362
1270.0	0.0005108	80.3439998627
1270.0	0.000512	80.3910000324
1270.0	0.0005125	80.4219999313
1280.0	0.000512	80.7030000687
1280.0	0.0005138	80.7339999676
1280.0	0.0005163	80.7809998989
1280.0	0.000515	80.8120000362
1280.0	0.0005153	80.8589999676
1280.0	0.0005155	80.9059998989
1280.0	0.0005178	80.9370000362
1280.0	0.0005178	80.9839999676
1280.0	0.0005165	81.0309998989
1280.0	0.0005165	81.0620000362
1280.0	0.0005163	81.1089999676
1280.0	0.0005188	81.1410000324
1280.0	0.000517	81.1870000362
1280.0	0.0005168	81.2339999676
1280.0	0.000517	81.2660000324
1280.0	0.000519	81.3120000362
1280.0	0.0005188	81.3589999676
1280.0	0.0005188	81.3910000324
1280.0	0.0005168	81.4370000362
1280.0	0.0005168	81.4839999676
1280.0	0.0005165	81.5160000324
1280.0	0.0005188	81.5620000362
1280.0	0.0005183	81.6089999676
1280.0	0.000517	81.6410000324
1280.0	0.0005165	81.6870000362
1280.0	0.000518	81.7189998627
1280.0	0.000519	81.7660000324
1280.0	0.000517	81.8120000362
1280.0	0.0005168	81.8439998627
1280.0	0.0005163	81.8910000324
1280.0	0.0005165	81.9370000362
1280.0	0.0005175	81.9689998627
1280.0	0.000517	82.0160000324
1280.0	0.0005168	82.0620000362
1280.0	0.0005168	82.0939998627
1280.0	0.000518	82.1410000324
1280.0	0.000518	82.1719999313
1290.0	0.0005178	82.4530000687
1290.0	0.0005188	82.4839999676
1290.0	0.0005205	82.5309998989
1290.0	0.00052	82.5620000362
1290.0	0.0005193	82.6089999676
1290.0	0.000519	82.6559998989
1290.0	0.0005193	82.6870000362
1290.0	0.0005213	82.7339999676
1290.0	0.0005205	82.7809998989
1290.0	0.0005213	82.8120000362
1290.0	0.0005205	82.8589999676
1290.0	0.0005228	82.8910000324
1290.0	0.000523	82.9370000362
1290.0	0.0005208	82.9839999676
1290.0	0.0005205	83.0160000324
1290.0	0.0005213	83.0620000362
1290.0	0.0005225	83.1089999676
1290.0	0.0005228	83.1410000324
1290.0	0.0005213	83.1870000362
1290.0	0.0005208	83.2189998627
1290.0	0.0005228	83.2660000324
1290.0	0.000523	83.3120000362
1290.0	0.0005218	83.3439998627
1290.0	0.0005215	83.3910000324
1290.0	0.0005205	83.4370000362
1290.0	0.000523	83.4689998627
1290.0	0.0005228	83.5160000324
1290.0	0.0005213	83.5469999313
1290.0	0.0005213	83.5939998627
1290.0	0.0005213	83.6410000324
1290.0	0.0005225	83.6719999313
1290.0	0.0005215	83.7189998627
1290.0	0.0005203	83.7660000324
1290.0	0.00052	83.7969999313
1290.0	0.0005195	83.8439998627
1290.0	0.0005213	83.8910000324
1290.0	0.00052	83.9219999313
1300.0	0.0005233	84.1870000362
1300.0	0.000523	84.2339999676
1300.0	0.0005225	84.2660000324
1300.0	0.0005213	84.3120000362
1300.0	0.0005213	84.3589999676
1300.0	0.000522	84.3910000324
1300.0	0.000524	84.4370000362
1300.0	0.0005225	84.4839999676
1300.0	0.0005225	84.5160000324
1300.0	0.0005218	84.5620000362
1300.0	0.0005243	84.5939998627
1300.0	0.0005243	84.6410000324
1300.0	0.0005228	84.6870000362
1300.0	0.0005225	84.7339999676
1300.0	0.0005228	84.7660000324
1300.0	0.000522	84.8120000362
1300.0	0.0005245	84.8589999676
1300.0	0.0005245	84.8910000324
1300.0	0.0005228	84.9370000362
1300.0	0.0005228	84.9689998627
1300.0	0.0005243	85.0160000324
1300.0	0.0005253	85.0620000362
1300.0	0.0005238	85.0939998627
1300.0	0.0005233	85.1410000324
1300.0	0.0005238	85.1870000362
1300.0	0.0005255	85.2189998627
1300.0	0.0005253	85.2660000324
1300.0	0.0005238	85.2969999313
1300.0	0.0005233	85.3439998627
1300.0	0.0005233	85.3910000324
1300.0	0.0005243	85.4219999313
1300.0	0.0005243	85.4689998627
1300.0	0.000523	85.5160000324
1300.0	0.0005225	85.5469999313
1300.0	0.0005245	85.5939998627
1300.0	0.000525	85.625
1310.0	0.000523	85.9059998989
1310.0	0.0005228	85.9370000362
1310.0	0.0005228	85.9839999676
1310.0	0.0005245	86.0309998989
1310.0	0.0005245	86.0620000362
1310.0	0.0005238	86.1089999676
1310.0	0.0005238	86.1559998989
1310.0	0.000523	86.1870000362
1310.0	0.0005255	86.2339999676
1310.0	0.0005253	86.2660000324
1310.0	0.0005243	86.3120000362
1310.0	0.0005245	86.3589999676
1310.0	0.0005245	86.3910000324
1310.0	0.0005265	86.4370000362
1310.0	0.0005245	86.4839999676
1310.0	0.0005245	86.5160000324
1310.0	0.0005245	86.5620000362
1310.0	0.0005263	86.6089999676
1310.0	0.0005263	86.6410000324
1310.0	0.000525	86.6870000362
1310.0	0.000525	86.7189998627
1310.0	0.0005243	86.7660000324
1310.0	0.0005268	86.8120000362
1310.0	0.0005265	86.8439998627
1310.0	0.000525	86.8910000324
1310.0	0.0005245	86.9370000362
1310.0	0.0005243	86.9689998627
1310.0	0.0005265	87.0160000324
1310.0	0.000525	87.0469999313
1310.0	0.0005245	87.0939998627
1310.0	0.0005243	87.1410000324
1310.0	0.0005268	87.1719999313
1310.0	0.0005275	87.2189998627
1310.0	0.0005255	87.2660000324
1310.0	0.0005255	87.2969999313
1310.0	0.000525	87.3439998627
1310.0	0.0005268	87.375
1320.0	0.0005245	87.6559998989
1320.0	0.0005228	87.6870000362
1320.0	0.0005225	87.7339999676
1320.0	0.000523	87.7809998989
1320.0	0.000524	87.8120000362
1320.0	0.000522	87.8589999676
1320.0	0.000522	87.9059998989
1320.0	0.000522	87.9370000362
1320.0	0.0005225	87.9839999676
1320.0	0.0005243	88.0160000324
1320.0	0.0005225	88.0620000362
1320.0	0.0005218	88.1089999676
1320.0	0.0005243	88.1559998989
1320.0	0.0005225	88.1870000362
1320.0	0.0005243	88.2339999676
1320.0	0.0005238	88.2660000324
1320.0	0.0005233	88.3120000362
1320.0	0.000523	88.3589999676
1320.0	0.0005238	88.3910000324
1320.0	0.0005255	88.4370000362
1320.0	0.0005238	88.4839999676
1320.0	0.0005245	88.5309998989
1320.0	0.0005238	88.5620000362
1320.0	0.0005238	88.6089999676
1320.0	0.000525	88.6410000324
1320.0	0.0005253	88.6870000362
1320.0	0.0005238	88.7339999676
1320.0	0.0005233	88.7660000324
1320.0	0.000524	88.8120000362
1320.0	0.000525	88.8589999676
1320.0	0.0005233	88.8910000324
1320.0	0.0005228	88.9370000362
1320.0	0.0005233	88.9839999676
1320.0	0.0005238	89.0160000324
1320.0	0.000525	89.0620000362
1320.0	0.000525	89.1089999676
1330.0	0.000522	89.375
1330.0	0.0005195	89.4219999313
1330.0	0.0005195	89.4530000687
1330.0	0.00052	89.5
1330.0	0.000518	89.5309998989
1330.0	0.0005175	89.5780000687
1330.0	0.000517	89.625
1330.0	0.0005183	89.6559998989
1330.0	0.000518	89.7030000687
1330.0	0.0005178	89.75
1330.0	0.0005163	89.7809998989
1330.0	0.0005155	89.8280000687
1330.0	0.000517	89.875
1330.0	0.000517	89.9059998989
1330.0	0.0005155	89.9530000687
1330.0	0.0005155	89.9839999676
1330.0	0.0005155	90.0309998989
1330.0	0.000517	90.0780000687
1330.0	0.0005158	90.1089999676
1330.0	0.000515	90.1559998989
1330.0	0.0005143	90.1870000362
1330.0	0.0005138	90.2339999676
1330.0	0.0005158	90.2809998989
1330.0	0.000515	90.3120000362
1330.0	0.000515	90.3589999676
1330.0	0.0005158	90.4059998989
1330.0	0.0005168	90.4370000362
1330.0	0.0005163	90.4839999676
1330.0	0.0005143	90.5309998989
1330.0	0.0005145	90.5620000362
1330.0	0.0005145	90.6089999676
1330.0	0.0005158	90.6410000324
1330.0	0.000515	90.6870000362
1330.0	0.000515	90.7339999676
1330.0	0.0005145	90.7660000324
1330.0	0.0005165	90.8120000362
1330.0	0.0005168	90.8589999676
1340.0	0.0005105	91.125
1340.0	0.0005083	91.1719999313
1340.0	0.0005068	91.2030000687
1340.0	0.0005075	91.25
1340.0	0.0005063	91.2809998989
1340.0	0.0005038	91.3280000687
1340.0	0.0005033	91.375
1340.0	0.0005045	91.4059998989
1340.0	0.0005045	91.4530000687
1340.0	0.000503	91.5
1340.0	0.000503	91.5469999313
1340.0	0.0005033	91.5780000687
1340.0	0.0005033	91.625
1340.0	0.0005033	91.6559998989
1340.0	0.0005045	91.7030000687
1340.0	0.0005028	91.75
1340.0	0.0005028	91.7809998989
1340.0	0.0005045	91.8280000687
1340.0	0.0005043	91.875
1340.0	0.000505	91.9059998989
1340.0	0.0005033	91.9530000687
1340.0	0.0005038	91.9839999676
1340.0	0.0005033	92.0309998989
1340.0	0.0005053	92.0780000687
1340.0	0.0005033	92.1089999676
1340.0	0.0005033	92.1559998989
1340.0	0.0005033	92.2030000687
1340.0	0.000504	92.2339999676
1340.0	0.000504	92.2809998989
1340.0	0.0005025	92.3120000362
1340.0	0.0005025	92.3589999676
1340.0	0.0005028	92.4059998989
1340.0	0.0005043	92.4370000362
1340.0	0.0005043	92.4839999676
1340.0	0.000503	92.5309998989
1340.0	0.000503	92.5620000362
1340.0	0.0005045	92.6089999676
1350.0	0.0004975	92.875
1350.0	0.0004945	92.9219999313
1350.0	0.000494	92.9530000687
1350.0	0.000493	93.0
1350.0	0.0004933	93.0469999313
1350.0	0.0004925	93.0780000687
1350.0	0.0004905	93.125
1350.0	0.0004903	93.1719999313
1350.0	0.0004895	93.2030000687
1350.0	0.0004918	93.25
1350.0	0.0004903	93.2809998989
1350.0	0.00049	93.3280000687
1350.0	0.0004895	93.375
1350.0	0.00049	93.4059998989
1350.0	0.0004903	93.4530000687
1350.0	0.0004913	93.5
1350.0	0.0004893	93.5309998989
1350.0	0.0004895	93.5780000687
1350.0	0.0004905	93.625
1350.0	0.0004903	93.6559998989
1350.0	0.000489	93.7030000687
1350.0	0.0004893	93.7339999676
1350.0	0.0004893	93.7809998989
1350.0	0.0004913	93.8280000687
1350.0	0.0004905	93.8589999676
1350.0	0.00049	93.9059998989
1350.0	0.00049	93.9530000687
1350.0	0.0004918	93.9839999676
1350.0	0.0004913	94.0309998989
1350.0	0.0004905	94.0620000362
1350.0	0.0004893	94.1089999676
1350.0	0.00049	94.1559998989
1350.0	0.0004915	94.2030000687
1350.0	0.0004918	94.2339999676
1350.0	0.0004913	94.2809998989
1350.0	0.0004903	94.3120000362
1350.0	0.0004903	94.3589999676
1360.0	0.0004845	94.625
1360.0	0.0004838	94.6719999313
1360.0	0.0004808	94.7030000687
1360.0	0.0004795	94.75
1360.0	0.0004788	94.7969999313
1360.0	0.0004788	94.8280000687
1360.0	0.0004788	94.875
1360.0	0.0004763	94.9219999313
1360.0	0.0004755	94.9530000687
1360.0	0.0004755	95.0
1360.0	0.000477	95.0309998989
1360.0	0.0004755	95.0780000687
1360.0	0.0004755	95.125
1360.0	0.0004753	95.1559998989
1360.0	0.000477	95.2030000687
1360.0	0.0004755	95.25
1360.0	0.0004758	95.2809998989
1360.0	0.0004753	95.3280000687
1360.0	0.0004775	95.3589999676
1360.0	0.000477	95.4059998989
1360.0	0.0004775	95.4530000687
1360.0	0.0004758	95.4839999676
1360.0	0.000477	95.5309998989
1360.0	0.0004783	95.5780000687
1360.0	0.0004775	95.6089999676
1360.0	0.0004765	95.6559998989
1360.0	0.0004758	95.6870000362
1360.0	0.0004768	95.7339999676
1360.0	0.0004768	95.7809998989
1360.0	0.000477	95.8120000362
1360.0	0.0004755	95.8589999676
1360.0	0.0004763	95.9059998989
1360.0	0.0004778	95.9370000362
1360.0	0.0004775	95.9839999676
1360.0	0.0004758	96.0309998989
1360.0	0.0004755	96.0620000362
1360.0	0.0004758	96.1089999676
1370.0	0.0004693	96.375
1370.0	0.0004678	96.4219999313
1370.0	0.0004655	96.4530000687
1370.0	0.0004653	96.5
1370.0	0.000462	96.5469999313
1370.0	0.0004625	96.5780000687
1370.0	0.0004613	96.625
1370.0	0.000459	96.6719999313
1370.0	0.000458	96.7030000687
1370.0	0.0004578	96.75
1370.0	0.0004595	96.7809998989
1370.0	0.000458	96.8280000687
1370.0	0.0004583	96.875
1370.0	0.0004595	96.9059998989
1370.0	0.0004605	96.9530000687
1370.0	0.0004613	97.0
1370.0	0.0004593	97.0309998989
1370.0	0.0004593	97.0780000687
1370.0	0.0004595	97.1089999676
1370.0	0.0004603	97.1559998989
1370.0	0.0004583	97.2030000687
1370.0	0.0004583	97.2339999676
1370.0	0.0004588	97.2809998989
1370.0	0.000459	97.3280000687
1370.0	0.000459	97.3589999676
1370.0	0.0004575	97.4059998989
1370.0	0.0004575	97.4530000687
1370.0	0.0004575	97.4839999676
1370.0	0.0004593	97.5309998989
1370.0	0.000459	97.5620000362
1370.0	0.0004575	97.6089999676
1370.0	0.000457	97.6559998989
1370.0	0.000457	97.6870000362
1370.0	0.000459	97.7339999676
1370.0	0.0004593	97.7660000324
1370.0	0.000458	97.8120000362
1370.0	0.000459	97.8589999676
1380.0	0.0004513	98.125
1380.0	0.000449	98.1559998989
1380.0	0.0004475	98.2030000687
1380.0	0.0004463	98.25
1380.0	0.0004453	98.2809998989
1380.0	0.0004445	98.3280000687
1380.0	0.0004433	98.375
1380.0	0.0004425	98.4059998989
1380.0	0.0004428	98.4530000687
1380.0	0.000444	98.5
1380.0	0.0004425	98.5309998989
1380.0	0.0004428	98.5780000687
1380.0	0.0004428	98.625
1380.0	0.0004425	98.6559998989
1380.0	0.0004428	98.7030000687
1380.0	0.0004438	98.75
1380.0	0.0004418	98.7809998989
1380.0	0.0004415	98.8280000687
1380.0	0.0004428	98.8589999676
1380.0	0.0004438	98.9059998989
1380.0	0.0004428	98.9530000687
1380.0	0.0004425	98.9839999676
1380.0	0.0004418	99.0309998989
1380.0	0.0004413	99.0780000687
1380.0	0.000443	99.1089999676
1380.0	0.0004413	99.1559998989
1380.0	0.0004415	99.1870000362
1380.0	0.0004415	99.2339999676
1380.0	0.0004438	99.2809998989
1380.0	0.0004433	99.3120000362
1380.0	0.0004418	99.3589999676
1380.0	0.0004418	99.4059998989
1380.0	0.0004418	99.4370000362
1380.0	0.000443	99.4839999676
1380.0	0.0004425	99.5160000324
1380.0	0.0004413	99.5620000362
1380.0	0.0004418	99.6089999676
1390.0	0.000437	99.875
1390.0	0.0004355	99.9059998989
1390.0	0.0004333	99.9530000687
1390.0	0.000432	100.0
1390.0	0.0004318	100.030999899
1390.0	0.0004313	100.078000069
1390.0	0.0004315	100.125
1390.0	0.00043	100.155999899
1390.0	0.00043	100.203000069
1390.0	0.0004318	100.25
1390.0	0.0004315	100.280999899
1390.0	0.0004305	100.328000069
1390.0	0.00043	100.358999968
1390.0	0.0004303	100.405999899
1390.0	0.0004318	100.453000069
1390.0	0.0004318	100.483999968
1390.0	0.0004308	100.530999899
1390.0	0.0004305	100.562000036
1390.0	0.0004313	100.608999968
1390.0	0.0004325	100.655999899
1390.0	0.0004313	100.687000036
1390.0	0.0004313	100.733999968
1390.0	0.0004308	100.780999899
1390.0	0.000432	100.812000036
1390.0	0.0004325	100.858999968
1390.0	0.0004313	100.905999899
1390.0	0.0004313	100.937000036
1390.0	0.0004315	100.983999968
1390.0	0.0004328	101.016000032
1390.0	0.0004325	101.062000036
1390.0	0.000432	101.108999968
1390.0	0.0004315	101.141000032
1390.0	0.0004325	101.187000036
1390.0	0.0004328	101.233999968
1390.0	0.0004315	101.266000032
1390.0	0.0004313	101.312000036
1390.0	0.0004318	101.343999863
1400.0	0.0004275	101.625
1400.0	0.0004258	101.655999899
1400.0	0.0004245	101.703000069
1400.0	0.0004243	101.733999968
1400.0	0.0004243	101.780999899
1400.0	0.000423	101.828000069
1400.0	0.000422	101.858999968
1400.0	0.0004215	101.905999899
1400.0	0.0004225	101.953000069
1400.0	0.0004225	101.983999968
1400.0	0.0004215	102.030999899
1400.0	0.0004213	102.062000036
1400.0	0.0004205	102.108999968
1400.0	0.0004225	102.155999899
1400.0	0.000422	102.187000036
1400.0	0.0004208	102.233999968
1400.0	0.0004205	102.280999899
1400.0	0.0004205	102.312000036
1400.0	0.0004228	102.358999968
1400.0	0.0004228	102.391000032
1400.0	0.0004218	102.437000036
1400.0	0.0004215	102.483999968
1400.0	0.0004218	102.516000032
1400.0	0.0004233	102.562000036
1400.0	0.0004215	102.608999968
1400.0	0.000423	102.655999899
1400.0	0.0004215	102.687000036
1400.0	0.0004208	102.733999968
1400.0	0.0004225	102.766000032
1400.0	0.000422	102.812000036
1400.0	0.0004208	102.858999968
1400.0	0.0004208	102.891000032
1400.0	0.0004213	102.937000036
1400.0	0.000422	102.983999968
1400.0	0.0004213	103.016000032
1400.0	0.0004205	103.062000036
1400.0	0.0004203	103.093999863
1410.0	0.0004175	103.375
1410.0	0.0004175	103.405999899
1410.0	0.0004155	103.453000069
1410.0	0.000415	103.483999968
1410.0	0.0004143	103.530999899
1410.0	0.0004145	103.578000069
1410.0	0.000413	103.608999968
1410.0	0.000412	103.655999899
1410.0	0.000412	103.703000069
1410.0	0.0004138	103.733999968
1410.0	0.0004138	103.780999899
1410.0	0.0004118	103.812000036
1410.0	0.0004118	103.858999968
1410.0	0.0004133	103.905999899
1410.0	0.000413	103.937000036
1410.0	0.000412	103.983999968
1410.0	0.000412	104.030999899
1410.0	0.0004128	104.062000036
1410.0	0.0004128	104.108999968
1410.0	0.000414	104.141000032
1410.0	0.000413	104.187000036
1410.0	0.0004128	104.233999968
1410.0	0.0004133	104.266000032
1410.0	0.0004145	104.312000036
1410.0	0.0004138	104.358999968
1410.0	0.000413	104.391000032
1410.0	0.0004128	104.437000036
1410.0	0.0004125	104.468999863
1410.0	0.000414	104.516000032
1410.0	0.000413	104.562000036
1410.0	0.000413	104.593999863
1410.0	0.000414	104.641000032
1410.0	0.0004153	104.687000036
1410.0	0.000415	104.718999863
1410.0	0.000414	104.766000032
1410.0	0.0004143	104.812000036
1410.0	0.000415	104.843999863
1420.0	0.000413	105.108999968
1420.0	0.0004125	105.155999899
1420.0	0.0004118	105.203000069
1420.0	0.000412	105.233999968
1420.0	0.0004128	105.280999899
1420.0	0.0004118	105.312000036
1420.0	0.0004115	105.358999968
1420.0	0.0004113	105.405999899
1420.0	0.0004128	105.437000036
1420.0	0.0004128	105.483999968
1420.0	0.0004108	105.530999899
1420.0	0.0004105	105.562000036
1420.0	0.0004108	105.608999968
1420.0	0.0004113	105.641000032
1420.0	0.0004125	105.687000036
1420.0	0.0004113	105.733999968
1420.0	0.0004105	105.766000032
1420.0	0.0004113	105.812000036
1420.0	0.0004118	105.858999968
1420.0	0.00041	105.891000032
1420.0	0.0004103	105.937000036
1420.0	0.00041	105.968999863
1420.0	0.0004105	106.016000032
1420.0	0.0004118	106.062000036
1420.0	0.0004105	106.093999863
1420.0	0.0004108	106.141000032
1420.0	0.0004115	106.187000036
1420.0	0.0004125	106.218999863
1420.0	0.0004128	106.266000032
1420.0	0.0004115	106.296999931
1420.0	0.0004115	106.343999863
1420.0	0.0004118	106.391000032
1420.0	0.0004125	106.421999931
1420.0	0.0004113	106.468999863
1420.0	0.0004113	106.516000032
1420.0	0.0004113	106.546999931
1420.0	0.000412	106.593999863
1430.0	0.0004095	106.858999968
1430.0	0.0004093	106.905999899
1430.0	0.0004095	106.937000036
1430.0	0.0004103	106.983999968
1430.0	0.0004113	107.016000032
1430.0	0.0004095	107.062000036
1430.0	0.0004093	107.108999968
1430.0	0.0004095	107.141000032
1430.0	0.0004103	107.187000036
1430.0	0.0004093	107.233999968
1430.0	0.000408	107.266000032
1430.0	0.000408	107.312000036
1430.0	0.0004083	107.358999968
1430.0	0.0004083	107.391000032
1430.0	0.000408	107.437000036
1430.0	0.0004078	107.468999863
1430.0	0.0004083	107.516000032
1430.0	0.000409	107.562000036
1430.0	0.000409	107.593999863
1430.0	0.0004075	107.641000032
1430.0	0.0004068	107.687000036
1430.0	0.000407	107.718999863
1430.0	0.0004093	107.766000032
1430.0	0.000408	107.796999931
1430.0	0.000408	107.843999863
1430.0	0.000408	107.891000032
1430.0	0.0004088	107.921999931
1430.0	0.0004095	107.968999863
1430.0	0.0004088	108.016000032
1430.0	0.000408	108.046999931
1430.0	0.0004083	108.093999863
1430.0	0.0004093	108.125
1430.0	0.000409	108.171999931
1430.0	0.0004078	108.218999863
1430.0	0.0004078	108.25
1430.0	0.000408	108.296999931
1430.0	0.000409	108.343999863
1440.0	0.0004088	108.608999968
1440.0	0.0004078	108.641000032
1440.0	0.00041	108.687000036
1440.0	0.00041	108.733999968
1440.0	0.00041	108.766000032
1440.0	0.00041	108.812000036
1440.0	0.0004105	108.843999863
1440.0	0.0004118	108.891000032
1440.0	0.000412	108.937000036
1440.0	0.0004113	108.968999863
1440.0	0.0004113	109.016000032
1440.0	0.0004115	109.062000036
1440.0	0.000413	109.093999863
1440.0	0.0004115	109.141000032
1440.0	0.0004113	109.171999931
1440.0	0.0004108	109.218999863
1440.0	0.0004118	109.266000032
1440.0	0.0004125	109.296999931
1440.0	0.0004118	109.343999863
1440.0	0.0004113	109.391000032
1440.0	0.0004113	109.421999931
1440.0	0.000412	109.468999863
1440.0	0.0004128	109.5
1440.0	0.0004125	109.546999931
1440.0	0.0004115	109.593999863
1440.0	0.000412	109.625
1440.0	0.000413	109.671999931
1440.0	0.0004128	109.718999863
1440.0	0.0004115	109.75
1440.0	0.0004113	109.796999931
1440.0	0.0004125	109.843999863
1440.0	0.0004128	109.875
1440.0	0.0004128	109.921999931
1440.0	0.0004115	109.953000069
1440.0	0.000412	110.0
1440.0	0.0004138	110.046999931
1440.0	0.000413	110.078000069
1450.0	0.0004155	110.343999863
1450.0	0.0004155	110.391000032
1450.0	0.0004178	110.437000036
1450.0	0.000418	110.468999863
1450.0	0.0004175	110.516000032
1450.0	0.0004175	110.562000036
1450.0	0.0004178	110.593999863
1450.0	0.0004193	110.641000032
1450.0	0.00042	110.671999931
1450.0	0.0004183	110.718999863
1450.0	0.000418	110.766000032
1450.0	0.0004195	110.796999931
1450.0	0.0004188	110.843999863
1450.0	0.0004175	110.891000032
1450.0	0.000417	110.921999931
1450.0	0.0004175	110.968999863
1450.0	0.0004188	111.0
1450.0	0.000419	111.046999931
1450.0	0.0004178	111.093999863
1450.0	0.000418	111.125
1450.0	0.0004183	111.171999931
1450.0	0.0004195	111.218999863
1450.0	0.0004183	111.25
1450.0	0.0004183	111.296999931
1450.0	0.0004188	111.328000069
1450.0	0.00042	111.375
1450.0	0.0004203	111.421999931
1450.0	0.0004183	111.468999863
1450.0	0.0004178	111.5
1450.0	0.0004175	111.546999931
1450.0	0.0004175	111.593999863
1450.0	0.000418	111.625
1450.0	0.0004168	111.671999931
1450.0	0.0004163	111.703000069
1450.0	0.0004163	111.75
1450.0	0.0004178	111.796999931
1450.0	0.0004183	111.828000069
1460.0	0.0004218	112.093999863
1460.0	0.0004215	112.141000032
1460.0	0.0004233	112.187000036
1460.0	0.000424	112.218999863
1460.0	0.0004238	112.266000032
1460.0	0.0004243	112.312000036
1460.0	0.0004245	112.343999863
1460.0	0.0004265	112.391000032
1460.0	0.0004263	112.421999931
1460.0	0.0004255	112.468999863
1460.0	0.0004258	112.516000032
1460.0	0.0004263	112.546999931
1460.0	0.0004258	112.593999863
1460.0	0.0004275	112.641000032
1460.0	0.0004263	112.671999931
1460.0	0.0004263	112.718999863
1460.0	0.0004268	112.766000032
1460.0	0.0004275	112.796999931
1460.0	0.0004275	112.843999863
1460.0	0.0004263	112.891000032
1460.0	0.0004263	112.921999931
1460.0	0.0004268	112.968999863
1460.0	0.0004275	113.0
1460.0	0.0004268	113.046999931
1460.0	0.0004265	113.093999863
1460.0	0.0004263	113.125
1460.0	0.000427	113.171999931
1460.0	0.000428	113.218999863
1460.0	0.0004263	113.25
1460.0	0.0004265	113.296999931
1460.0	0.0004268	113.343999863
1460.0	0.000428	113.375
1460.0	0.0004268	113.421999931
1460.0	0.0004255	113.453000069
1460.0	0.0004258	113.5
1460.0	0.0004263	113.546999931
1460.0	0.0004278	113.578000069
1470.0	0.0004325	113.843999863
1470.0	0.0004328	113.891000032
1470.0	0.000435	113.937000036
1470.0	0.0004363	113.968999863
1470.0	0.000435	114.016000032
1470.0	0.0004355	114.046999931
1470.0	0.0004363	114.093999863
1470.0	0.0004378	114.141000032
1470.0	0.0004375	114.171999931
1470.0	0.0004375	114.218999863
1470.0	0.000438	114.266000032
1470.0	0.0004388	114.296999931
1470.0	0.0004388	114.343999863
1470.0	0.00044	114.391000032
1470.0	0.000439	114.421999931
1470.0	0.0004388	114.468999863
1470.0	0.0004393	114.5
1470.0	0.0004403	114.546999931
1470.0	0.0004393	114.593999863
1470.0	0.000439	114.625
1470.0	0.0004393	114.671999931
1470.0	0.0004403	114.718999863
1470.0	0.0004413	114.75
1470.0	0.00044	114.796999931
1470.0	0.00044	114.828000069
1470.0	0.00044	114.875
1470.0	0.0004415	114.921999931
1470.0	0.0004395	114.953000069
1470.0	0.00044	115.0
1470.0	0.0004395	115.046999931
1470.0	0.00044	115.078000069
1470.0	0.0004415	115.125
1470.0	0.0004413	115.155999899
1470.0	0.00044	115.203000069
1470.0	0.0004403	115.25
1470.0	0.0004395	115.280999899
1470.0	0.0004415	115.328000069
1480.0	0.000445	115.593999863
1480.0	0.0004455	115.641000032
1480.0	0.000449	115.671999931
1480.0	0.0004488	115.718999863
1480.0	0.0004495	115.766000032
1480.0	0.00045	115.796999931
1480.0	0.0004518	115.843999863
1480.0	0.000453	115.875
1480.0	0.0004525	115.921999931
1480.0	0.0004518	115.968999863
1480.0	0.0004518	116.0
1480.0	0.0004518	116.046999931
1480.0	0.0004513	116.093999863
1480.0	0.0004513	116.125
1480.0	0.0004513	116.171999931
1480.0	0.0004515	116.218999863
1480.0	0.0004525	116.25
1480.0	0.000452	116.296999931
1480.0	0.0004508	116.328000069
1480.0	0.0004505	116.375
1480.0	0.0004508	116.421999931
1480.0	0.0004525	116.453000069
1480.0	0.0004518	116.5
1480.0	0.0004513	116.546999931
1480.0	0.0004518	116.578000069
1480.0	0.0004528	116.625
1480.0	0.0004518	116.655999899
1480.0	0.000452	116.703000069
1480.0	0.0004508	116.75
1480.0	0.0004508	116.780999899
1480.0	0.0004525	116.828000069
1480.0	0.0004518	116.875
1480.0	0.0004518	116.905999899
1480.0	0.0004505	116.953000069
1480.0	0.0004508	116.983999968
1480.0	0.000452	117.030999899
1480.0	0.00045	117.078000069
1490.0	0.0004558	117.343999863
1490.0	0.0004553	117.391000032
1490.0	0.0004588	117.421999931
1490.0	0.000458	117.468999863
1490.0	0.0004588	117.516000032
1490.0	0.0004595	117.546999931
1490.0	0.0004608	117.593999863
1490.0	0.000462	117.625
1490.0	0.0004615	117.671999931
1490.0	0.0004608	117.718999863
1490.0	0.0004613	117.75
1490.0	0.000462	117.796999931
1490.0	0.000463	117.843999863
1490.0	0.0004628	117.875
1490.0	0.000462	117.921999931
1490.0	0.0004618	117.968999863
1490.0	0.000464	118.0
1490.0	0.0004628	118.046999931
1490.0	0.000462	118.078000069
1490.0	0.000462	118.125
1490.0	0.000463	118.171999931
1490.0	0.000464	118.203000069
1490.0	0.0004625	118.25
1490.0	0.0004633	118.296999931
1490.0	0.0004625	118.328000069
1490.0	0.0004633	118.375
1490.0	0.0004638	118.421999931
1490.0	0.0004645	118.453000069
1490.0	0.0004628	118.5
1490.0	0.0004625	118.546999931
1490.0	0.000462	118.578000069
1490.0	0.0004645	118.625
1490.0	0.000464	118.655999899
1490.0	0.0004633	118.703000069
1490.0	0.000463	118.75
1490.0	0.000464	118.780999899
1490.0	0.0004653	118.828000069
1500.0	0.0004675	119.093999863
1500.0	0.0004688	119.141000032
1500.0	0.0004693	119.187000036
1500.0	0.0004705	119.218999863
1500.0	0.0004725	119.266000032
1500.0	0.0004718	119.296999931
1500.0	0.0004725	119.343999863
1500.0	0.000473	119.391000032
1500.0	0.0004738	119.421999931
1500.0	0.000475	119.468999863
1500.0	0.0004738	119.516000032
1500.0	0.0004733	119.546999931
1500.0	0.000475	119.593999863
1500.0	0.0004753	119.625
1500.0	0.0004738	119.671999931
1500.0	0.0004738	119.718999863
1500.0	0.000473	119.75
1500.0	0.0004745	119.796999931
1500.0	0.0004743	119.843999863
1500.0	0.0004728	119.875
1500.0	0.0004725	119.921999931
1500.0	0.0004738	119.968999863
1500.0	0.0004743	120.0
1500.0	0.0004745	120.046999931
1500.0	0.000473	120.078000069
1500.0	0.000473	120.125
1500.0	0.0004738	120.171999931
1500.0	0.0004755	120.203000069
1500.0	0.0004758	120.25
1500.0	0.0004745	120.296999931
1500.0	0.0004738	120.328000069
1500.0	0.0004743	120.375
1500.0	0.0004755	120.405999899
1500.0	0.000475	120.453000069
1500.0	0.000474	120.5
1500.0	0.0004738	120.530999899
1500.0	0.0004755	120.578000069
1510.0	0.0004768	120.858999968
1510.0	0.0004788	120.891000032
1510.0	0.0004778	120.937000036
1510.0	0.000478	120.968999863
1510.0	0.0004788	121.016000032
1510.0	0.0004805	121.062000036
1510.0	0.0004793	121.093999863
1510.0	0.000479	121.141000032
1510.0	0.0004788	121.187000036
1510.0	0.0004803	121.218999863
1510.0	0.00048	121.266000032
1510.0	0.0004783	121.296999931
1510.0	0.0004788	121.343999863
1510.0	0.0004795	121.391000032
1510.0	0.0004808	121.421999931
1510.0	0.00048	121.468999863
1510.0	0.0004795	121.516000032
1510.0	0.0004793	121.546999931
1510.0	0.0004795	121.593999863
1510.0	0.0004793	121.641000032
1510.0	0.0004808	121.671999931
1510.0	0.0004805	121.718999863
1510.0	0.00048	121.766000032
1510.0	0.00048	121.796999931
1510.0	0.0004808	121.843999863
1510.0	0.0004808	121.891000032
1510.0	0.000479	121.921999931
1510.0	0.0004788	121.968999863
1510.0	0.0004793	122.016000032
1510.0	0.0004808	122.062000036
1510.0	0.0004805	122.093999863
1510.0	0.0004813	122.141000032
1510.0	0.00048	122.187000036
1510.0	0.0004805	122.218999863
1510.0	0.0004788	122.266000032
1510.0	0.000479	122.312000036
1520.0	0.00048	122.578000069
1520.0	0.000482	122.625
1520.0	0.0004813	122.655999899
1520.0	0.0004815	122.703000069
1520.0	0.0004818	122.75
1520.0	0.0004825	122.780999899
1520.0	0.0004838	122.828000069
1520.0	0.0004825	122.875
1520.0	0.000482	122.905999899
1520.0	0.000483	122.953000069
1520.0	0.0004838	123.0
1520.0	0.0004828	123.030999899
1520.0	0.0004825	123.078000069
1520.0	0.0004828	123.108999968
1520.0	0.0004828	123.155999899
1520.0	0.000485	123.203000069
1520.0	0.000483	123.233999968
1520.0	0.0004833	123.280999899
1520.0	0.0004838	123.328000069
1520.0	0.0004845	123.358999968
1520.0	0.0004845	123.405999899
1520.0	0.0004843	123.437000036
1520.0	0.000483	123.483999968
1520.0	0.0004843	123.530999899
1520.0	0.0004853	123.562000036
1520.0	0.000484	123.608999968
1520.0	0.0004838	123.655999899
1520.0	0.0004838	123.687000036
1520.0	0.0004855	123.733999968
1520.0	0.0004855	123.766000032
1520.0	0.0004843	123.812000036
1520.0	0.000484	123.858999968
1520.0	0.0004858	123.905999899
1520.0	0.0004853	123.937000036
1520.0	0.0004845	123.983999968
1520.0	0.0004863	124.030999899
1530.0	0.0004853	124.296999931
1530.0	0.0004865	124.343999863
1530.0	0.0004855	124.391000032
1530.0	0.0004863	124.421999931
1530.0	0.0004875	124.468999863
1530.0	0.0004855	124.516000032
1530.0	0.0004865	124.546999931
1530.0	0.0004863	124.593999863
1530.0	0.0004863	124.641000032
1530.0	0.0004868	124.671999931
1530.0	0.000488	124.718999863
1530.0	0.0004878	124.766000032
1530.0	0.0004868	124.796999931
1530.0	0.0004868	124.843999863
1530.0	0.000488	124.875
1530.0	0.0004883	124.921999931
1530.0	0.000487	124.968999863
1530.0	0.0004868	125.0
1530.0	0.000488	125.046999931
1530.0	0.0004878	125.093999863
1530.0	0.0004893	125.125
1530.0	0.0004875	125.171999931
1530.0	0.000487	125.218999863
1530.0	0.0004863	125.25
1530.0	0.0004863	125.296999931
1530.0	0.000488	125.343999863
1530.0	0.0004875	125.375
1530.0	0.0004868	125.421999931
1530.0	0.0004868	125.468999863
1530.0	0.0004888	125.5
1530.0	0.000489	125.546999931
1530.0	0.0004878	125.578000069
1530.0	0.0004865	125.625
1530.0	0.0004868	125.671999931
1530.0	0.000487	125.703000069
1530.0	0.0004883	125.75
1530.0	0.0004875	125.796999931
1540.0	0.0004875	126.062000036
1540.0	0.0004863	126.108999968
1540.0	0.000487	126.141000032
1540.0	0.0004878	126.187000036
1540.0	0.000487	126.233999968
1540.0	0.0004863	126.266000032
1540.0	0.0004858	126.312000036
1540.0	0.0004875	126.358999968
1540.0	0.0004863	126.391000032
1540.0	0.0004858	126.437000036
1540.0	0.0004863	126.468999863
1540.0	0.0004863	126.516000032
1540.0	0.000487	126.562000036
1540.0	0.0004875	126.593999863
1540.0	0.0004858	126.641000032
1540.0	0.0004858	126.687000036
1540.0	0.0004863	126.718999863
1540.0	0.0004875	126.766000032
1540.0	0.0004863	126.796999931
1540.0	0.0004858	126.843999863
1540.0	0.0004853	126.891000032
1540.0	0.0004868	126.921999931
1540.0	0.0004863	126.968999863
1540.0	0.0004855	127.016000032
1540.0	0.000485	127.046999931
1540.0	0.0004838	127.093999863
1540.0	0.0004845	127.141000032
1540.0	0.0004853	127.171999931
1540.0	0.0004833	127.218999863
1540.0	0.0004833	127.266000032
1540.0	0.0004838	127.296999931
1540.0	0.0004845	127.343999863
1540.0	0.0004855	127.375
1540.0	0.0004843	127.421999931
1540.0	0.000484	127.468999863
1540.0	0.0004845	127.5
1540.0	0.0004858	127.546999931
1550.0	0.0004838	127.828000069
1550.0	0.0004838	127.858999968
1550.0	0.000483	127.905999899
1550.0	0.000482	127.937000036
1550.0	0.0004828	127.983999968
1550.0	0.000483	128.030999899
1550.0	0.0004825	128.062000036
1550.0	0.0004808	128.108999968
1550.0	0.0004808	128.155999899
1550.0	0.0004813	128.187000036
1550.0	0.0004805	128.233999968
1550.0	0.0004815	128.280999899
1550.0	0.0004808	128.312000036
1550.0	0.0004808	128.358999968
1550.0	0.000482	128.391000032
1550.0	0.0004818	128.437000036
1550.0	0.0004803	128.483999968
1550.0	0.00048	128.516000032
1550.0	0.0004805	128.562000036
1550.0	0.000482	128.608999968
1550.0	0.0004808	128.641000032
1550.0	0.0004803	128.687000036
1550.0	0.00048	128.718999863
1550.0	0.0004815	128.766000032
1550.0	0.00048	128.812000036
1550.0	0.0004805	128.858999968
1550.0	0.0004795	128.905999899
1550.0	0.0004803	128.937000036
1550.0	0.0004803	128.983999968
1550.0	0.0004808	129.016000032
1550.0	0.0004813	129.062000036
1550.0	0.00048	129.108999968
1550.0	0.0004793	129.141000032
1550.0	0.0004803	129.187000036
1550.0	0.0004813	129.233999968
1550.0	0.0004803	129.266000032
1550.0	0.0004808	129.312000036
1560.0	0.00048	129.578000069
1560.0	0.0004778	129.625
1560.0	0.000478	129.671999931
1560.0	0.0004775	129.703000069
1560.0	0.0004765	129.75
1560.0	0.000475	129.796999931
1560.0	0.000475	129.828000069
1560.0	0.0004765	129.875
1560.0	0.0004763	129.905999899
1560.0	0.0004743	129.953000069
1560.0	0.000474	130.0
1560.0	0.0004745	130.030999899
1560.0	0.0004758	130.078000069
1560.0	0.000474	130.125
1560.0	0.0004738	130.155999899
1560.0	0.000473	130.203000069
1560.0	0.0004743	130.233999968
1560.0	0.0004753	130.280999899
1560.0	0.0004753	130.328000069
1560.0	0.000474	130.358999968
1560.0	0.000474	130.405999899
1560.0	0.0004745	130.453000069
1560.0	0.000475	130.483999968
1560.0	0.0004738	130.530999899
1560.0	0.0004743	130.562000036
1560.0	0.0004763	130.608999968
1560.0	0.0004768	130.655999899
1560.0	0.0004758	130.687000036
1560.0	0.0004753	130.733999968
1560.0	0.000475	130.780999899
1560.0	0.0004753	130.812000036
1560.0	0.0004765	130.858999968
1560.0	0.000475	130.905999899
1560.0	0.0004745	130.937000036
1560.0	0.0004745	130.983999968
1560.0	0.0004758	131.030999899
1560.0	0.0004765	131.062000036
1570.0	0.0004703	131.343999863
1570.0	0.0004703	131.391000032
1570.0	0.0004688	131.421999931
1570.0	0.0004675	131.468999863
1570.0	0.000468	131.5
1570.0	0.000468	131.546999931
1570.0	0.0004668	131.593999863
1570.0	0.0004645	131.625
1570.0	0.000464	131.671999931
1570.0	0.0004658	131.718999863
1570.0	0.0004658	131.75
1570.0	0.0004645	131.796999931
1570.0	0.000465	131.828000069
1570.0	0.000465	131.875
1570.0	0.0004668	131.921999931
1570.0	0.0004665	131.953000069
1570.0	0.0004653	132.0
1570.0	0.0004653	132.046999931
1570.0	0.0004655	132.078000069
1570.0	0.000467	132.125
1570.0	0.0004663	132.155999899
1570.0	0.0004653	132.203000069
1570.0	0.000465	132.25
1570.0	0.0004668	132.280999899
1570.0	0.0004675	132.328000069
1570.0	0.0004658	132.375
1570.0	0.0004655	132.405999899
1570.0	0.0004668	132.453000069
1570.0	0.0004675	132.5
1570.0	0.0004665	132.530999899
1570.0	0.0004658	132.578000069
1570.0	0.0004658	132.608999968
1570.0	0.0004668	132.655999899
1570.0	0.000468	132.703000069
1570.0	0.0004663	132.733999968
1570.0	0.0004658	132.780999899
1570.0	0.0004655	132.828000069
1580.0	0.0004618	133.093999863
1580.0	0.0004605	133.141000032
1580.0	0.0004575	133.171999931
1580.0	0.0004563	133.218999863
1580.0	0.000455	133.266000032
1580.0	0.0004545	133.296999931
1580.0	0.000455	133.343999863
1580.0	0.000454	133.391000032
1580.0	0.000452	133.421999931
1580.0	0.0004518	133.468999863
1580.0	0.000453	133.5
1580.0	0.0004533	133.546999931
1580.0	0.0004518	133.593999863
1580.0	0.0004515	133.625
1580.0	0.0004518	133.671999931
1580.0	0.0004525	133.718999863
1580.0	0.0004505	133.75
1580.0	0.0004508	133.796999931
1580.0	0.0004513	133.828000069
1580.0	0.0004515	133.875
1580.0	0.0004533	133.921999931
1580.0	0.0004525	133.953000069
1580.0	0.0004518	134.0
1580.0	0.0004518	134.046999931
1580.0	0.000453	134.078000069
1580.0	0.000453	134.125
1580.0	0.0004515	134.171999931
1580.0	0.0004513	134.203000069
1580.0	0.0004525	134.25
1580.0	0.0004518	134.280999899
1580.0	0.0004518	134.328000069
1580.0	0.0004518	134.375
1580.0	0.0004515	134.405999899
1580.0	0.000452	134.453000069
1580.0	0.000452	134.5
1580.0	0.0004513	134.530999899
1580.0	0.0004503	134.578000069
1590.0	0.0004443	134.843999863
1590.0	0.0004408	134.891000032
1590.0	0.00044	134.937000036
1590.0	0.0004388	134.983999968
1590.0	0.0004368	135.016000032
1590.0	0.000435	135.062000036
1590.0	0.000434	135.093999863
1590.0	0.000435	135.141000032
1590.0	0.0004353	135.187000036
1590.0	0.000434	135.218999863
1590.0	0.0004338	135.266000032
1590.0	0.000433	135.312000036
1590.0	0.0004333	135.343999863
1590.0	0.0004343	135.391000032
1590.0	0.000433	135.421999931
1590.0	0.0004328	135.468999863
1590.0	0.0004333	135.516000032
1590.0	0.0004338	135.546999931
1590.0	0.000434	135.593999863
1590.0	0.000432	135.641000032
1590.0	0.0004315	135.671999931
1590.0	0.000433	135.718999863
1590.0	0.0004338	135.75
1590.0	0.000433	135.796999931
1590.0	0.0004318	135.843999863
1590.0	0.0004318	135.875
1590.0	0.0004343	135.921999931
1590.0	0.0004333	135.968999863
1590.0	0.000433	136.0
1590.0	0.0004328	136.046999931
1590.0	0.0004333	136.093999863
1590.0	0.0004333	136.125
1590.0	0.0004325	136.171999931
1590.0	0.0004318	136.203000069
1590.0	0.000432	136.25
1590.0	0.0004328	136.296999931
1590.0	0.0004328	136.328000069
1600.0	0.0004233	136.608999968
1600.0	0.0004208	136.655999899
1600.0	0.0004188	136.687000036
1600.0	0.0004163	136.733999968
1600.0	0.000415	136.780999899
1600.0	0.0004155	136.812000036
1600.0	0.0004138	136.858999968
1600.0	0.0004125	136.905999899
1600.0	0.0004115	136.937000036
1600.0	0.000412	136.983999968
1600.0	0.0004125	137.016000032
1600.0	0.0004118	137.062000036
1600.0	0.0004103	137.108999968
1600.0	0.0004103	137.141000032
1600.0	0.0004118	137.187000036
1600.0	0.0004125	137.233999968
1600.0	0.0004113	137.266000032
1600.0	0.0004113	137.312000036
1600.0	0.0004115	137.343999863
1600.0	0.0004125	137.391000032
1600.0	0.0004125	137.437000036
1600.0	0.0004108	137.468999863
1600.0	0.0004105	137.516000032
1600.0	0.0004108	137.562000036
1600.0	0.000412	137.593999863
1600.0	0.0004113	137.641000032
1600.0	0.0004113	137.671999931
1600.0	0.0004108	137.718999863
1600.0	0.0004128	137.766000032
1600.0	0.0004128	137.796999931
1600.0	0.0004108	137.843999863
1600.0	0.0004113	137.891000032
1600.0	0.000412	137.921999931
1600.0	0.0004128	137.968999863
1600.0	0.000412	138.016000032
1600.0	0.0004105	138.046999931
1610.0	0.0004015	138.328000069
1610.0	0.0003983	138.375
1610.0	0.0003953	138.421999931
1610.0	0.000394	138.453000069
1610.0	0.0003908	138.5
1610.0	0.0003913	138.546999931
1610.0	0.0003893	138.578000069
1610.0	0.000389	138.625
1610.0	0.0003888	138.671999931
1610.0	0.0003893	138.703000069
1610.0	0.0003893	138.75
1610.0	0.000388	138.780999899
1610.0	0.0003875	138.828000069
1610.0	0.000387	138.875
1610.0	0.0003878	138.905999899
1610.0	0.0003875	138.953000069
1610.0	0.0003865	139.0
1610.0	0.0003863	139.030999899
1610.0	0.000387	139.078000069
1610.0	0.0003888	139.125
1610.0	0.0003883	139.155999899
1610.0	0.000387	139.203000069
1610.0	0.0003865	139.233999968
1610.0	0.0003875	139.280999899
1610.0	0.0003883	139.328000069
1610.0	0.000388	139.358999968
1610.0	0.0003868	139.405999899
1610.0	0.0003875	139.453000069
1610.0	0.000388	139.483999968
1610.0	0.0003893	139.530999899
1610.0	0.0003895	139.578000069
1610.0	0.000388	139.608999968
1610.0	0.000388	139.655999899
1610.0	0.0003888	139.703000069
1610.0	0.0003893	139.733999968
1610.0	0.0003888	139.780999899
1610.0	0.0003875	139.812000036
1620.0	0.000377	140.093999863
1620.0	0.0003738	140.141000032
1620.0	0.0003705	140.187000036
1620.0	0.000369	140.218999863
1620.0	0.0003675	140.266000032
1620.0	0.0003643	140.296999931
1620.0	0.0003633	140.343999863
1620.0	0.0003633	140.391000032
1620.0	0.0003638	140.421999931
1620.0	0.000363	140.468999863
1620.0	0.000362	140.516000032
1620.0	0.000362	140.546999931
1620.0	0.0003633	140.593999863
1620.0	0.000363	140.625
1620.0	0.000362	140.671999931
1620.0	0.0003605	140.718999863
1620.0	0.0003613	140.75
1620.0	0.000362	140.796999931
1620.0	0.0003608	140.843999863
1620.0	0.0003613	140.875
1620.0	0.0003615	140.921999931
1620.0	0.000362	140.968999863
1620.0	0.000363	141.0
1620.0	0.000362	141.046999931
1620.0	0.0003618	141.078000069
1620.0	0.0003618	141.125
1620.0	0.0003628	141.171999931
1620.0	0.0003625	141.203000069
1620.0	0.0003618	141.25
1620.0	0.0003618	141.296999931
1620.0	0.000362	141.328000069
1620.0	0.000363	141.375
1620.0	0.000363	141.405999899
1620.0	0.0003615	141.453000069
1620.0	0.0003615	141.5
1620.0	0.0003625	141.530999899
1620.0	0.000363	141.578000069
1630.0	0.0003505	141.858999968
1630.0	0.0003475	141.905999899
1630.0	0.0003433	141.937000036
1630.0	0.0003405	141.983999968
1630.0	0.0003383	142.030999899
1630.0	0.0003368	142.062000036
1630.0	0.0003365	142.108999968
1630.0	0.0003358	142.141000032
1630.0	0.000335	142.187000036
1630.0	0.000334	142.233999968
1630.0	0.0003353	142.266000032
1630.0	0.000335	142.312000036
1630.0	0.0003338	142.358999968
1630.0	0.0003333	142.391000032
1630.0	0.000333	142.437000036
1630.0	0.000334	142.483999968
1630.0	0.0003338	142.516000032
1630.0	0.0003333	142.562000036
1630.0	0.0003338	142.608999968
1630.0	0.000333	142.641000032
1630.0	0.0003345	142.687000036
1630.0	0.000335	142.733999968
1630.0	0.0003345	142.766000032
1630.0	0.0003343	142.812000036
1630.0	0.0003343	142.843999863
1630.0	0.0003355	142.891000032
1630.0	0.0003355	142.937000036
1630.0	0.0003345	142.968999863
1630.0	0.000334	143.016000032
1630.0	0.0003353	143.062000036
1630.0	0.0003358	143.093999863
1630.0	0.0003355	143.141000032
1630.0	0.000335	143.171999931
1630.0	0.0003345	143.218999863
1630.0	0.0003353	143.266000032
1630.0	0.0003358	143.296999931
1630.0	0.0003353	143.343999863
1640.0	0.0003215	143.625
1640.0	0.0003188	143.671999931
1640.0	0.0003153	143.703000069
1640.0	0.0003128	143.75
1640.0	0.0003118	143.796999931
1640.0	0.0003115	143.828000069
1640.0	0.0003093	143.875
1640.0	0.000309	143.921999931
1640.0	0.0003088	143.953000069
1640.0	0.000309	144.0
1640.0	0.0003088	144.030999899
1640.0	0.000307	144.078000069
1640.0	0.0003068	144.125
1640.0	0.0003068	144.155999899
1640.0	0.000308	144.203000069
1640.0	0.000308	144.25
1640.0	0.000307	144.280999899
1640.0	0.0003063	144.328000069
1640.0	0.0003068	144.358999968
1640.0	0.0003068	144.405999899
1640.0	0.0003063	144.453000069
1640.0	0.0003055	144.483999968
1640.0	0.0003058	144.530999899
1640.0	0.0003065	144.578000069
1640.0	0.000307	144.608999968
1640.0	0.0003065	144.655999899
1640.0	0.0003063	144.687000036
1640.0	0.0003058	144.733999968
1640.0	0.0003068	144.780999899
1640.0	0.0003053	144.812000036
1640.0	0.0003055	144.858999968
1640.0	0.0003053	144.905999899
1640.0	0.0003058	144.937000036
1640.0	0.0003068	144.983999968
1640.0	0.0003063	145.016000032
1640.0	0.0003058	145.062000036
1640.0	0.0003068	145.108999968
1650.0	0.0002938	145.391000032
1650.0	0.0002903	145.437000036
1650.0	0.0002868	145.468999863
1650.0	0.0002855	145.516000032
1650.0	0.000284	145.562000036
1650.0	0.000282	145.593999863
1650.0	0.00028	145.641000032
1650.0	0.0002793	145.687000036
1650.0	0.0002803	145.718999863
1650.0	0.0002795	145.766000032
1650.0	0.0002788	145.796999931
1650.0	0.000278	145.843999863
1650.0	0.0002775	145.891000032
1650.0	0.000278	145.921999931
1650.0	0.000277	145.968999863
1650.0	0.0002768	146.016000032
1650.0	0.0002765	146.046999931
1650.0	0.0002768	146.093999863
1650.0	0.0002775	146.125
1650.0	0.0002768	146.171999931
1650.0	0.0002765	146.218999863
1650.0	0.0002758	146.25
1650.0	0.0002768	146.296999931
1650.0	0.000277	146.343999863
1650.0	0.0002768	146.375
1650.0	0.0002765	146.421999931
1650.0	0.0002775	146.453000069
1650.0	0.0002775	146.5
1650.0	0.0002768	146.546999931
1650.0	0.0002768	146.578000069
1650.0	0.0002768	146.625
1650.0	0.000277	146.671999931
1650.0	0.0002775	146.703000069
1650.0	0.0002775	146.75
1650.0	0.0002768	146.796999931
1650.0	0.000277	146.828000069
1650.0	0.000278	146.875
1660.0	0.0002653	147.155999899
1660.0	0.000262	147.203000069
1660.0	0.0002595	147.233999968
1660.0	0.0002563	147.280999899
1660.0	0.0002543	147.312000036
1660.0	0.000253	147.358999968
1660.0	0.0002518	147.405999899
1660.0	0.0002515	147.437000036
1660.0	0.00025	147.483999968
1660.0	0.0002493	147.530999899
1660.0	0.0002495	147.562000036
1660.0	0.0002493	147.608999968
1660.0	0.0002493	147.641000032
1660.0	0.0002483	147.687000036
1660.0	0.0002478	147.733999968
1660.0	0.0002478	147.766000032
1660.0	0.0002488	147.812000036
1660.0	0.0002478	147.858999968
1660.0	0.0002475	147.891000032
1660.0	0.0002468	147.937000036
1660.0	0.0002475	147.968999863
1660.0	0.0002483	148.016000032
1660.0	0.0002478	148.062000036
1660.0	0.0002475	148.093999863
1660.0	0.0002475	148.141000032
1660.0	0.000248	148.187000036
1660.0	0.0002483	148.218999863
1660.0	0.0002475	148.266000032
1660.0	0.0002475	148.312000036
1660.0	0.0002483	148.343999863
1660.0	0.0002478	148.391000032
1660.0	0.000248	148.437000036
1660.0	0.000247	148.468999863
1660.0	0.000247	148.516000032
1660.0	0.000247	148.562000036
1660.0	0.0002475	148.593999863
1660.0	0.0002478	148.641000032
1670.0	0.0002368	148.921999931
1670.0	0.0002343	148.968999863
1670.0	0.0002318	149.0
1670.0	0.0002288	149.046999931
1670.0	0.0002265	149.093999863
1670.0	0.0002253	149.125
1670.0	0.000225	149.171999931
1670.0	0.0002238	149.218999863
1670.0	0.000223	149.25
1670.0	0.0002225	149.296999931
1670.0	0.0002225	149.343999863
1670.0	0.0002225	149.375
1670.0	0.000222	149.421999931
1670.0	0.0002215	149.453000069
1670.0	0.0002215	149.5
1670.0	0.0002218	149.546999931
1670.0	0.0002225	149.578000069
1670.0	0.0002218	149.625
1670.0	0.000222	149.671999931
1670.0	0.000222	149.703000069
1670.0	0.0002225	149.75
1670.0	0.0002225	149.780999899
1670.0	0.0002225	149.828000069
1670.0	0.0002225	149.875
1670.0	0.000223	149.905999899
1670.0	0.0002233	149.953000069
1670.0	0.0002233	150.0
1670.0	0.0002225	150.030999899
1670.0	0.0002225	150.078000069
1670.0	0.0002228	150.108999968
1670.0	0.0002233	150.155999899
1670.0	0.0002228	150.203000069
1670.0	0.000223	150.233999968
1670.0	0.0002233	150.280999899
1670.0	0.0002238	150.328000069
1670.0	0.000223	150.358999968
1670.0	0.000223	150.405999899
1680.0	0.000212	150.687000036
1680.0	0.00021	150.733999968
1680.0	0.0002068	150.766000032
1680.0	0.000205	150.812000036
1680.0	0.0002033	150.858999968
1680.0	0.000203	150.891000032
1680.0	0.0002015	150.937000036
1680.0	0.0002005	150.983999968
1680.0	0.0002005	151.030999899
1680.0	0.0002003	151.062000036
1680.0	0.0002008	151.108999968
1680.0	0.0002013	151.141000032
1680.0	0.0002003	151.187000036
1680.0	0.0002003	151.233999968
1680.0	0.0002003	151.266000032
1680.0	0.0002013	151.312000036
1680.0	0.0002013	151.358999968
1680.0	0.0002003	151.391000032
1680.0	0.0002003	151.437000036
1680.0	0.0002003	151.468999863
1680.0	0.0002005	151.516000032
1680.0	0.0002008	151.562000036
1680.0	0.0002003	151.593999863
1680.0	0.0002005	151.641000032
1680.0	0.0002008	151.687000036
1680.0	0.0002013	151.718999863
1680.0	0.0002005	151.766000032
1680.0	0.0002005	151.812000036
1680.0	0.0001995	151.843999863
1680.0	0.0001993	151.891000032
1680.0	0.0002003	151.937000036
1680.0	0.0002005	151.968999863
1680.0	0.0002003	152.016000032
1680.0	0.0002005	152.046999931
1680.0	0.0002008	152.093999863
1680.0	0.0002015	152.141000032
1680.0	0.0002015	152.171999931
1690.0	0.0001918	152.468999863
1690.0	0.0001893	152.5
1690.0	0.0001863	152.546999931
1690.0	0.0001843	152.593999863
1690.0	0.0001833	152.625
1690.0	0.0001828	152.671999931
1690.0	0.0001818	152.718999863
1690.0	0.0001818	152.75
1690.0	0.0001808	152.796999931
1690.0	0.0001803	152.828000069
1690.0	0.0001805	152.875
1690.0	0.0001805	152.921999931
1690.0	0.00018	152.953000069
1690.0	0.0001793	153.0
1690.0	0.000179	153.046999931
1690.0	0.0001793	153.078000069
1690.0	0.00018	153.125
1690.0	0.000179	153.171999931
1690.0	0.000179	153.203000069
1690.0	0.0001795	153.25
1690.0	0.0001795	153.280999899
1690.0	0.0001793	153.328000069
1690.0	0.0001793	153.375
1690.0	0.000179	153.405999899
1690.0	0.0001793	153.453000069
1690.0	0.0001795	153.5
1690.0	0.0001793	153.530999899
1690.0	0.0001788	153.578000069
1690.0	0.0001788	153.608999968
1690.0	0.0001793	153.655999899
1690.0	0.000179	153.703000069
1690.0	0.0001783	153.733999968
1690.0	0.000178	153.780999899
1690.0	0.0001783	153.828000069
1690.0	0.0001778	153.858999968
1690.0	0.0001783	153.905999899
1690.0	0.0001778	153.953000069
1700.0	0.0001705	154.233999968
1700.0	0.0001683	154.280999899
1700.0	0.0001658	154.312000036
1700.0	0.0001643	154.358999968
1700.0	0.0001628	154.405999899
1700.0	0.0001628	154.437000036
1700.0	0.0001618	154.483999968
1700.0	0.0001605	154.516000032
1700.0	0.0001603	154.562000036
1700.0	0.0001595	154.608999968
1700.0	0.0001595	154.641000032
1700.0	0.0001593	154.687000036
1700.0	0.0001588	154.733999968
1700.0	0.0001583	154.766000032
1700.0	0.000158	154.812000036
1700.0	0.0001588	154.843999863
1700.0	0.0001588	154.891000032
1700.0	0.0001583	154.937000036
1700.0	0.0001588	154.968999863
1700.0	0.0001595	155.016000032
1700.0	0.0001595	155.062000036
1700.0	0.000159	155.093999863
1700.0	0.0001588	155.141000032
1700.0	0.0001588	155.187000036
1700.0	0.0001588	155.218999863
1700.0	0.000159	155.266000032
1700.0	0.000158	155.296999931
1700.0	0.000158	155.343999863
1700.0	0.0001588	155.391000032
1700.0	0.0001588	155.421999931
1700.0	0.000159	155.468999863
1700.0	0.0001583	155.516000032
1700.0	0.0001588	155.546999931
1700.0	0.0001593	155.593999863
1700.0	0.0001593	155.625
1700.0	0.000159	155.671999931
1700.0	0.0001588	155.718999863
1710.0	0.0001525	156.0
1710.0	0.0001505	156.046999931
1710.0	0.0001488	156.078000069
1710.0	0.0001475	156.125
1710.0	0.0001463	156.171999931
1710.0	0.0001458	156.203000069
1710.0	0.0001453	156.25
1710.0	0.0001443	156.296999931
1710.0	0.0001445	156.328000069
1710.0	0.0001445	156.375
1710.0	0.000144	156.405999899
1710.0	0.0001438	156.453000069
1710.0	0.0001433	156.5
1710.0	0.0001438	156.530999899
1710.0	0.000144	156.578000069
1710.0	0.0001438	156.625
1710.0	0.0001438	156.655999899
1710.0	0.0001438	156.703000069
1710.0	0.000144	156.733999968
1710.0	0.000144	156.780999899
1710.0	0.0001438	156.828000069
1710.0	0.0001433	156.858999968
1710.0	0.0001433	156.905999899
1710.0	0.000144	156.953000069
1710.0	0.0001438	156.983999968
1710.0	0.0001433	157.030999899
1710.0	0.0001433	157.078000069
1710.0	0.0001428	157.108999968
1710.0	0.000143	157.155999899
1710.0	0.0001433	157.203000069
1710.0	0.000143	157.233999968
1710.0	0.0001428	157.280999899
1710.0	0.000143	157.328000069
1710.0	0.000143	157.358999968
1710.0	0.0001433	157.405999899
1710.0	0.0001438	157.453000069
1720.0	0.000139	157.733999968
1720.0	0.0001375	157.766000032
1720.0	0.0001355	157.812000036
1720.0	0.0001343	157.858999968
1720.0	0.000133	157.891000032
1720.0	0.0001328	157.937000036
1720.0	0.000132	157.983999968
1720.0	0.0001308	158.016000032
1720.0	0.0001305	158.062000036
1720.0	0.00013	158.093999863
1720.0	0.0001305	158.141000032
1720.0	0.0001305	158.187000036
1720.0	0.0001303	158.218999863
1720.0	0.0001303	158.266000032
1720.0	0.00013	158.312000036
1720.0	0.0001293	158.343999863
1720.0	0.0001295	158.391000032
1720.0	0.0001295	158.421999931
1720.0	0.00013	158.468999863
1720.0	0.0001308	158.516000032
1720.0	0.0001313	158.546999931
1720.0	0.0001308	158.593999863
1720.0	0.0001313	158.641000032
1720.0	0.0001313	158.671999931
1720.0	0.0001313	158.718999863
1720.0	0.0001305	158.766000032
1720.0	0.0001305	158.796999931
1720.0	0.0001308	158.843999863
1720.0	0.0001315	158.875
1720.0	0.0001315	158.921999931
1720.0	0.0001308	158.968999863
1720.0	0.0001305	159.0
1720.0	0.0001303	159.046999931
1720.0	0.0001308	159.093999863
1720.0	0.0001305	159.125
1720.0	0.0001303	159.171999931
1720.0	0.0001303	159.203000069
1730.0	0.0001253	159.5
1730.0	0.000124	159.530999899
1730.0	0.0001225	159.578000069
1730.0	0.0001213	159.625
1730.0	0.0001208	159.655999899
1730.0	0.0001203	159.703000069
1730.0	0.0001193	159.75
1730.0	0.0001183	159.780999899
1730.0	0.0001178	159.828000069
1730.0	0.0001178	159.858999968
1730.0	0.0001178	159.905999899
1730.0	0.0001175	159.953000069
1730.0	0.000117	159.983999968
1730.0	0.000117	160.030999899
1730.0	0.0001178	160.078000069
1730.0	0.0001178	160.108999968
1730.0	0.0001178	160.155999899
1730.0	0.0001178	160.187000036
1730.0	0.0001178	160.233999968
1730.0	0.000118	160.280999899
1730.0	0.0001178	160.312000036
1730.0	0.0001175	160.358999968
1730.0	0.0001175	160.405999899
1730.0	0.0001178	160.437000036
1730.0	0.0001175	160.483999968
1730.0	0.0001175	160.530999899
1730.0	0.0001175	160.562000036
1730.0	0.0001175	160.608999968
1730.0	0.000118	160.641000032
1730.0	0.0001178	160.687000036
1730.0	0.0001178	160.733999968
1730.0	0.0001178	160.766000032
1730.0	0.000118	160.812000036
1730.0	0.0001183	160.858999968
1730.0	0.000118	160.891000032
1730.0	0.0001175	160.937000036
1730.0	0.0001178	160.968999863
1740.0	0.0001118	161.266000032
1740.0	0.0001103	161.296999931
1740.0	0.000109	161.343999863
1740.0	0.0001083	161.391000032
1740.0	0.0001078	161.421999931
1740.0	0.0001075	161.468999863
1740.0	0.0001068	161.516000032
1740.0	0.000107	161.546999931
1740.0	0.0001065	161.593999863
1740.0	0.0001058	161.641000032
1740.0	0.0001055	161.671999931
1740.0	0.0001055	161.718999863
1740.0	0.0001055	161.75
1740.0	0.0001055	161.796999931
1740.0	0.000105	161.843999863
1740.0	0.0001053	161.875
1740.0	0.0001055	161.921999931
1740.0	0.0001063	161.968999863
1740.0	0.0001065	162.0
1740.0	0.0001063	162.046999931
1740.0	0.0001063	162.078000069
1740.0	0.0001063	162.125
1740.0	0.0001063	162.171999931
1740.0	0.0001058	162.203000069
1740.0	0.0001058	162.25
1740.0	0.0001055	162.296999931
1740.0	0.0001063	162.328000069
1740.0	0.0001063	162.375
1740.0	0.0001058	162.405999899
1740.0	0.0001055	162.453000069
1740.0	0.0001055	162.5
1740.0	0.0001063	162.530999899
1740.0	0.0001065	162.578000069
1740.0	0.0001063	162.625
1740.0	0.0001063	162.655999899
1740.0	0.0001058	162.703000069
1740.0	0.0001063	162.75
1750.0	0.0001015	163.030999899
1750.0	9.95e-05	163.078000069
1750.0	9.88e-05	163.108999968
1750.0	9.78e-05	163.155999899
1750.0	9.65e-05	163.203000069
1750.0	9.65e-05	163.233999968
1750.0	9.58e-05	163.280999899
1750.0	9.55e-05	163.312000036
1750.0	9.55e-05	163.358999968
1750.0	9.53e-05	163.405999899
1750.0	9.45e-05	163.437000036
1750.0	9.43e-05	163.483999968
1750.0	9.5e-05	163.530999899
1750.0	9.53e-05	163.562000036
1750.0	9.53e-05	163.608999968
1750.0	9.55e-05	163.655999899
1750.0	9.55e-05	163.687000036
1750.0	9.63e-05	163.733999968
1750.0	9.58e-05	163.766000032
1750.0	9.58e-05	163.812000036
1750.0	9.63e-05	163.858999968
1750.0	9.58e-05	163.905999899
1750.0	9.63e-05	163.937000036
1750.0	9.65e-05	163.983999968
1750.0	9.63e-05	164.016000032
1750.0	9.55e-05	164.062000036
1750.0	9.5e-05	164.108999968
1750.0	9.55e-05	164.141000032
1750.0	9.58e-05	164.187000036
1750.0	9.58e-05	164.233999968
1750.0	9.63e-05	164.266000032
1750.0	9.65e-05	164.312000036
1750.0	9.65e-05	164.358999968
1750.0	9.63e-05	164.391000032
1750.0	9.63e-05	164.437000036
1750.0	9.58e-05	164.468999863
1750.0	9.63e-05	164.516000032
1760.0	9.28e-05	164.796999931
1760.0	9.13e-05	164.843999863
1760.0	9.05e-05	164.891000032
1760.0	8.95e-05	164.937000036
1760.0	8.93e-05	164.968999863
1760.0	8.88e-05	165.016000032
1760.0	8.88e-05	165.046999931
1760.0	8.8e-05	165.093999863
1760.0	8.83e-05	165.141000032
1760.0	8.83e-05	165.171999931
1760.0	8.83e-05	165.218999863
1760.0	8.83e-05	165.266000032
1760.0	8.83e-05	165.296999931
1760.0	8.83e-05	165.343999863
1760.0	8.83e-05	165.391000032
1760.0	8.78e-05	165.421999931
1760.0	8.75e-05	165.468999863
1760.0	8.78e-05	165.5
1760.0	8.8e-05	165.546999931
1760.0	8.8e-05	165.593999863
1760.0	8.78e-05	165.625
1760.0	8.78e-05	165.671999931
1760.0	8.83e-05	165.718999863
1760.0	8.83e-05	165.75
1760.0	8.83e-05	165.796999931
1760.0	8.88e-05	165.828000069
1760.0	8.88e-05	165.875
1760.0	8.9e-05	165.921999931
1760.0	8.88e-05	165.953000069
1760.0	8.83e-05	166.0
1760.0	8.83e-05	166.046999931
1760.0	8.88e-05	166.078000069
1760.0	8.83e-05	166.125
1760.0	8.8e-05	166.155999899
1760.0	8.83e-05	166.203000069
1760.0	8.83e-05	166.25
1760.0	8.9e-05	166.280999899
1770.0	8.53e-05	166.578000069
1770.0	8.43e-05	166.608999968
1770.0	8.4e-05	166.655999899
1770.0	8.33e-05	166.703000069
1770.0	8.25e-05	166.733999968
1770.0	8.15e-05	166.780999899
1770.0	8.08e-05	166.812000036
1770.0	8.05e-05	166.858999968
1770.0	8.05e-05	166.905999899
1770.0	8e-05	166.937000036
1770.0	8e-05	166.983999968
1770.0	8e-05	167.030999899
1770.0	8.05e-05	167.062000036
1770.0	8.13e-05	167.108999968
1770.0	8.08e-05	167.155999899
1770.0	8.08e-05	167.187000036
1770.0	8.15e-05	167.233999968
1770.0	8.13e-05	167.280999899
1770.0	8.13e-05	167.312000036
1770.0	8.05e-05	167.358999968
1770.0	8.03e-05	167.405999899
1770.0	8.03e-05	167.437000036
1770.0	8.08e-05	167.483999968
1770.0	8.13e-05	167.516000032
1770.0	8.13e-05	167.562000036
1770.0	8.08e-05	167.608999968
1770.0	8.15e-05	167.641000032
1770.0	8.13e-05	167.687000036
1770.0	8.13e-05	167.733999968
1770.0	8.08e-05	167.766000032
1770.0	8.05e-05	167.812000036
1770.0	8.05e-05	167.843999863
1770.0	8.08e-05	167.891000032
1770.0	8.05e-05	167.937000036
1770.0	8.08e-05	167.968999863
1770.0	8.05e-05	168.016000032
1770.0	8.08e-05	168.062000036
1780.0	7.8e-05	168.343999863
1780.0	7.68e-05	168.391000032
1780.0	7.58e-05	168.437000036
1780.0	7.53e-05	168.468999863
1780.0	7.45e-05	168.516000032
1780.0	7.43e-05	168.546999931
1780.0	7.4e-05	168.593999863
1780.0	7.38e-05	168.641000032
1780.0	7.38e-05	168.671999931
1780.0	7.33e-05	168.718999863
1780.0	7.33e-05	168.766000032
1780.0	7.3e-05	168.796999931
1780.0	7.33e-05	168.843999863
1780.0	7.38e-05	168.875
1780.0	7.33e-05	168.921999931
1780.0	7.33e-05	168.968999863
1780.0	7.33e-05	169.0
1780.0	7.38e-05	169.046999931
1780.0	7.33e-05	169.093999863
1780.0	7.3e-05	169.125
1780.0	7.28e-05	169.171999931
1780.0	7.25e-05	169.218999863
1780.0	7.28e-05	169.25
1780.0	7.28e-05	169.296999931
1780.0	7.28e-05	169.328000069
1780.0	7.3e-05	169.375
1780.0	7.28e-05	169.421999931
1780.0	7.28e-05	169.468999863
1780.0	7.3e-05	169.5
1780.0	7.33e-05	169.546999931
1780.0	7.38e-05	169.593999863
1780.0	7.38e-05	169.641000032
1780.0	7.38e-05	169.671999931
1780.0	7.38e-05	169.718999863
1780.0	7.3e-05	169.75
1780.0	7.25e-05	169.796999931
1780.0	7.25e-05	169.843999863
1790.0	7e-05	170.125
1790.0	6.93e-05	170.171999931
1790.0	6.83e-05	170.203000069
1790.0	6.8e-05	170.25
1790.0	6.78e-05	170.296999931
1790.0	6.78e-05	170.328000069
1790.0	6.75e-05	170.375
1790.0	6.7e-05	170.421999931
1790.0	6.68e-05	170.453000069
1790.0	6.68e-05	170.5
1790.0	6.68e-05	170.530999899
1790.0	6.65e-05	170.578000069
1790.0	6.63e-05	170.625
1790.0	6.63e-05	170.655999899
1790.0	6.63e-05	170.703000069
1790.0	6.58e-05	170.75
1790.0	6.55e-05	170.780999899
1790.0	6.53e-05	170.828000069
1790.0	6.53e-05	170.858999968
1790.0	6.53e-05	170.905999899
1790.0	6.5e-05	170.953000069
1790.0	6.5e-05	171.0
1790.0	6.53e-05	171.030999899
1790.0	6.53e-05	171.078000069
1790.0	6.55e-05	171.108999968
1790.0	6.63e-05	171.155999899
1790.0	6.55e-05	171.203000069
1790.0	6.55e-05	171.233999968
1790.0	6.53e-05	171.280999899
1790.0	6.55e-05	171.328000069
1790.0	6.53e-05	171.358999968
1790.0	6.53e-05	171.405999899
1790.0	6.55e-05	171.437000036
1790.0	6.63e-05	171.483999968
1790.0	6.63e-05	171.530999899
1790.0	6.63e-05	171.562000036
1790.0	6.63e-05	171.608999968
1800.0	6.3e-05	171.905999899
1800.0	6.2e-05	171.937000036
1800.0	6.08e-05	171.983999968
1800.0	6.03e-05	172.030999899
1800.0	6e-05	172.062000036
1800.0	5.93e-05	172.108999968
1800.0	5.9e-05	172.141000032
1800.0	5.88e-05	172.187000036
1800.0	5.88e-05	172.233999968
1800.0	5.9e-05	172.266000032
1800.0	5.93e-05	172.312000036
1800.0	5.9e-05	172.358999968
1800.0	5.9e-05	172.391000032
1800.0	5.93e-05	172.437000036
1800.0	5.93e-05	172.468999863
1800.0	5.88e-05	172.516000032
1800.0	5.83e-05	172.562000036
1800.0	5.88e-05	172.593999863
1800.0	5.88e-05	172.641000032
1800.0	5.9e-05	172.687000036
1800.0	5.93e-05	172.718999863
1800.0	5.93e-05	172.766000032
1800.0	5.9e-05	172.796999931
1800.0	5.9e-05	172.843999863
1800.0	5.93e-05	172.891000032
1800.0	5.93e-05	172.921999931
1800.0	5.93e-05	172.968999863
1800.0	5.93e-05	173.016000032
1800.0	5.93e-05	173.062000036
1800.0	5.9e-05	173.093999863
1800.0	5.88e-05	173.141000032
1800.0	5.83e-05	173.171999931
1800.0	5.88e-05	173.218999863
1800.0	5.88e-05	173.266000032
1800.0	5.88e-05	173.296999931
1800.0	5.88e-05	173.343999863
1800.0	5.88e-05	173.391000032
