Your edit line - do NOT delete this line
Wavelength [nm], Voltage [V], Elapsed time [s]
700.0	1.72e-05	7.81200003624
700.0	1.7e-05	7.85899996758
700.0	1.66e-05	7.8900001049
700.0	1.65e-05	7.92200016975
700.0	1.66e-05	7.96900010109
700.0	1.68e-05	8.0
700.0	1.72e-05	8.03100013733
700.0	1.76e-05	8.07800006866
700.0	1.75e-05	8.10899996758
700.0	1.72e-05	8.1400001049
700.0	1.71e-05	8.18700003624
700.0	1.72e-05	8.21900010109
700.0	1.72e-05	8.2650001049
700.0	1.77e-05	8.29700016975
700.0	1.81e-05	8.34400010109
700.0	1.78e-05	8.375
700.0	1.78e-05	8.40600013733
700.0	1.81e-05	8.45300006866
700.0	1.78e-05	8.48399996758
700.0	1.78e-05	8.5150001049
700.0	1.83e-05	8.56200003624
700.0	1.85e-05	8.59400010109
700.0	1.83e-05	8.625
700.0	1.83e-05	8.67200016975
700.0	1.83e-05	8.70300006866
700.0	1.83e-05	8.75
700.0	1.83e-05	8.78100013733
700.0	1.83e-05	8.81200003624
700.0	1.82e-05	8.85899996758
700.0	1.83e-05	8.8900001049
700.0	1.85e-05	8.92200016975
700.0	1.82e-05	8.96900010109
700.0	1.78e-05	9.0
700.0	1.76e-05	9.03100013733
700.0	1.78e-05	9.07800006866
700.0	1.82e-05	9.10899996758
700.0	1.83e-05	9.15600013733
700.0	1.85e-05	9.18700003624
700.0	1.85e-05	9.21900010109
700.0	1.83e-05	9.2650001049
700.0	1.82e-05	9.29700016975
710.0	1.85e-05	9.70300006866
710.0	1.87e-05	9.75
710.0	1.9e-05	9.79700016975
710.0	1.95e-05	9.82800006866
710.0	2e-05	9.85899996758
710.0	2e-05	9.90600013733
710.0	2.01e-05	9.93700003624
710.0	2.01e-05	9.96900010109
710.0	2.01e-05	10.0150001049
710.0	2e-05	10.0470001698
710.0	1.96e-05	10.0780000687
710.0	1.96e-05	10.125
710.0	1.95e-05	10.1560001373
710.0	1.91e-05	10.2030000687
710.0	1.87e-05	10.2339999676
710.0	1.85e-05	10.2650001049
710.0	1.83e-05	10.3120000362
710.0	1.85e-05	10.3440001011
710.0	1.88e-05	10.375
710.0	1.87e-05	10.4220001698
710.0	1.87e-05	10.4530000687
710.0	1.87e-05	10.4839999676
710.0	1.88e-05	10.5310001373
710.0	1.93e-05	10.5620000362
710.0	1.93e-05	10.6089999676
710.0	1.95e-05	10.6400001049
710.0	1.96e-05	10.6720001698
710.0	1.97e-05	10.7190001011
710.0	2e-05	10.75
710.0	2e-05	10.7810001373
710.0	2.01e-05	10.8280000687
710.0	1.96e-05	10.8589999676
710.0	1.93e-05	10.9060001373
710.0	1.9e-05	10.9370000362
710.0	1.88e-05	10.9690001011
710.0	1.9e-05	11.0150001049
710.0	1.91e-05	11.0470001698
710.0	1.93e-05	11.0780000687
710.0	1.95e-05	11.125
710.0	1.96e-05	11.1560001373
720.0	2.01e-05	11.5940001011
720.0	2.06e-05	11.6400001049
720.0	2.07e-05	11.6720001698
720.0	2.12e-05	11.7190001011
720.0	2.12e-05	11.75
720.0	2.13e-05	11.7810001373
720.0	2.16e-05	11.8280000687
720.0	2.16e-05	11.8589999676
720.0	2.15e-05	11.8900001049
720.0	2.16e-05	11.9370000362
720.0	2.2e-05	11.9690001011
720.0	2.2e-05	12.0150001049
720.0	2.22e-05	12.0470001698
720.0	2.21e-05	12.0780000687
720.0	2.25e-05	12.125
720.0	2.26e-05	12.1560001373
720.0	2.27e-05	12.1870000362
720.0	2.27e-05	12.2339999676
720.0	2.27e-05	12.2650001049
720.0	2.26e-05	12.2970001698
720.0	2.25e-05	12.3440001011
720.0	2.22e-05	12.375
720.0	2.21e-05	12.4220001698
720.0	2.18e-05	12.4530000687
720.0	2.16e-05	12.4839999676
720.0	2.16e-05	12.5310001373
720.0	2.16e-05	12.5620000362
720.0	2.16e-05	12.5940001011
720.0	2.16e-05	12.6400001049
720.0	2.13e-05	12.6720001698
720.0	2.12e-05	12.7030000687
720.0	2.1e-05	12.75
720.0	2.08e-05	12.7810001373
720.0	2.1e-05	12.8280000687
720.0	2.12e-05	12.8589999676
720.0	2.13e-05	12.8900001049
720.0	2.13e-05	12.9370000362
720.0	2.15e-05	12.9690001011
720.0	2.15e-05	13.0
720.0	2.16e-05	13.0470001698
720.0	2.18e-05	13.0780000687
730.0	2.27e-05	13.4690001011
730.0	2.31e-05	13.5150001049
730.0	2.32e-05	13.5470001698
730.0	2.37e-05	13.5940001011
730.0	2.41e-05	13.625
730.0	2.45e-05	13.6560001373
730.0	2.45e-05	13.7030000687
730.0	2.45e-05	13.7339999676
730.0	2.45e-05	13.7650001049
730.0	2.45e-05	13.8120000362
730.0	2.4e-05	13.8440001011
730.0	2.38e-05	13.875
730.0	2.4e-05	13.9220001698
730.0	2.43e-05	13.9530000687
730.0	2.45e-05	13.9839999676
730.0	2.46e-05	14.0310001373
730.0	2.43e-05	14.0620000362
730.0	2.43e-05	14.1089999676
730.0	2.41e-05	14.1400001049
730.0	2.4e-05	14.1720001698
730.0	2.41e-05	14.2190001011
730.0	2.4e-05	14.25
730.0	2.4e-05	14.2810001373
730.0	2.45e-05	14.3280000687
730.0	2.46e-05	14.3589999676
730.0	2.46e-05	14.3900001049
730.0	2.46e-05	14.4370000362
730.0	2.45e-05	14.4690001011
730.0	2.46e-05	14.5150001049
730.0	2.45e-05	14.5470001698
730.0	2.41e-05	14.5780000687
730.0	2.43e-05	14.625
730.0	2.43e-05	14.6560001373
730.0	2.46e-05	14.6870000362
730.0	2.46e-05	14.7339999676
730.0	2.46e-05	14.7650001049
730.0	2.5e-05	14.8120000362
730.0	2.52e-05	14.8440001011
730.0	2.5e-05	14.875
730.0	2.46e-05	14.9220001698
730.0	2.46e-05	14.9530000687
740.0	2.45e-05	15.3440001011
740.0	2.46e-05	15.375
740.0	2.47e-05	15.4060001373
740.0	2.5e-05	15.4530000687
740.0	2.51e-05	15.4839999676
740.0	2.52e-05	15.5310001373
740.0	2.56e-05	15.5620000362
740.0	2.56e-05	15.5940001011
740.0	2.57e-05	15.6400001049
740.0	2.58e-05	15.6720001698
740.0	2.57e-05	15.7030000687
740.0	2.58e-05	15.75
740.0	2.58e-05	15.7810001373
740.0	2.6e-05	15.8120000362
740.0	2.58e-05	15.8589999676
740.0	2.56e-05	15.8900001049
740.0	2.51e-05	15.9370000362
740.0	2.51e-05	15.9690001011
740.0	2.56e-05	16.0
740.0	2.56e-05	16.0470001698
740.0	2.57e-05	16.0780000687
740.0	2.6e-05	16.1089999676
740.0	2.58e-05	16.1560001373
740.0	2.56e-05	16.1870000362
740.0	2.56e-05	16.2190001011
740.0	2.53e-05	16.2650001049
740.0	2.53e-05	16.2970001698
740.0	2.57e-05	16.3440001011
740.0	2.57e-05	16.375
740.0	2.57e-05	16.4060001373
740.0	2.53e-05	16.4530000687
740.0	2.51e-05	16.4839999676
740.0	2.51e-05	16.5150001049
740.0	2.52e-05	16.5620000362
740.0	2.53e-05	16.5940001011
740.0	2.57e-05	16.6400001049
740.0	2.62e-05	16.6720001698
740.0	2.66e-05	16.7030000687
740.0	2.7e-05	16.75
740.0	2.71e-05	16.7810001373
740.0	2.68e-05	16.8120000362
750.0	2.7e-05	17.1870000362
750.0	2.72e-05	17.2339999676
750.0	2.75e-05	17.2650001049
750.0	2.77e-05	17.3120000362
750.0	2.82e-05	17.3440001011
750.0	2.83e-05	17.375
750.0	2.85e-05	17.4220001698
750.0	2.83e-05	17.4530000687
750.0	2.82e-05	17.4839999676
750.0	2.83e-05	17.5310001373
750.0	2.82e-05	17.5620000362
750.0	2.77e-05	17.6089999676
750.0	2.72e-05	17.6400001049
750.0	2.7e-05	17.6870000362
750.0	2.68e-05	17.7190001011
750.0	2.7e-05	17.75
750.0	2.71e-05	17.7970001698
750.0	2.75e-05	17.8280000687
750.0	2.78e-05	17.8589999676
750.0	2.81e-05	17.9060001373
750.0	2.82e-05	17.9370000362
750.0	2.82e-05	17.9690001011
750.0	2.82e-05	18.0150001049
750.0	2.83e-05	18.0470001698
750.0	2.83e-05	18.0940001011
750.0	2.83e-05	18.125
750.0	2.82e-05	18.1560001373
750.0	2.82e-05	18.2030000687
750.0	2.81e-05	18.2339999676
750.0	2.81e-05	18.2650001049
750.0	2.81e-05	18.3120000362
750.0	2.78e-05	18.3440001011
750.0	2.78e-05	18.3900001049
750.0	2.77e-05	18.4220001698
750.0	2.78e-05	18.4530000687
750.0	2.77e-05	18.5
750.0	2.76e-05	18.5310001373
750.0	2.77e-05	18.5620000362
750.0	2.78e-05	18.6089999676
750.0	2.82e-05	18.6400001049
750.0	2.85e-05	18.6720001698
760.0	3.03e-05	19.0470001698
760.0	3.01e-05	19.0780000687
760.0	3e-05	19.125
760.0	3.06e-05	19.1560001373
760.0	3.08e-05	19.2030000687
760.0	3.1e-05	19.2339999676
760.0	3.08e-05	19.2650001049
760.0	3.08e-05	19.3120000362
760.0	3.1e-05	19.3440001011
760.0	3.13e-05	19.375
760.0	3.15e-05	19.4220001698
760.0	3.18e-05	19.4530000687
760.0	3.16e-05	19.4839999676
760.0	3.15e-05	19.5310001373
760.0	3.1e-05	19.5620000362
760.0	3.07e-05	19.6089999676
760.0	3.06e-05	19.6400001049
760.0	3.06e-05	19.6720001698
760.0	3.06e-05	19.7190001011
760.0	3.08e-05	19.75
760.0	3.1e-05	19.7810001373
760.0	3.1e-05	19.8280000687
760.0	3.07e-05	19.8589999676
760.0	3.02e-05	19.8900001049
760.0	3.02e-05	19.9370000362
760.0	3e-05	19.9690001011
760.0	2.96e-05	20.0150001049
760.0	2.97e-05	20.0470001698
760.0	3.01e-05	20.0780000687
760.0	3.02e-05	20.125
760.0	3.02e-05	20.1560001373
760.0	3.02e-05	20.1870000362
760.0	3.03e-05	20.2339999676
760.0	3.06e-05	20.2650001049
760.0	3.06e-05	20.3120000362
760.0	3.03e-05	20.3440001011
760.0	3.03e-05	20.375
760.0	3.02e-05	20.4220001698
760.0	3.03e-05	20.4530000687
760.0	3.07e-05	20.5
770.0	3.1e-05	20.8440001011
770.0	3.08e-05	20.8900001049
770.0	3.12e-05	20.9220001698
770.0	3.13e-05	20.9690001011
770.0	3.18e-05	21.0
770.0	3.25e-05	21.0310001373
770.0	3.28e-05	21.0780000687
770.0	3.28e-05	21.1089999676
770.0	3.31e-05	21.1400001049
770.0	3.32e-05	21.1870000362
770.0	3.33e-05	21.2190001011
770.0	3.33e-05	21.2650001049
770.0	3.33e-05	21.2970001698
770.0	3.31e-05	21.3280000687
770.0	3.28e-05	21.375
770.0	3.27e-05	21.4060001373
770.0	3.25e-05	21.4370000362
770.0	3.26e-05	21.4839999676
770.0	3.27e-05	21.5150001049
770.0	3.28e-05	21.5470001698
770.0	3.31e-05	21.5940001011
770.0	3.32e-05	21.625
770.0	3.32e-05	21.6560001373
770.0	3.27e-05	21.7030000687
770.0	3.26e-05	21.7339999676
770.0	3.27e-05	21.7810001373
770.0	3.27e-05	21.8120000362
770.0	3.32e-05	21.8440001011
770.0	3.35e-05	21.8900001049
770.0	3.33e-05	21.9220001698
770.0	3.31e-05	21.9530000687
770.0	3.25e-05	22.0
770.0	3.22e-05	22.0310001373
770.0	3.25e-05	22.0780000687
770.0	3.27e-05	22.1089999676
770.0	3.32e-05	22.1400001049
770.0	3.33e-05	22.1870000362
770.0	3.33e-05	22.2190001011
770.0	3.32e-05	22.25
770.0	3.33e-05	22.2970001698
770.0	3.33e-05	22.3280000687
780.0	3.46e-05	22.6720001698
780.0	3.46e-05	22.7190001011
780.0	3.45e-05	22.75
780.0	3.43e-05	22.7810001373
780.0	3.43e-05	22.8280000687
780.0	3.43e-05	22.8589999676
780.0	3.46e-05	22.9060001373
780.0	3.45e-05	22.9370000362
780.0	3.43e-05	22.9690001011
780.0	3.43e-05	23.0150001049
780.0	3.45e-05	23.0470001698
780.0	3.43e-05	23.0780000687
780.0	3.41e-05	23.125
780.0	3.38e-05	23.1560001373
780.0	3.37e-05	23.2030000687
780.0	3.38e-05	23.2339999676
780.0	3.4e-05	23.2810001373
780.0	3.41e-05	23.3120000362
780.0	3.43e-05	23.3440001011
780.0	3.45e-05	23.3900001049
780.0	3.47e-05	23.4220001698
780.0	3.51e-05	23.4690001011
780.0	3.5e-05	23.5
780.0	3.52e-05	23.5310001373
780.0	3.52e-05	23.5780000687
780.0	3.53e-05	23.6089999676
780.0	3.56e-05	23.6400001049
780.0	3.58e-05	23.6870000362
780.0	3.62e-05	23.7190001011
780.0	3.62e-05	23.7650001049
780.0	3.6e-05	23.7970001698
780.0	3.6e-05	23.8280000687
780.0	3.62e-05	23.875
780.0	3.6e-05	23.9060001373
780.0	3.62e-05	23.9370000362
780.0	3.6e-05	23.9839999676
780.0	3.6e-05	24.0150001049
780.0	3.6e-05	24.0470001698
780.0	3.62e-05	24.0940001011
780.0	3.58e-05	24.125
780.0	3.57e-05	24.1720001698
790.0	3.6e-05	24.5
790.0	3.62e-05	24.5470001698
790.0	3.63e-05	24.5780000687
790.0	3.63e-05	24.6089999676
790.0	3.68e-05	24.6560001373
790.0	3.71e-05	24.6870000362
790.0	3.72e-05	24.7339999676
790.0	3.72e-05	24.7650001049
790.0	3.75e-05	24.7970001698
790.0	3.75e-05	24.8440001011
790.0	3.75e-05	24.875
790.0	3.72e-05	24.9060001373
790.0	3.71e-05	24.9530000687
790.0	3.71e-05	24.9839999676
790.0	3.71e-05	25.0310001373
790.0	3.68e-05	25.0620000362
790.0	3.7e-05	25.0940001011
790.0	3.68e-05	25.1400001049
790.0	3.68e-05	25.1720001698
790.0	3.68e-05	25.2030000687
790.0	3.7e-05	25.25
790.0	3.7e-05	25.2810001373
790.0	3.7e-05	25.3120000362
790.0	3.72e-05	25.3589999676
790.0	3.72e-05	25.3900001049
790.0	3.77e-05	25.4370000362
790.0	3.77e-05	25.4690001011
790.0	3.77e-05	25.5150001049
790.0	3.76e-05	25.5470001698
790.0	3.77e-05	25.5940001011
790.0	3.75e-05	25.625
790.0	3.72e-05	25.6560001373
790.0	3.72e-05	25.7030000687
790.0	3.75e-05	25.7339999676
790.0	3.71e-05	25.7650001049
790.0	3.7e-05	25.8120000362
790.0	3.71e-05	25.8440001011
790.0	3.71e-05	25.875
790.0	3.71e-05	25.9220001698
790.0	3.68e-05	25.9530000687
790.0	3.66e-05	26.0
800.0	3.85e-05	26.3280000687
800.0	3.9e-05	26.3589999676
800.0	3.93e-05	26.4060001373
800.0	3.97e-05	26.4370000362
800.0	4e-05	26.4839999676
800.0	3.97e-05	26.5150001049
800.0	3.97e-05	26.5620000362
800.0	3.97e-05	26.5940001011
800.0	4e-05	26.625
800.0	4.02e-05	26.6720001698
800.0	4.02e-05	26.7030000687
800.0	4.02e-05	26.7339999676
800.0	4.06e-05	26.7810001373
800.0	4.07e-05	26.8120000362
800.0	4.07e-05	26.8440001011
800.0	4.03e-05	26.8900001049
800.0	4.07e-05	26.9220001698
800.0	4.1e-05	26.9690001011
800.0	4.06e-05	27.0
800.0	4.06e-05	27.0310001373
800.0	4.03e-05	27.0780000687
800.0	4.02e-05	27.1089999676
800.0	4.02e-05	27.1400001049
800.0	4.02e-05	27.1870000362
800.0	4.02e-05	27.2190001011
800.0	4.06e-05	27.2650001049
800.0	4.06e-05	27.2970001698
800.0	4.07e-05	27.3280000687
800.0	4.07e-05	27.375
800.0	4.06e-05	27.4060001373
800.0	4.06e-05	27.4370000362
800.0	4.08e-05	27.4839999676
800.0	4.07e-05	27.5150001049
800.0	4.06e-05	27.5470001698
800.0	4.06e-05	27.5940001011
800.0	4.06e-05	27.625
800.0	4.07e-05	27.6720001698
800.0	4.06e-05	27.7030000687
800.0	4.03e-05	27.75
800.0	4.02e-05	27.7810001373
800.0	4.03e-05	27.8120000362
810.0	4.2e-05	28.1560001373
810.0	4.25e-05	28.1870000362
810.0	4.27e-05	28.2190001011
810.0	4.28e-05	28.2650001049
810.0	4.27e-05	28.2970001698
810.0	4.26e-05	28.3440001011
810.0	4.27e-05	28.375
810.0	4.27e-05	28.4060001373
810.0	4.31e-05	28.4530000687
810.0	4.33e-05	28.4839999676
810.0	4.32e-05	28.5150001049
810.0	4.32e-05	28.5620000362
810.0	4.27e-05	28.5940001011
810.0	4.26e-05	28.6400001049
810.0	4.27e-05	28.6720001698
810.0	4.32e-05	28.7030000687
810.0	4.35e-05	28.75
810.0	4.35e-05	28.7810001373
810.0	4.37e-05	28.8120000362
810.0	4.4e-05	28.8589999676
810.0	4.38e-05	28.8900001049
810.0	4.35e-05	28.9220001698
810.0	4.37e-05	28.9690001011
810.0	4.35e-05	29.0
810.0	4.35e-05	29.0470001698
810.0	4.33e-05	29.0780000687
810.0	4.31e-05	29.1089999676
810.0	4.28e-05	29.1560001373
810.0	4.28e-05	29.1870000362
810.0	4.28e-05	29.2190001011
810.0	4.28e-05	29.2650001049
810.0	4.31e-05	29.2970001698
810.0	4.33e-05	29.3440001011
810.0	4.35e-05	29.375
810.0	4.37e-05	29.4220001698
810.0	4.35e-05	29.4530000687
810.0	4.32e-05	29.4839999676
810.0	4.33e-05	29.5310001373
810.0	4.31e-05	29.5620000362
810.0	4.33e-05	29.5940001011
810.0	4.37e-05	29.6400001049
820.0	4.43e-05	30.2190001011
820.0	4.45e-05	30.25
820.0	4.46e-05	30.2810001373
820.0	4.46e-05	30.3280000687
820.0	4.46e-05	30.3589999676
820.0	4.45e-05	30.3900001049
820.0	4.43e-05	30.4370000362
820.0	4.46e-05	30.4690001011
820.0	4.5e-05	30.5
820.0	4.52e-05	30.5470001698
820.0	4.56e-05	30.5780000687
820.0	4.58e-05	30.625
820.0	4.58e-05	30.6560001373
820.0	4.58e-05	30.6870000362
820.0	4.58e-05	30.7339999676
820.0	4.62e-05	30.7650001049
820.0	4.63e-05	30.7970001698
820.0	4.62e-05	30.8440001011
820.0	4.63e-05	30.875
820.0	4.66e-05	30.9060001373
820.0	4.65e-05	30.9530000687
820.0	4.65e-05	30.9839999676
820.0	4.63e-05	31.0310001373
820.0	4.65e-05	31.0620000362
820.0	4.68e-05	31.0940001011
820.0	4.68e-05	31.1400001049
820.0	4.68e-05	31.1720001698
820.0	4.66e-05	31.2030000687
820.0	4.68e-05	31.25
820.0	4.7e-05	31.2810001373
820.0	4.7e-05	31.3120000362
820.0	4.68e-05	31.3589999676
820.0	4.68e-05	31.3900001049
820.0	4.68e-05	31.4370000362
820.0	4.68e-05	31.4690001011
820.0	4.66e-05	31.5150001049
820.0	4.65e-05	31.5470001698
820.0	4.65e-05	31.5780000687
820.0	4.62e-05	31.625
820.0	4.58e-05	31.6560001373
820.0	4.58e-05	31.6870000362
830.0	4.83e-05	32.0150001049
830.0	4.88e-05	32.0470001698
830.0	4.95e-05	32.0940001011
830.0	5.02e-05	32.125
830.0	5.08e-05	32.1560001373
830.0	5.1e-05	32.2030000687
830.0	5.1e-05	32.2339999676
830.0	5.08e-05	32.2650001049
830.0	5.07e-05	32.3120000362
830.0	5.07e-05	32.3440001011
830.0	5.07e-05	32.3900001049
830.0	5.06e-05	32.4220001698
830.0	5.06e-05	32.4530000687
830.0	5.06e-05	32.5
830.0	5.06e-05	32.5310001373
830.0	5.07e-05	32.5620000362
830.0	5.08e-05	32.6089999676
830.0	5.1e-05	32.6400001049
830.0	5.1e-05	32.6720001698
830.0	5.07e-05	32.7190001011
830.0	5.03e-05	32.75
830.0	5.06e-05	32.7970001698
830.0	5.07e-05	32.8280000687
830.0	5.07e-05	32.8589999676
830.0	5.06e-05	32.9060001373
830.0	5.07e-05	32.9370000362
830.0	5.08e-05	32.9690001011
830.0	5.08e-05	33.0150001049
830.0	5.08e-05	33.0470001698
830.0	5.07e-05	33.0940001011
830.0	5.07e-05	33.125
830.0	5.08e-05	33.1560001373
830.0	5.1e-05	33.2030000687
830.0	5.12e-05	33.2339999676
830.0	5.12e-05	33.2650001049
830.0	5.12e-05	33.3120000362
830.0	5.1e-05	33.3440001011
830.0	5.06e-05	33.375
830.0	5.03e-05	33.4220001698
830.0	5.03e-05	33.4530000687
830.0	5.06e-05	33.5
840.0	5.31e-05	33.8120000362
840.0	5.35e-05	33.8589999676
840.0	5.38e-05	33.8900001049
840.0	5.41e-05	33.9220001698
840.0	5.45e-05	33.9690001011
840.0	5.47e-05	34.0
840.0	5.51e-05	34.0470001698
840.0	5.53e-05	34.0780000687
840.0	5.53e-05	34.1089999676
840.0	5.56e-05	34.1560001373
840.0	5.57e-05	34.1870000362
840.0	5.58e-05	34.2339999676
840.0	5.6e-05	34.2650001049
840.0	5.62e-05	34.2970001698
840.0	5.6e-05	34.3440001011
840.0	5.56e-05	34.375
840.0	5.52e-05	34.4060001373
840.0	5.51e-05	34.4530000687
840.0	5.47e-05	34.4839999676
840.0	5.43e-05	34.5310001373
840.0	5.41e-05	34.5620000362
840.0	5.4e-05	34.5940001011
840.0	5.4e-05	34.6400001049
840.0	5.41e-05	34.6720001698
840.0	5.46e-05	34.7030000687
840.0	5.47e-05	34.75
840.0	5.47e-05	34.7810001373
840.0	5.47e-05	34.8120000362
840.0	5.46e-05	34.8589999676
840.0	5.41e-05	34.8900001049
840.0	5.45e-05	34.9370000362
840.0	5.47e-05	34.9690001011
840.0	5.51e-05	35.0
840.0	5.5e-05	35.0470001698
840.0	5.47e-05	35.0780000687
840.0	5.5e-05	35.1089999676
840.0	5.51e-05	35.1560001373
840.0	5.52e-05	35.1870000362
840.0	5.52e-05	35.2190001011
840.0	5.56e-05	35.2650001049
840.0	5.56e-05	35.2970001698
850.0	5.71e-05	35.625
850.0	5.81e-05	35.6560001373
850.0	5.9e-05	35.6870000362
850.0	5.96e-05	35.7339999676
850.0	5.96e-05	35.7650001049
850.0	5.95e-05	35.8120000362
850.0	5.93e-05	35.8440001011
850.0	5.91e-05	35.875
850.0	5.9e-05	35.9220001698
850.0	5.88e-05	35.9530000687
850.0	5.87e-05	35.9839999676
850.0	5.85e-05	36.0310001373
850.0	5.88e-05	36.0620000362
850.0	5.91e-05	36.0940001011
850.0	5.91e-05	36.1400001049
850.0	5.93e-05	36.1720001698
850.0	6e-05	36.2190001011
850.0	6.07e-05	36.25
850.0	6.1e-05	36.2810001373
850.0	6.12e-05	36.3280000687
850.0	6.1e-05	36.3589999676
850.0	6.1e-05	36.3900001049
850.0	6.1e-05	36.4370000362
850.0	6.12e-05	36.4690001011
850.0	6.08e-05	36.5150001049
850.0	6.06e-05	36.5470001698
850.0	6.07e-05	36.5940001011
850.0	6.06e-05	36.625
850.0	6.07e-05	36.6560001373
850.0	6.08e-05	36.7030000687
850.0	6.08e-05	36.7339999676
850.0	6.06e-05	36.7650001049
850.0	6.03e-05	36.8120000362
850.0	6.06e-05	36.8440001011
850.0	6.1e-05	36.875
850.0	6.15e-05	36.9220001698
850.0	6.18e-05	36.9530000687
850.0	6.18e-05	37.0
850.0	6.18e-05	37.0310001373
850.0	6.16e-05	37.0620000362
850.0	6.16e-05	37.1089999676
860.0	6.27e-05	37.4220001698
860.0	6.33e-05	37.4530000687
860.0	6.37e-05	37.4839999676
860.0	6.45e-05	37.5310001373
860.0	6.52e-05	37.5620000362
860.0	6.56e-05	37.6089999676
860.0	6.58e-05	37.6400001049
860.0	6.58e-05	37.6720001698
860.0	6.62e-05	37.7190001011
860.0	6.65e-05	37.75
860.0	6.7e-05	37.7810001373
860.0	6.71e-05	37.8280000687
860.0	6.71e-05	37.8589999676
860.0	6.7e-05	37.9060001373
860.0	6.7e-05	37.9370000362
860.0	6.72e-05	37.9690001011
860.0	6.75e-05	38.0150001049
860.0	6.72e-05	38.0470001698
860.0	6.71e-05	38.0940001011
860.0	6.71e-05	38.125
860.0	6.72e-05	38.1560001373
860.0	6.75e-05	38.2030000687
860.0	6.75e-05	38.2339999676
860.0	6.72e-05	38.2810001373
860.0	6.71e-05	38.3120000362
860.0	6.68e-05	38.3589999676
860.0	6.66e-05	38.3900001049
860.0	6.68e-05	38.4220001698
860.0	6.68e-05	38.4690001011
860.0	6.7e-05	38.5
860.0	6.71e-05	38.5310001373
860.0	6.71e-05	38.5780000687
860.0	6.68e-05	38.6089999676
860.0	6.7e-05	38.6560001373
860.0	6.7e-05	38.6870000362
860.0	6.72e-05	38.7190001011
860.0	6.72e-05	38.7650001049
860.0	6.71e-05	38.7970001698
860.0	6.7e-05	38.8440001011
860.0	6.71e-05	38.875
870.0	7.01e-05	39.1870000362
870.0	7.07e-05	39.2190001011
870.0	7.12e-05	39.2650001049
870.0	7.16e-05	39.2970001698
870.0	7.22e-05	39.3280000687
870.0	7.26e-05	39.375
870.0	7.26e-05	39.4060001373
870.0	7.28e-05	39.4370000362
870.0	7.31e-05	39.4839999676
870.0	7.33e-05	39.5150001049
870.0	7.38e-05	39.5620000362
870.0	7.4e-05	39.5940001011
870.0	7.4e-05	39.625
870.0	7.38e-05	39.6720001698
870.0	7.41e-05	39.7030000687
870.0	7.45e-05	39.7339999676
870.0	7.46e-05	39.7810001373
870.0	7.46e-05	39.8120000362
870.0	7.43e-05	39.8589999676
870.0	7.37e-05	39.8900001049
870.0	7.33e-05	39.9220001698
870.0	7.32e-05	39.9690001011
870.0	7.33e-05	40.0
870.0	7.35e-05	40.0310001373
870.0	7.37e-05	40.0780000687
870.0	7.38e-05	40.1089999676
870.0	7.4e-05	40.1400001049
870.0	7.41e-05	40.1870000362
870.0	7.43e-05	40.2190001011
870.0	7.45e-05	40.2650001049
870.0	7.46e-05	40.2970001698
870.0	7.46e-05	40.3280000687
870.0	7.46e-05	40.375
870.0	7.43e-05	40.4060001373
870.0	7.41e-05	40.4370000362
870.0	7.38e-05	40.4839999676
870.0	7.37e-05	40.5150001049
870.0	7.37e-05	40.5470001698
870.0	7.37e-05	40.5940001011
870.0	7.35e-05	40.625
870.0	7.33e-05	40.6560001373
880.0	7.66e-05	40.9690001011
880.0	7.76e-05	41.0
880.0	7.85e-05	41.0470001698
880.0	7.91e-05	41.0780000687
880.0	7.96e-05	41.1089999676
880.0	8.01e-05	41.1560001373
880.0	8.06e-05	41.1870000362
880.0	8.1e-05	41.2339999676
880.0	8.15e-05	41.2650001049
880.0	8.15e-05	41.2970001698
880.0	8.13e-05	41.3440001011
880.0	8.12e-05	41.375
880.0	8.12e-05	41.4060001373
880.0	8.12e-05	41.4530000687
880.0	8.12e-05	41.4839999676
880.0	8.13e-05	41.5150001049
880.0	8.16e-05	41.5620000362
880.0	8.18e-05	41.5940001011
880.0	8.18e-05	41.6400001049
880.0	8.2e-05	41.6720001698
880.0	8.22e-05	41.7030000687
880.0	8.22e-05	41.75
880.0	8.18e-05	41.7810001373
880.0	8.15e-05	41.8120000362
880.0	8.16e-05	41.8589999676
880.0	8.16e-05	41.8900001049
880.0	8.13e-05	41.9220001698
880.0	8.13e-05	41.9690001011
880.0	8.12e-05	42.0
880.0	8.1e-05	42.0470001698
880.0	8.1e-05	42.0780000687
880.0	8.13e-05	42.1089999676
880.0	8.13e-05	42.1560001373
880.0	8.1e-05	42.1870000362
880.0	8.08e-05	42.2190001011
880.0	8.12e-05	42.2650001049
880.0	8.13e-05	42.2970001698
880.0	8.15e-05	42.3440001011
880.0	8.15e-05	42.375
880.0	8.16e-05	42.4060001373
880.0	8.16e-05	42.4530000687
890.0	8.62e-05	42.75
890.0	8.66e-05	42.7810001373
890.0	8.72e-05	42.8280000687
890.0	8.77e-05	42.8589999676
890.0	8.81e-05	42.8900001049
890.0	8.85e-05	42.9370000362
890.0	8.88e-05	42.9690001011
890.0	8.9e-05	43.0150001049
890.0	8.91e-05	43.0470001698
890.0	8.9e-05	43.0780000687
890.0	8.88e-05	43.125
890.0	8.9e-05	43.1560001373
890.0	8.93e-05	43.1870000362
890.0	8.95e-05	43.2339999676
890.0	9e-05	43.2650001049
890.0	9.01e-05	43.3120000362
890.0	9e-05	43.3440001011
890.0	9.02e-05	43.375
890.0	9.07e-05	43.4220001698
890.0	9.1e-05	43.4530000687
890.0	9.15e-05	43.4839999676
890.0	9.16e-05	43.5310001373
890.0	9.12e-05	43.5620000362
890.0	9.12e-05	43.6089999676
890.0	9.12e-05	43.6400001049
890.0	9.12e-05	43.6720001698
890.0	9.1e-05	43.7190001011
890.0	9.07e-05	43.75
890.0	9.02e-05	43.7970001698
890.0	9e-05	43.8280000687
890.0	9e-05	43.8589999676
890.0	9e-05	43.9060001373
890.0	8.97e-05	43.9370000362
890.0	9e-05	43.9690001011
890.0	9.02e-05	44.0150001049
890.0	9.03e-05	44.0470001698
890.0	9.06e-05	44.0940001011
890.0	9.07e-05	44.125
890.0	9.08e-05	44.1560001373
890.0	9.07e-05	44.2030000687
890.0	9.07e-05	44.2339999676
900.0	9.38e-05	44.5310001373
900.0	9.47e-05	44.5620000362
900.0	9.57e-05	44.6089999676
900.0	9.65e-05	44.6400001049
900.0	9.71e-05	44.6870000362
900.0	9.76e-05	44.7190001011
900.0	9.82e-05	44.75
900.0	9.85e-05	44.7970001698
900.0	9.88e-05	44.8280000687
900.0	9.9e-05	44.8589999676
900.0	9.9e-05	44.9060001373
900.0	9.9e-05	44.9370000362
900.0	9.9e-05	44.9839999676
900.0	9.9e-05	45.0150001049
900.0	9.95e-05	45.0470001698
900.0	9.97e-05	45.0940001011
900.0	9.96e-05	45.125
900.0	9.95e-05	45.1560001373
900.0	9.93e-05	45.2030000687
900.0	9.93e-05	45.2339999676
900.0	9.93e-05	45.2650001049
900.0	9.95e-05	45.3120000362
900.0	9.95e-05	45.3440001011
900.0	9.93e-05	45.3900001049
900.0	9.91e-05	45.4220001698
900.0	9.93e-05	45.4530000687
900.0	9.93e-05	45.5
900.0	9.95e-05	45.5310001373
900.0	9.93e-05	45.5620000362
900.0	9.95e-05	45.6089999676
900.0	0.0001001	45.6400001049
900.0	0.0001003	45.6870000362
900.0	0.0001003	45.7339999676
900.0	0.000101	45.7650001049
900.0	0.0001012	45.8120000362
900.0	0.000101	45.8589999676
900.0	0.0001007	45.8900001049
900.0	0.0001002	45.9370000362
900.0	0.0001	45.9839999676
900.0	9.95e-05	46.0150001049
910.0	0.000105	46.3280000687
910.0	0.0001063	46.3589999676
910.0	0.0001076	46.4060001373
910.0	0.0001082	46.4530000687
910.0	0.0001087	46.4839999676
910.0	0.0001091	46.5310001373
910.0	0.0001096	46.5780000687
910.0	0.0001102	46.6089999676
910.0	0.0001108	46.6560001373
910.0	0.0001113	46.6870000362
910.0	0.0001115	46.7339999676
910.0	0.0001116	46.7810001373
910.0	0.0001116	46.8120000362
910.0	0.0001115	46.8589999676
910.0	0.0001115	46.9060001373
910.0	0.0001115	46.9370000362
910.0	0.0001115	46.9839999676
910.0	0.0001112	47.0150001049
910.0	0.0001107	47.0620000362
910.0	0.0001103	47.1089999676
910.0	0.0001102	47.1400001049
910.0	0.0001101	47.1870000362
910.0	0.0001102	47.2339999676
910.0	0.0001103	47.2650001049
910.0	0.0001108	47.3120000362
910.0	0.0001113	47.3440001011
910.0	0.0001113	47.3900001049
910.0	0.0001115	47.4370000362
910.0	0.0001116	47.4690001011
910.0	0.0001118	47.5150001049
910.0	0.0001118	47.5620000362
910.0	0.000112	47.5940001011
910.0	0.000112	47.6400001049
910.0	0.000112	47.6870000362
910.0	0.0001121	47.7190001011
910.0	0.0001122	47.7650001049
910.0	0.0001125	47.7970001698
920.0	0.0001158	48.1089999676
920.0	0.0001177	48.1400001049
920.0	0.0001193	48.1870000362
920.0	0.0001203	48.2339999676
920.0	0.0001212	48.2650001049
920.0	0.0001213	48.3120000362
920.0	0.0001215	48.3589999676
920.0	0.0001215	48.3900001049
920.0	0.000122	48.4370000362
920.0	0.0001225	48.4690001011
920.0	0.0001227	48.5150001049
920.0	0.0001232	48.5620000362
920.0	0.0001233	48.5940001011
920.0	0.0001231	48.6400001049
920.0	0.0001228	48.6870000362
920.0	0.0001231	48.7190001011
920.0	0.0001231	48.7650001049
920.0	0.0001233	48.8120000362
920.0	0.0001235	48.8440001011
920.0	0.0001235	48.8900001049
920.0	0.0001235	48.9220001698
920.0	0.0001235	48.9690001011
920.0	0.0001235	49.0150001049
920.0	0.0001235	49.0470001698
920.0	0.0001237	49.0940001011
920.0	0.000124	49.1400001049
920.0	0.0001243	49.1720001698
920.0	0.0001246	49.2190001011
920.0	0.000125	49.25
920.0	0.0001246	49.2970001698
920.0	0.0001243	49.3440001011
920.0	0.0001243	49.375
920.0	0.0001241	49.4220001698
920.0	0.000124	49.4690001011
920.0	0.0001238	49.5
920.0	0.0001235	49.5470001698
920.0	0.0001232	49.5780000687
930.0	0.0001303	49.8900001049
930.0	0.000132	49.9370000362
930.0	0.0001326	49.9690001011
930.0	0.0001333	50.0150001049
930.0	0.0001341	50.0470001698
930.0	0.0001347	50.0940001011
930.0	0.0001351	50.1400001049
930.0	0.0001353	50.1720001698
930.0	0.0001358	50.2190001011
930.0	0.0001362	50.2650001049
930.0	0.0001365	50.2970001698
930.0	0.000137	50.3440001011
930.0	0.0001375	50.375
930.0	0.0001376	50.4220001698
930.0	0.0001376	50.4690001011
930.0	0.0001376	50.5
930.0	0.0001376	50.5470001698
930.0	0.0001372	50.5940001011
930.0	0.0001372	50.625
930.0	0.0001372	50.6720001698
930.0	0.0001372	50.7030000687
930.0	0.0001371	50.75
930.0	0.0001368	50.7970001698
930.0	0.0001363	50.8280000687
930.0	0.0001358	50.875
930.0	0.0001356	50.9220001698
930.0	0.0001358	50.9530000687
930.0	0.000136	51.0
930.0	0.000136	51.0310001373
930.0	0.0001358	51.0780000687
930.0	0.0001357	51.125
930.0	0.0001356	51.1560001373
930.0	0.0001356	51.2030000687
930.0	0.0001357	51.25
930.0	0.0001362	51.2810001373
930.0	0.0001363	51.3280000687
930.0	0.0001365	51.3589999676
940.0	0.0001413	51.6560001373
940.0	0.0001427	51.7030000687
940.0	0.0001443	51.75
940.0	0.0001456	51.7810001373
940.0	0.0001466	51.8280000687
940.0	0.0001471	51.875
940.0	0.0001476	51.9060001373
940.0	0.0001478	51.9530000687
940.0	0.0001481	51.9839999676
940.0	0.0001485	52.0310001373
940.0	0.0001488	52.0780000687
940.0	0.0001493	52.1089999676
940.0	0.0001491	52.1560001373
940.0	0.0001491	52.2030000687
940.0	0.0001491	52.2339999676
940.0	0.0001493	52.2810001373
940.0	0.0001493	52.3120000362
940.0	0.000149	52.3589999676
940.0	0.000149	52.4060001373
940.0	0.0001491	52.4370000362
940.0	0.0001491	52.4839999676
940.0	0.0001493	52.5310001373
940.0	0.0001497	52.5620000362
940.0	0.00015	52.6089999676
940.0	0.0001497	52.6560001373
940.0	0.0001495	52.6870000362
940.0	0.0001496	52.7339999676
940.0	0.0001497	52.7650001049
940.0	0.0001495	52.8120000362
940.0	0.0001496	52.8589999676
940.0	0.0001495	52.8900001049
940.0	0.0001496	52.9370000362
940.0	0.00015	52.9839999676
940.0	0.00015	53.0150001049
940.0	0.00015	53.0620000362
940.0	0.0001501	53.0940001011
940.0	0.00015	53.1400001049
950.0	0.000155	53.4370000362
950.0	0.0001566	53.4839999676
950.0	0.0001582	53.5150001049
950.0	0.0001595	53.5620000362
950.0	0.0001601	53.6089999676
950.0	0.0001603	53.6400001049
950.0	0.0001606	53.6870000362
950.0	0.0001606	53.7339999676
950.0	0.0001606	53.7650001049
950.0	0.0001606	53.8120000362
950.0	0.0001606	53.8589999676
950.0	0.0001606	53.8900001049
950.0	0.0001603	53.9370000362
950.0	0.0001607	53.9690001011
950.0	0.000161	54.0150001049
950.0	0.0001613	54.0620000362
950.0	0.0001616	54.0940001011
950.0	0.0001618	54.1400001049
950.0	0.000162	54.1870000362
950.0	0.000162	54.2190001011
950.0	0.0001618	54.2650001049
950.0	0.0001615	54.2970001698
950.0	0.0001615	54.3440001011
950.0	0.0001616	54.3900001049
950.0	0.000162	54.4220001698
950.0	0.0001621	54.4690001011
950.0	0.0001621	54.5150001049
950.0	0.0001625	54.5470001698
950.0	0.0001626	54.5940001011
950.0	0.0001628	54.6400001049
950.0	0.0001628	54.6720001698
950.0	0.0001626	54.7190001011
950.0	0.0001622	54.7650001049
950.0	0.0001625	54.7970001698
950.0	0.0001625	54.8440001011
950.0	0.0001627	54.8900001049
960.0	0.0001676	55.1720001698
960.0	0.0001691	55.2190001011
960.0	0.0001706	55.25
960.0	0.000172	55.2970001698
960.0	0.0001731	55.3280000687
960.0	0.000174	55.375
960.0	0.0001745	55.4220001698
960.0	0.000175	55.4530000687
960.0	0.000175	55.5
960.0	0.000175	55.5470001698
960.0	0.000175	55.5780000687
960.0	0.000175	55.625
960.0	0.000175	55.6720001698
960.0	0.0001746	55.7030000687
960.0	0.0001745	55.75
960.0	0.0001745	55.7970001698
960.0	0.0001745	55.8280000687
960.0	0.0001745	55.875
960.0	0.000175	55.9060001373
960.0	0.0001751	55.9530000687
960.0	0.0001747	56.0
960.0	0.0001743	56.0310001373
960.0	0.0001741	56.0780000687
960.0	0.000174	56.125
960.0	0.0001745	56.1560001373
960.0	0.0001747	56.2030000687
960.0	0.000175	56.25
960.0	0.0001752	56.2810001373
960.0	0.0001757	56.3280000687
960.0	0.0001758	56.3589999676
960.0	0.0001758	56.4060001373
960.0	0.0001762	56.4530000687
960.0	0.0001766	56.5
960.0	0.000177	56.5310001373
960.0	0.0001766	56.5780000687
960.0	0.0001763	56.6089999676
960.0	0.000176	56.6560001373
970.0	0.0001803	56.9370000362
970.0	0.0001822	56.9839999676
970.0	0.0001837	57.0310001373
970.0	0.0001841	57.0620000362
970.0	0.0001847	57.1089999676
970.0	0.0001853	57.1400001049
970.0	0.0001857	57.1870000362
970.0	0.0001858	57.2339999676
970.0	0.0001863	57.2650001049
970.0	0.0001865	57.3120000362
970.0	0.0001871	57.3589999676
970.0	0.0001876	57.3900001049
970.0	0.0001878	57.4370000362
970.0	0.0001883	57.4690001011
970.0	0.0001881	57.5150001049
970.0	0.0001878	57.5620000362
970.0	0.0001877	57.5940001011
970.0	0.0001877	57.6400001049
970.0	0.0001877	57.6870000362
970.0	0.0001875	57.7190001011
970.0	0.0001868	57.7650001049
970.0	0.0001863	57.7970001698
970.0	0.0001863	57.8440001011
970.0	0.0001866	57.8900001049
970.0	0.0001871	57.9220001698
970.0	0.000187	57.9690001011
970.0	0.0001871	58.0150001049
970.0	0.0001875	58.0470001698
970.0	0.0001882	58.0940001011
970.0	0.0001887	58.1400001049
970.0	0.0001888	58.1720001698
970.0	0.0001891	58.2190001011
970.0	0.0001895	58.25
970.0	0.000189	58.2970001698
970.0	0.0001887	58.3440001011
970.0	0.0001885	58.375
970.0	0.0001882	58.4220001698
980.0	0.0001918	58.7030000687
980.0	0.0001937	58.75
980.0	0.0001956	58.7810001373
980.0	0.000197	58.8280000687
980.0	0.0001977	58.875
980.0	0.0001981	58.9060001373
980.0	0.0001978	58.9530000687
980.0	0.0001977	59.0
980.0	0.0001977	59.0310001373
980.0	0.0001983	59.0780000687
980.0	0.000199	59.125
980.0	0.0001995	59.1560001373
980.0	0.0001996	59.2030000687
980.0	0.0002001	59.2339999676
980.0	0.0002002	59.2810001373
980.0	0.0002003	59.3280000687
980.0	0.0002002	59.3589999676
980.0	0.0002002	59.4060001373
980.0	0.0002	59.4530000687
980.0	0.0001993	59.4839999676
980.0	0.000199	59.5310001373
980.0	0.0001991	59.5620000362
980.0	0.0001995	59.6089999676
980.0	0.0001991	59.6560001373
980.0	0.000199	59.6870000362
980.0	0.0001993	59.7339999676
980.0	0.0001993	59.7810001373
980.0	0.0001996	59.8120000362
980.0	0.0002	59.8589999676
980.0	0.0002003	59.9060001373
980.0	0.0002006	59.9370000362
980.0	0.0002003	59.9839999676
980.0	0.0002006	60.0150001049
980.0	0.0002006	60.0620000362
980.0	0.0002006	60.1089999676
980.0	0.0002006	60.1400001049
980.0	0.0002006	60.1870000362
990.0	0.0002043	60.4690001011
990.0	0.0002058	60.5
990.0	0.0002068	60.5470001698
990.0	0.0002077	60.5940001011
990.0	0.000209	60.625
990.0	0.0002095	60.6720001698
990.0	0.0002102	60.7190001011
990.0	0.0002108	60.75
990.0	0.000211	60.7970001698
990.0	0.0002112	60.8280000687
990.0	0.0002113	60.875
990.0	0.0002116	60.9220001698
990.0	0.0002118	60.9690001011
990.0	0.000212	61.0
990.0	0.000212	61.0470001698
990.0	0.000212	61.0780000687
990.0	0.0002118	61.125
990.0	0.0002118	61.1720001698
990.0	0.0002116	61.2030000687
990.0	0.0002115	61.25
990.0	0.0002115	61.2970001698
990.0	0.0002115	61.3280000687
990.0	0.000211	61.375
990.0	0.0002108	61.4060001373
990.0	0.0002107	61.4530000687
990.0	0.000211	61.5
990.0	0.0002115	61.5310001373
990.0	0.0002118	61.5780000687
990.0	0.000212	61.625
990.0	0.000212	61.6560001373
990.0	0.0002118	61.7030000687
990.0	0.0002118	61.75
990.0	0.0002112	61.7810001373
990.0	0.0002106	61.8280000687
990.0	0.0002106	61.8589999676
990.0	0.0002108	61.9060001373
990.0	0.0002112	61.9530000687
1000.0	0.0002152	62.2339999676
1000.0	0.0002165	62.2650001049
1000.0	0.0002177	62.3120000362
1000.0	0.0002191	62.3440001011
1000.0	0.0002202	62.3900001049
1000.0	0.000221	62.4370000362
1000.0	0.0002212	62.4690001011
1000.0	0.0002218	62.5150001049
1000.0	0.000222	62.5620000362
1000.0	0.0002225	62.5940001011
1000.0	0.0002225	62.6400001049
1000.0	0.0002226	62.6720001698
1000.0	0.0002227	62.7190001011
1000.0	0.0002231	62.7650001049
1000.0	0.0002231	62.7970001698
1000.0	0.0002231	62.8440001011
1000.0	0.0002232	62.8900001049
1000.0	0.0002231	62.9220001698
1000.0	0.0002231	62.9690001011
1000.0	0.0002231	63.0
1000.0	0.0002228	63.0470001698
1000.0	0.0002233	63.0940001011
1000.0	0.0002237	63.125
1000.0	0.0002233	63.1720001698
1000.0	0.0002233	63.2190001011
1000.0	0.0002233	63.25
1000.0	0.0002231	63.2970001698
1000.0	0.0002231	63.3280000687
1000.0	0.0002228	63.375
1000.0	0.0002226	63.4220001698
1000.0	0.0002226	63.4530000687
1000.0	0.0002227	63.5
1000.0	0.0002225	63.5470001698
1000.0	0.0002222	63.5780000687
1000.0	0.0002221	63.625
1000.0	0.0002221	63.6560001373
1000.0	0.0002225	63.7030000687
1010.0	0.0002272	63.9839999676
1010.0	0.0002283	64.0310001373
1010.0	0.0002291	64.0620000362
1010.0	0.00023	64.1089999676
1010.0	0.0002307	64.1560001373
1010.0	0.0002313	64.1870000362
1010.0	0.0002316	64.2339999676
1010.0	0.0002321	64.2650001049
1010.0	0.0002325	64.3120000362
1010.0	0.0002328	64.3589999676
1010.0	0.0002332	64.3900001049
1010.0	0.000234	64.4370000362
1010.0	0.0002341	64.4839999676
1010.0	0.000234	64.5150001049
1010.0	0.000234	64.5620000362
1010.0	0.0002333	64.6089999676
1010.0	0.0002332	64.6400001049
1010.0	0.0002335	64.6870000362
1010.0	0.000234	64.7339999676
1010.0	0.0002345	64.7650001049
1010.0	0.0002345	64.8120000362
1010.0	0.0002338	64.8589999676
1010.0	0.0002335	64.8900001049
1010.0	0.0002332	64.9370000362
1010.0	0.0002328	64.9690001011
1010.0	0.0002331	65.0150001049
1010.0	0.0002331	65.0620000362
1010.0	0.0002328	65.0940001011
1010.0	0.0002328	65.1400001049
1010.0	0.0002331	65.1870000362
1010.0	0.0002331	65.2190001011
1010.0	0.0002328	65.2650001049
1010.0	0.0002331	65.2970001698
1010.0	0.0002331	65.3440001011
1010.0	0.0002331	65.3900001049
1010.0	0.0002332	65.4370000362
1020.0	0.0002387	65.7190001011
1020.0	0.00024	65.75
1020.0	0.000241	65.7970001698
1020.0	0.0002421	65.8440001011
1020.0	0.0002432	65.8900001049
1020.0	0.0002441	65.9220001698
1020.0	0.0002446	65.9690001011
1020.0	0.000245	66.0
1020.0	0.0002451	66.0470001698
1020.0	0.0002451	66.0940001011
1020.0	0.000245	66.125
1020.0	0.0002447	66.1720001698
1020.0	0.0002447	66.2030000687
1020.0	0.000245	66.25
1020.0	0.000245	66.2970001698
1020.0	0.000245	66.3280000687
1020.0	0.0002451	66.375
1020.0	0.000245	66.4220001698
1020.0	0.0002446	66.4530000687
1020.0	0.0002446	66.5
1020.0	0.0002447	66.5470001698
1020.0	0.000245	66.5780000687
1020.0	0.0002452	66.625
1020.0	0.0002453	66.6560001373
1020.0	0.0002457	66.7030000687
1020.0	0.0002453	66.75
1020.0	0.0002453	66.7810001373
1020.0	0.0002452	66.8280000687
1020.0	0.0002451	66.875
1020.0	0.0002451	66.9060001373
1020.0	0.0002451	66.9530000687
1020.0	0.0002451	66.9839999676
1020.0	0.0002451	67.0310001373
1020.0	0.000245	67.0780000687
1020.0	0.0002447	67.1089999676
1020.0	0.0002447	67.1560001373
1020.0	0.0002443	67.2030000687
1030.0	0.0002478	67.4690001011
1030.0	0.0002496	67.5150001049
1030.0	0.0002513	67.5620000362
1030.0	0.0002527	67.5940001011
1030.0	0.0002538	67.6400001049
1030.0	0.0002543	67.6870000362
1030.0	0.0002547	67.7190001011
1030.0	0.0002552	67.7650001049
1030.0	0.0002556	67.8120000362
1030.0	0.0002558	67.8440001011
1030.0	0.0002558	67.8900001049
1030.0	0.0002556	67.9220001698
1030.0	0.0002558	67.9690001011
1030.0	0.0002562	68.0150001049
1030.0	0.000256	68.0470001698
1030.0	0.000256	68.0940001011
1030.0	0.0002558	68.1400001049
1030.0	0.0002557	68.1720001698
1030.0	0.0002562	68.2190001011
1030.0	0.0002566	68.25
1030.0	0.000257	68.2970001698
1030.0	0.0002571	68.3440001011
1030.0	0.0002572	68.375
1030.0	0.0002575	68.4220001698
1030.0	0.0002576	68.4690001011
1030.0	0.0002577	68.5
1030.0	0.0002575	68.5470001698
1030.0	0.0002571	68.5780000687
1030.0	0.000257	68.625
1030.0	0.000257	68.6720001698
1030.0	0.0002568	68.7030000687
1030.0	0.0002566	68.75
1030.0	0.0002562	68.7970001698
1030.0	0.0002558	68.8280000687
1030.0	0.0002557	68.875
1030.0	0.0002556	68.9060001373
1030.0	0.0002558	68.9530000687
1040.0	0.0002616	69.2339999676
1040.0	0.0002631	69.2810001373
1040.0	0.0002641	69.3120000362
1040.0	0.0002652	69.3589999676
1040.0	0.0002662	69.3900001049
1040.0	0.0002675	69.4370000362
1040.0	0.0002682	69.4839999676
1040.0	0.0002687	69.5150001049
1040.0	0.0002688	69.5620000362
1040.0	0.000269	69.6089999676
1040.0	0.0002693	69.6400001049
1040.0	0.0002697	69.6870000362
1040.0	0.0002702	69.7339999676
1040.0	0.0002703	69.7650001049
1040.0	0.0002706	69.8120000362
1040.0	0.0002702	69.8440001011
1040.0	0.0002701	69.8900001049
1040.0	0.0002696	69.9370000362
1040.0	0.0002695	69.9690001011
1040.0	0.0002693	70.0150001049
1040.0	0.0002691	70.0620000362
1040.0	0.0002693	70.0940001011
1040.0	0.0002693	70.1400001049
1040.0	0.0002695	70.1720001698
1040.0	0.0002701	70.2190001011
1040.0	0.0002701	70.2650001049
1040.0	0.00027	70.2970001698
1040.0	0.0002696	70.3440001011
1040.0	0.0002696	70.3900001049
1040.0	0.0002697	70.4220001698
1040.0	0.0002697	70.4690001011
1040.0	0.0002697	70.5150001049
1040.0	0.00027	70.5470001698
1040.0	0.0002701	70.5940001011
1040.0	0.0002706	70.6400001049
1040.0	0.0002706	70.6720001698
1040.0	0.0002702	70.7190001011
1050.0	0.0002737	71.0
1050.0	0.0002751	71.0310001373
1050.0	0.0002763	71.0780000687
1050.0	0.0002777	71.125
1050.0	0.0002785	71.1560001373
1050.0	0.0002793	71.2030000687
1050.0	0.0002801	71.25
1050.0	0.0002801	71.2810001373
1050.0	0.0002797	71.3280000687
1050.0	0.0002796	71.3589999676
1050.0	0.0002797	71.4060001373
1050.0	0.0002797	71.4530000687
1050.0	0.00028	71.4839999676
1050.0	0.0002801	71.5310001373
1050.0	0.0002801	71.5780000687
1050.0	0.00028	71.6089999676
1050.0	0.00028	71.6560001373
1050.0	0.0002802	71.6870000362
1050.0	0.0002806	71.7339999676
1050.0	0.000281	71.7810001373
1050.0	0.000281	71.8120000362
1050.0	0.0002812	71.8589999676
1050.0	0.000281	71.9060001373
1050.0	0.0002806	71.9370000362
1050.0	0.0002806	71.9839999676
1050.0	0.0002807	72.0150001049
1050.0	0.0002806	72.0620000362
1050.0	0.0002806	72.1089999676
1050.0	0.0002807	72.1400001049
1050.0	0.000281	72.1870000362
1050.0	0.0002813	72.2339999676
1050.0	0.0002813	72.2810001373
1050.0	0.0002812	72.3120000362
1050.0	0.0002812	72.3589999676
1050.0	0.0002808	72.3900001049
1050.0	0.0002807	72.4370000362
1050.0	0.0002808	72.4839999676
1060.0	0.0002851	72.7650001049
1060.0	0.0002865	72.7970001698
1060.0	0.0002878	72.8440001011
1060.0	0.0002891	72.875
1060.0	0.00029	72.9220001698
1060.0	0.0002901	72.9690001011
1060.0	0.0002902	73.0
1060.0	0.0002906	73.0470001698
1060.0	0.0002908	73.0780000687
1060.0	0.000291	73.125
1060.0	0.0002912	73.1720001698
1060.0	0.0002912	73.2030000687
1060.0	0.0002915	73.25
1060.0	0.0002915	73.2970001698
1060.0	0.0002913	73.3280000687
1060.0	0.0002913	73.375
1060.0	0.0002915	73.4220001698
1060.0	0.0002918	73.4530000687
1060.0	0.0002918	73.5
1060.0	0.0002916	73.5310001373
1060.0	0.0002912	73.5780000687
1060.0	0.0002908	73.625
1060.0	0.0002906	73.6560001373
1060.0	0.0002906	73.7030000687
1060.0	0.0002908	73.75
1060.0	0.000291	73.7810001373
1060.0	0.0002915	73.8280000687
1060.0	0.0002913	73.8589999676
1060.0	0.0002908	73.9060001373
1060.0	0.0002908	73.9530000687
1060.0	0.0002908	73.9839999676
1060.0	0.0002913	74.0310001373
1060.0	0.0002913	74.0780000687
1060.0	0.0002913	74.1089999676
1060.0	0.0002912	74.1560001373
1060.0	0.0002912	74.2030000687
1060.0	0.000291	74.2339999676
1070.0	0.0002935	74.5150001049
1070.0	0.000295	74.5620000362
1070.0	0.0002963	74.5940001011
1070.0	0.0002972	74.6400001049
1070.0	0.0002983	74.6870000362
1070.0	0.000299	74.7190001011
1070.0	0.0003	74.7650001049
1070.0	0.0003003	74.8120000362
1070.0	0.0003003	74.8440001011
1070.0	0.0003006	74.8900001049
1070.0	0.000301	74.9370000362
1070.0	0.0003015	74.9690001011
1070.0	0.0003016	75.0150001049
1070.0	0.0003018	75.0470001698
1070.0	0.0003018	75.0940001011
1070.0	0.000302	75.1400001049
1070.0	0.000302	75.1720001698
1070.0	0.000302	75.2190001011
1070.0	0.0003015	75.2650001049
1070.0	0.000301	75.2970001698
1070.0	0.0003007	75.3440001011
1070.0	0.0003003	75.3900001049
1070.0	0.0003	75.4220001698
1070.0	0.0002993	75.4690001011
1070.0	0.0002995	75.5
1070.0	0.0002996	75.5470001698
1070.0	0.0003	75.5940001011
1070.0	0.0003002	75.625
1070.0	0.0003001	75.6720001698
1070.0	0.0003001	75.7030000687
1070.0	0.0003	75.75
1070.0	0.0003001	75.7970001698
1070.0	0.0003006	75.8280000687
1070.0	0.0003007	75.875
1070.0	0.0003006	75.9220001698
1070.0	0.0003006	75.9530000687
1070.0	0.0003006	76.0
1080.0	0.0003033	76.2650001049
1080.0	0.000305	76.3120000362
1080.0	0.0003058	76.3589999676
1080.0	0.0003068	76.3900001049
1080.0	0.0003077	76.4370000362
1080.0	0.0003083	76.4839999676
1080.0	0.000309	76.5150001049
1080.0	0.0003096	76.5620000362
1080.0	0.00031	76.6089999676
1080.0	0.0003103	76.6400001049
1080.0	0.0003102	76.6870000362
1080.0	0.0003101	76.7190001011
1080.0	0.00031	76.7650001049
1080.0	0.0003093	76.8120000362
1080.0	0.000309	76.8440001011
1080.0	0.0003087	76.8900001049
1080.0	0.0003083	76.9370000362
1080.0	0.0003085	76.9690001011
1080.0	0.0003088	77.0150001049
1080.0	0.000309	77.0470001698
1080.0	0.0003095	77.0940001011
1080.0	0.0003096	77.1400001049
1080.0	0.00031	77.1720001698
1080.0	0.0003097	77.2190001011
1080.0	0.0003097	77.2650001049
1080.0	0.0003102	77.3120000362
1080.0	0.0003106	77.3440001011
1080.0	0.0003106	77.3900001049
1080.0	0.0003107	77.4220001698
1080.0	0.0003106	77.4690001011
1080.0	0.0003106	77.5150001049
1080.0	0.0003106	77.5470001698
1080.0	0.0003103	77.5940001011
1080.0	0.0003103	77.6400001049
1080.0	0.0003103	77.6720001698
1080.0	0.0003102	77.7190001011
1080.0	0.0003103	77.75
1090.0	0.0003133	78.0310001373
1090.0	0.0003143	78.0780000687
1090.0	0.0003153	78.1089999676
1090.0	0.0003162	78.1560001373
1090.0	0.000317	78.2030000687
1090.0	0.0003175	78.2339999676
1090.0	0.0003181	78.2810001373
1090.0	0.0003185	78.3120000362
1090.0	0.0003187	78.3589999676
1090.0	0.0003183	78.4060001373
1090.0	0.0003183	78.4370000362
1090.0	0.0003181	78.4839999676
1090.0	0.0003181	78.5310001373
1090.0	0.0003181	78.5620000362
1090.0	0.0003181	78.6089999676
1090.0	0.0003181	78.6400001049
1090.0	0.0003182	78.6870000362
1090.0	0.0003182	78.7339999676
1090.0	0.0003183	78.7650001049
1090.0	0.0003182	78.8120000362
1090.0	0.0003181	78.8589999676
1090.0	0.0003182	78.8900001049
1090.0	0.0003181	78.9370000362
1090.0	0.0003182	78.9839999676
1090.0	0.0003183	79.0150001049
1090.0	0.0003182	79.0620000362
1090.0	0.0003182	79.1089999676
1090.0	0.0003181	79.1400001049
1090.0	0.0003182	79.1870000362
1090.0	0.0003182	79.2339999676
1090.0	0.0003183	79.2650001049
1090.0	0.0003183	79.3120000362
1090.0	0.0003182	79.3440001011
1090.0	0.0003178	79.3900001049
1090.0	0.0003178	79.4370000362
1090.0	0.0003181	79.4690001011
1090.0	0.0003177	79.5150001049
1100.0	0.0003193	79.7810001373
1100.0	0.0003198	79.8280000687
1100.0	0.00032	79.875
1100.0	0.0003201	79.9060001373
1100.0	0.0003202	79.9530000687
1100.0	0.0003207	80.0
1100.0	0.0003215	80.0310001373
1100.0	0.000322	80.0780000687
1100.0	0.000322	80.125
1100.0	0.0003221	80.1560001373
1100.0	0.0003221	80.2030000687
1100.0	0.000322	80.2339999676
1100.0	0.0003218	80.2810001373
1100.0	0.000322	80.3280000687
1100.0	0.0003225	80.3589999676
1100.0	0.0003225	80.4060001373
1100.0	0.0003227	80.4530000687
1100.0	0.0003231	80.4839999676
1100.0	0.0003232	80.5310001373
1100.0	0.0003233	80.5620000362
1100.0	0.0003231	80.6089999676
1100.0	0.000323	80.6560001373
1100.0	0.000323	80.6870000362
1100.0	0.0003226	80.7339999676
1100.0	0.0003226	80.7810001373
1100.0	0.0003227	80.8120000362
1100.0	0.0003227	80.8589999676
1100.0	0.000323	80.9060001373
1100.0	0.000323	80.9370000362
1100.0	0.000323	80.9839999676
1100.0	0.000323	81.0150001049
1100.0	0.0003227	81.0620000362
1100.0	0.0003225	81.1089999676
1100.0	0.0003223	81.1400001049
1100.0	0.0003221	81.1870000362
1100.0	0.0003226	81.2339999676
1100.0	0.0003232	81.2650001049
1110.0	0.000325	81.5470001698
1110.0	0.0003256	81.5780000687
1110.0	0.0003256	81.625
1110.0	0.0003258	81.6720001698
1110.0	0.0003258	81.7030000687
1110.0	0.0003257	81.75
1110.0	0.0003257	81.7970001698
1110.0	0.0003257	81.8280000687
1110.0	0.0003261	81.875
1110.0	0.0003261	81.9060001373
1110.0	0.0003258	81.9530000687
1110.0	0.0003261	82.0
1110.0	0.0003263	82.0310001373
1110.0	0.0003261	82.0780000687
1110.0	0.0003261	82.125
1110.0	0.0003258	82.1560001373
1110.0	0.0003256	82.2030000687
1110.0	0.0003251	82.2339999676
1110.0	0.0003255	82.2810001373
1110.0	0.0003252	82.3280000687
1110.0	0.0003252	82.3589999676
1110.0	0.0003251	82.4060001373
1110.0	0.0003251	82.4530000687
1110.0	0.0003252	82.4839999676
1110.0	0.0003252	82.5310001373
1110.0	0.0003251	82.5620000362
1110.0	0.0003255	82.6089999676
1110.0	0.0003252	82.6560001373
1110.0	0.0003252	82.6870000362
1110.0	0.0003251	82.7339999676
1110.0	0.0003251	82.7810001373
1110.0	0.000325	82.8120000362
1110.0	0.0003252	82.8589999676
1110.0	0.0003255	82.9060001373
1110.0	0.0003256	82.9370000362
1110.0	0.0003261	82.9839999676
1110.0	0.0003261	83.0150001049
1120.0	0.0003271	83.2810001373
1120.0	0.000327	83.3280000687
1120.0	0.000327	83.375
1120.0	0.000327	83.4060001373
1120.0	0.0003271	83.4530000687
1120.0	0.0003273	83.5
1120.0	0.0003277	83.5310001373
1120.0	0.000328	83.5780000687
1120.0	0.000328	83.625
1120.0	0.0003281	83.6560001373
1120.0	0.0003282	83.7030000687
1120.0	0.0003283	83.7339999676
1120.0	0.0003282	83.7810001373
1120.0	0.0003286	83.8280000687
1120.0	0.0003286	83.8589999676
1120.0	0.0003283	83.9060001373
1120.0	0.000328	83.9530000687
1120.0	0.0003276	83.9839999676
1120.0	0.0003276	84.0310001373
1120.0	0.0003276	84.0620000362
1120.0	0.0003275	84.1089999676
1120.0	0.0003271	84.1560001373
1120.0	0.0003268	84.1870000362
1120.0	0.0003265	84.2339999676
1120.0	0.0003263	84.2810001373
1120.0	0.0003265	84.3120000362
1120.0	0.0003265	84.3589999676
1120.0	0.000327	84.3900001049
1120.0	0.0003271	84.4370000362
1120.0	0.0003271	84.4839999676
1120.0	0.0003268	84.5150001049
1120.0	0.0003265	84.5620000362
1120.0	0.0003265	84.6089999676
1120.0	0.0003268	84.6400001049
1120.0	0.0003268	84.6870000362
1120.0	0.0003268	84.7190001011
1120.0	0.0003268	84.7650001049
1130.0	0.0003262	85.0310001373
1130.0	0.0003258	85.0780000687
1130.0	0.0003261	85.1089999676
1130.0	0.0003263	85.1560001373
1130.0	0.0003267	85.2030000687
1130.0	0.0003265	85.2339999676
1130.0	0.0003263	85.2810001373
1130.0	0.0003262	85.3280000687
1130.0	0.0003261	85.3589999676
1130.0	0.0003262	85.4060001373
1130.0	0.0003263	85.4530000687
1130.0	0.0003265	85.4839999676
1130.0	0.0003267	85.5310001373
1130.0	0.000327	85.5780000687
1130.0	0.0003275	85.625
1130.0	0.0003271	85.6560001373
1130.0	0.0003267	85.7030000687
1130.0	0.0003261	85.7339999676
1130.0	0.0003261	85.7810001373
1130.0	0.0003258	85.8280000687
1130.0	0.0003258	85.8589999676
1130.0	0.0003261	85.9060001373
1130.0	0.0003261	85.9530000687
1130.0	0.0003263	85.9839999676
1130.0	0.0003261	86.0310001373
1130.0	0.0003261	86.0620000362
1130.0	0.0003262	86.1089999676
1130.0	0.0003261	86.1560001373
1130.0	0.0003261	86.1870000362
1130.0	0.0003263	86.2339999676
1130.0	0.0003268	86.2810001373
1130.0	0.0003273	86.3120000362
1130.0	0.0003275	86.3589999676
1130.0	0.0003273	86.3900001049
1130.0	0.0003276	86.4370000362
1130.0	0.0003275	86.4839999676
1140.0	0.0003267	86.75
1140.0	0.000327	86.7810001373
1140.0	0.0003276	86.8280000687
1140.0	0.000328	86.875
1140.0	0.0003281	86.9060001373
1140.0	0.0003282	86.9530000687
1140.0	0.0003281	87.0
1140.0	0.000328	87.0310001373
1140.0	0.0003276	87.0780000687
1140.0	0.0003276	87.1089999676
1140.0	0.0003275	87.1560001373
1140.0	0.0003273	87.2030000687
1140.0	0.0003273	87.2339999676
1140.0	0.0003273	87.2810001373
1140.0	0.0003275	87.3280000687
1140.0	0.0003273	87.3589999676
1140.0	0.0003271	87.4060001373
1140.0	0.0003268	87.4530000687
1140.0	0.0003263	87.4839999676
1140.0	0.0003261	87.5310001373
1140.0	0.0003257	87.5620000362
1140.0	0.0003255	87.6089999676
1140.0	0.0003261	87.6560001373
1140.0	0.0003263	87.6870000362
1140.0	0.0003265	87.7339999676
1140.0	0.0003267	87.7810001373
1140.0	0.000327	87.8120000362
1140.0	0.000327	87.8589999676
1140.0	0.0003271	87.8900001049
1140.0	0.000327	87.9370000362
1140.0	0.0003268	87.9839999676
1140.0	0.0003267	88.0150001049
1140.0	0.0003263	88.0620000362
1140.0	0.0003262	88.1089999676
1140.0	0.0003263	88.1400001049
1140.0	0.0003263	88.1870000362
1140.0	0.0003267	88.2190001011
1150.0	0.0003267	88.5
1150.0	0.0003263	88.5310001373
1150.0	0.0003261	88.5780000687
1150.0	0.0003261	88.6089999676
1150.0	0.0003258	88.6560001373
1150.0	0.0003261	88.7030000687
1150.0	0.0003261	88.7339999676
1150.0	0.0003258	88.7810001373
1150.0	0.0003255	88.8280000687
1150.0	0.0003255	88.8589999676
1150.0	0.0003257	88.9060001373
1150.0	0.0003261	88.9370000362
1150.0	0.0003262	88.9839999676
1150.0	0.0003258	89.0310001373
1150.0	0.0003261	89.0620000362
1150.0	0.0003262	89.1089999676
1150.0	0.0003258	89.1560001373
1150.0	0.0003255	89.1870000362
1150.0	0.000325	89.2339999676
1150.0	0.0003246	89.2650001049
1150.0	0.0003246	89.3120000362
1150.0	0.0003246	89.3589999676
1150.0	0.0003246	89.3900001049
1150.0	0.0003243	89.4370000362
1150.0	0.0003242	89.4839999676
1150.0	0.0003242	89.5150001049
1150.0	0.0003242	89.5620000362
1150.0	0.0003243	89.6089999676
1150.0	0.000324	89.6400001049
1150.0	0.0003242	89.6870000362
1150.0	0.0003243	89.7190001011
1150.0	0.0003243	89.7650001049
1150.0	0.0003243	89.8120000362
1150.0	0.0003242	89.8440001011
1150.0	0.0003238	89.8900001049
1150.0	0.0003242	89.9370000362
1150.0	0.0003243	89.9690001011
1160.0	0.000323	90.2339999676
1160.0	0.0003226	90.2810001373
1160.0	0.000322	90.3120000362
1160.0	0.000322	90.3589999676
1160.0	0.000322	90.4060001373
1160.0	0.000322	90.4370000362
1160.0	0.0003218	90.4839999676
1160.0	0.0003221	90.5310001373
1160.0	0.0003223	90.5620000362
1160.0	0.0003227	90.6089999676
1160.0	0.000323	90.6560001373
1160.0	0.0003232	90.6870000362
1160.0	0.0003233	90.7339999676
1160.0	0.0003231	90.7650001049
1160.0	0.0003227	90.8120000362
1160.0	0.0003226	90.8589999676
1160.0	0.0003226	90.8900001049
1160.0	0.0003225	90.9370000362
1160.0	0.0003225	90.9839999676
1160.0	0.0003225	91.0150001049
1160.0	0.0003225	91.0620000362
1160.0	0.0003227	91.0940001011
1160.0	0.0003226	91.1400001049
1160.0	0.0003223	91.1870000362
1160.0	0.000322	91.2190001011
1160.0	0.0003218	91.2650001049
1160.0	0.000322	91.3120000362
1160.0	0.000322	91.3440001011
1160.0	0.000322	91.3900001049
1160.0	0.000322	91.4370000362
1160.0	0.0003221	91.4690001011
1160.0	0.000322	91.5150001049
1160.0	0.0003218	91.5470001698
1160.0	0.0003217	91.5940001011
1160.0	0.0003215	91.6400001049
1160.0	0.0003212	91.6720001698
1160.0	0.0003211	91.7190001011
1170.0	0.000322	91.9839999676
1170.0	0.0003223	92.0310001373
1170.0	0.0003223	92.0620000362
1170.0	0.000322	92.1089999676
1170.0	0.0003217	92.1560001373
1170.0	0.0003217	92.1870000362
1170.0	0.0003215	92.2339999676
1170.0	0.0003215	92.2810001373
1170.0	0.0003217	92.3120000362
1170.0	0.0003218	92.3589999676
1170.0	0.0003221	92.3900001049
1170.0	0.000322	92.4370000362
1170.0	0.0003217	92.4839999676
1170.0	0.0003217	92.5150001049
1170.0	0.0003211	92.5620000362
1170.0	0.0003207	92.6089999676
1170.0	0.0003206	92.6400001049
1170.0	0.0003208	92.6870000362
1170.0	0.0003208	92.7339999676
1170.0	0.0003211	92.7650001049
1170.0	0.0003212	92.8120000362
1170.0	0.0003213	92.8589999676
1170.0	0.0003215	92.8900001049
1170.0	0.000322	92.9370000362
1170.0	0.0003223	92.9839999676
1170.0	0.0003227	93.0150001049
1170.0	0.000323	93.0620000362
1170.0	0.0003231	93.0940001011
1170.0	0.000323	93.1400001049
1170.0	0.000323	93.1870000362
1170.0	0.0003232	93.2190001011
1170.0	0.0003231	93.2650001049
1170.0	0.000323	93.3120000362
1170.0	0.0003226	93.3440001011
1170.0	0.0003226	93.3900001049
1170.0	0.0003227	93.4370000362
1170.0	0.0003226	93.4690001011
1180.0	0.0003226	93.7339999676
1180.0	0.0003225	93.7810001373
1180.0	0.0003226	93.8280000687
1180.0	0.000323	93.8589999676
1180.0	0.0003232	93.9060001373
1180.0	0.0003231	93.9530000687
1180.0	0.0003233	93.9839999676
1180.0	0.0003233	94.0310001373
1180.0	0.0003231	94.0780000687
1180.0	0.0003226	94.1089999676
1180.0	0.0003218	94.1560001373
1180.0	0.0003218	94.1870000362
1180.0	0.0003218	94.2339999676
1180.0	0.000322	94.2810001373
1180.0	0.0003226	94.3120000362
1180.0	0.0003227	94.3589999676
1180.0	0.000323	94.4060001373
1180.0	0.000323	94.4370000362
1180.0	0.0003231	94.4839999676
1180.0	0.0003226	94.5150001049
1180.0	0.0003227	94.5620000362
1180.0	0.000323	94.6089999676
1180.0	0.0003236	94.6400001049
1180.0	0.0003238	94.6870000362
1180.0	0.000324	94.7339999676
1180.0	0.0003242	94.7650001049
1180.0	0.0003243	94.8120000362
1180.0	0.000324	94.8440001011
1180.0	0.0003236	94.8900001049
1180.0	0.0003231	94.9370000362
1180.0	0.0003231	94.9690001011
1180.0	0.000323	95.0150001049
1180.0	0.0003227	95.0620000362
1180.0	0.0003226	95.0940001011
1180.0	0.0003221	95.1400001049
1180.0	0.0003218	95.1720001698
1180.0	0.0003217	95.2190001011
1190.0	0.0003225	95.4839999676
1190.0	0.0003226	95.5310001373
1190.0	0.0003227	95.5780000687
1190.0	0.0003231	95.6089999676
1190.0	0.0003236	95.6560001373
1190.0	0.000324	95.7030000687
1190.0	0.0003243	95.7339999676
1190.0	0.0003243	95.7810001373
1190.0	0.000324	95.8280000687
1190.0	0.0003242	95.8589999676
1190.0	0.0003242	95.9060001373
1190.0	0.000324	95.9370000362
1190.0	0.0003242	95.9839999676
1190.0	0.0003242	96.0310001373
1190.0	0.0003238	96.0620000362
1190.0	0.0003238	96.1089999676
1190.0	0.000324	96.1560001373
1190.0	0.0003242	96.1870000362
1190.0	0.000324	96.2339999676
1190.0	0.0003242	96.2650001049
1190.0	0.0003238	96.3120000362
1190.0	0.0003237	96.3589999676
1190.0	0.0003232	96.3900001049
1190.0	0.0003232	96.4370000362
1190.0	0.0003232	96.4839999676
1190.0	0.0003233	96.5150001049
1190.0	0.0003238	96.5620000362
1190.0	0.0003242	96.5940001011
1190.0	0.000324	96.6400001049
1190.0	0.0003242	96.6870000362
1190.0	0.000324	96.7190001011
1190.0	0.0003233	96.7650001049
1190.0	0.0003236	96.8120000362
1190.0	0.0003232	96.8440001011
1190.0	0.0003231	96.8900001049
1190.0	0.0003232	96.9220001698
1190.0	0.0003232	96.9690001011
1200.0	0.000324	97.2339999676
1200.0	0.0003242	97.2810001373
1200.0	0.0003242	97.3280000687
1200.0	0.0003246	97.3589999676
1200.0	0.0003248	97.4060001373
1200.0	0.0003251	97.4530000687
1200.0	0.0003258	97.4839999676
1200.0	0.0003263	97.5310001373
1200.0	0.0003265	97.5620000362
1200.0	0.0003267	97.6089999676
1200.0	0.0003267	97.6560001373
1200.0	0.0003265	97.6870000362
1200.0	0.0003267	97.7339999676
1200.0	0.0003268	97.7810001373
1200.0	0.000327	97.8120000362
1200.0	0.000327	97.8589999676
1200.0	0.0003268	97.8900001049
1200.0	0.0003271	97.9370000362
1200.0	0.0003273	97.9839999676
1200.0	0.0003271	98.0150001049
1200.0	0.0003268	98.0620000362
1200.0	0.0003262	98.1089999676
1200.0	0.0003267	98.1400001049
1200.0	0.0003273	98.1870000362
1200.0	0.000328	98.2339999676
1200.0	0.0003281	98.2650001049
1200.0	0.000328	98.3120000362
1200.0	0.0003277	98.3440001011
1200.0	0.0003276	98.3900001049
1200.0	0.0003277	98.4370000362
1200.0	0.0003281	98.4690001011
1200.0	0.0003283	98.5150001049
1200.0	0.0003283	98.5620000362
1200.0	0.0003286	98.5940001011
1200.0	0.0003286	98.6400001049
1200.0	0.0003281	98.6720001698
1200.0	0.0003271	98.7190001011
1210.0	0.0003271	98.9839999676
1210.0	0.0003276	99.0310001373
1210.0	0.0003281	99.0780000687
1210.0	0.0003286	99.125
1210.0	0.0003292	99.1560001373
1210.0	0.0003296	99.2030000687
1210.0	0.0003301	99.2339999676
1210.0	0.0003306	99.2810001373
1210.0	0.0003311	99.3280000687
1210.0	0.0003317	99.3589999676
1210.0	0.000332	99.4060001373
1210.0	0.0003323	99.4530000687
1210.0	0.000333	99.4839999676
1210.0	0.0003337	99.5310001373
1210.0	0.0003342	99.5620000362
1210.0	0.0003345	99.6089999676
1210.0	0.000334	99.6560001373
1210.0	0.0003336	99.7030000687
1210.0	0.0003336	99.7339999676
1210.0	0.0003337	99.7810001373
1210.0	0.0003333	99.8280000687
1210.0	0.0003331	99.8589999676
1210.0	0.0003331	99.9060001373
1210.0	0.0003332	99.9370000362
1210.0	0.0003332	99.9839999676
1210.0	0.0003331	100.031000137
1210.0	0.0003332	100.062000036
1210.0	0.0003333	100.108999968
1210.0	0.0003336	100.156000137
1210.0	0.0003333	100.187000036
1210.0	0.000333	100.233999968
1210.0	0.0003325	100.265000105
1210.0	0.0003323	100.312000036
1210.0	0.0003321	100.358999968
1210.0	0.0003323	100.390000105
1210.0	0.0003326	100.437000036
1210.0	0.0003326	100.483999968
1220.0	0.0003338	100.75
1220.0	0.0003345	100.781000137
1220.0	0.000335	100.828000069
1220.0	0.0003357	100.875
1220.0	0.0003361	100.906000137
1220.0	0.0003365	100.953000069
1220.0	0.000337	100.983999968
1220.0	0.0003373	101.031000137
1220.0	0.0003376	101.078000069
1220.0	0.0003375	101.125
1220.0	0.0003375	101.156000137
1220.0	0.0003373	101.203000069
1220.0	0.0003371	101.233999968
1220.0	0.0003373	101.281000137
1220.0	0.0003373	101.328000069
1220.0	0.0003373	101.358999968
1220.0	0.0003373	101.406000137
1220.0	0.0003373	101.453000069
1220.0	0.0003371	101.483999968
1220.0	0.000337	101.531000137
1220.0	0.0003368	101.562000036
1220.0	0.0003367	101.608999968
1220.0	0.0003363	101.656000137
1220.0	0.0003361	101.687000036
1220.0	0.0003358	101.733999968
1220.0	0.0003356	101.781000137
1220.0	0.0003355	101.812000036
1220.0	0.0003358	101.858999968
1220.0	0.0003363	101.906000137
1220.0	0.0003363	101.937000036
1220.0	0.0003363	101.983999968
1220.0	0.0003363	102.015000105
1220.0	0.0003363	102.062000036
1220.0	0.0003361	102.108999968
1220.0	0.0003358	102.140000105
1220.0	0.0003355	102.187000036
1220.0	0.0003351	102.233999968
1230.0	0.000338	102.5
1230.0	0.0003387	102.531000137
1230.0	0.0003398	102.578000069
1230.0	0.0003407	102.608999968
1230.0	0.0003413	102.656000137
1230.0	0.0003418	102.703000069
1230.0	0.0003421	102.733999968
1230.0	0.0003427	102.781000137
1230.0	0.0003432	102.828000069
1230.0	0.0003432	102.858999968
1230.0	0.000343	102.906000137
1230.0	0.0003425	102.953000069
1230.0	0.0003426	102.983999968
1230.0	0.0003426	103.031000137
1230.0	0.0003426	103.062000036
1230.0	0.0003426	103.108999968
1230.0	0.0003426	103.156000137
1230.0	0.0003427	103.187000036
1230.0	0.0003427	103.233999968
1230.0	0.0003427	103.281000137
1230.0	0.0003431	103.312000036
1230.0	0.0003433	103.358999968
1230.0	0.0003436	103.390000105
1230.0	0.0003436	103.437000036
1230.0	0.0003433	103.483999968
1230.0	0.0003432	103.515000105
1230.0	0.0003432	103.562000036
1230.0	0.000343	103.608999968
1230.0	0.0003421	103.656000137
1230.0	0.0003418	103.687000036
1230.0	0.000342	103.733999968
1230.0	0.0003421	103.765000105
1230.0	0.0003423	103.812000036
1230.0	0.0003427	103.858999968
1230.0	0.000343	103.890000105
1230.0	0.0003433	103.937000036
1230.0	0.0003432	103.983999968
1240.0	0.000347	104.25
1240.0	0.0003477	104.281000137
1240.0	0.0003482	104.328000069
1240.0	0.000349	104.358999968
1240.0	0.0003495	104.406000137
1240.0	0.0003501	104.453000069
1240.0	0.0003505	104.483999968
1240.0	0.0003506	104.531000137
1240.0	0.0003508	104.578000069
1240.0	0.0003515	104.608999968
1240.0	0.000352	104.656000137
1240.0	0.0003521	104.703000069
1240.0	0.0003521	104.733999968
1240.0	0.000352	104.781000137
1240.0	0.0003517	104.828000069
1240.0	0.0003511	104.858999968
1240.0	0.0003507	104.906000137
1240.0	0.0003502	104.953000069
1240.0	0.0003501	104.983999968
1240.0	0.0003498	105.031000137
1240.0	0.0003498	105.062000036
1240.0	0.0003498	105.108999968
1240.0	0.00035	105.156000137
1240.0	0.0003501	105.187000036
1240.0	0.00035	105.233999968
1240.0	0.00035	105.281000137
1240.0	0.0003502	105.312000036
1240.0	0.0003506	105.358999968
1240.0	0.0003506	105.390000105
1240.0	0.0003505	105.437000036
1240.0	0.0003505	105.483999968
1240.0	0.0003506	105.515000105
1240.0	0.0003507	105.562000036
1240.0	0.0003507	105.608999968
1240.0	0.0003506	105.656000137
1240.0	0.00035	105.687000036
1240.0	0.0003496	105.733999968
1250.0	0.0003517	106.0
1250.0	0.0003523	106.031000137
1250.0	0.0003525	106.078000069
1250.0	0.000353	106.125
1250.0	0.0003536	106.156000137
1250.0	0.0003537	106.203000069
1250.0	0.0003537	106.25
1250.0	0.0003537	106.281000137
1250.0	0.0003536	106.328000069
1250.0	0.0003536	106.375
1250.0	0.0003537	106.406000137
1250.0	0.0003538	106.453000069
1250.0	0.0003543	106.483999968
1250.0	0.0003545	106.531000137
1250.0	0.0003548	106.578000069
1250.0	0.000355	106.608999968
1250.0	0.0003555	106.656000137
1250.0	0.0003556	106.703000069
1250.0	0.0003556	106.733999968
1250.0	0.0003556	106.781000137
1250.0	0.0003556	106.812000036
1250.0	0.0003557	106.858999968
1250.0	0.0003556	106.906000137
1250.0	0.0003557	106.937000036
1250.0	0.0003562	106.983999968
1250.0	0.0003561	107.031000137
1250.0	0.0003558	107.062000036
1250.0	0.0003555	107.108999968
1250.0	0.0003551	107.140000105
1250.0	0.0003546	107.187000036
1250.0	0.0003545	107.233999968
1250.0	0.0003548	107.265000105
1250.0	0.000355	107.312000036
1250.0	0.0003552	107.358999968
1250.0	0.0003552	107.390000105
1250.0	0.0003551	107.437000036
1250.0	0.0003551	107.469000101
1260.0	0.0003565	107.75
1260.0	0.0003568	107.781000137
1260.0	0.000358	107.828000069
1260.0	0.0003588	107.875
1260.0	0.0003592	107.906000137
1260.0	0.0003595	107.953000069
1260.0	0.0003598	108.0
1260.0	0.00036	108.031000137
1260.0	0.0003601	108.078000069
1260.0	0.0003606	108.108999968
1260.0	0.0003607	108.156000137
1260.0	0.0003606	108.203000069
1260.0	0.0003605	108.233999968
1260.0	0.0003606	108.281000137
1260.0	0.0003607	108.328000069
1260.0	0.0003606	108.358999968
1260.0	0.0003605	108.406000137
1260.0	0.0003601	108.453000069
1260.0	0.0003601	108.483999968
1260.0	0.0003601	108.531000137
1260.0	0.0003606	108.562000036
1260.0	0.0003607	108.608999968
1260.0	0.0003611	108.656000137
1260.0	0.0003613	108.687000036
1260.0	0.0003618	108.733999968
1260.0	0.0003621	108.781000137
1260.0	0.0003618	108.812000036
1260.0	0.0003618	108.858999968
1260.0	0.0003618	108.890000105
1260.0	0.0003617	108.937000036
1260.0	0.0003613	108.983999968
1260.0	0.0003613	109.031000137
1260.0	0.0003613	109.062000036
1260.0	0.0003613	109.108999968
1260.0	0.0003617	109.156000137
1260.0	0.000362	109.187000036
1260.0	0.000362	109.233999968
1270.0	0.0003627	109.5
1270.0	0.0003636	109.531000137
1270.0	0.0003638	109.625
1270.0	0.0003645	109.67200017
1270.0	0.0003646	109.703000069
1270.0	0.0003648	109.75
1270.0	0.0003648	109.781000137
1270.0	0.0003646	109.828000069
1270.0	0.0003643	109.875
1270.0	0.000364	109.906000137
1270.0	0.0003642	109.953000069
1270.0	0.0003645	110.0
1270.0	0.0003646	110.031000137
1270.0	0.0003652	110.078000069
1270.0	0.0003656	110.125
1270.0	0.0003655	110.156000137
1270.0	0.0003652	110.203000069
1270.0	0.0003651	110.233999968
1270.0	0.000365	110.281000137
1270.0	0.0003648	110.328000069
1270.0	0.0003645	110.358999968
1270.0	0.0003645	110.406000137
1270.0	0.0003646	110.453000069
1270.0	0.0003646	110.483999968
1270.0	0.0003645	110.531000137
1270.0	0.0003645	110.562000036
1270.0	0.000364	110.608999968
1270.0	0.0003637	110.656000137
1270.0	0.0003633	110.687000036
1270.0	0.0003632	110.733999968
1270.0	0.0003633	110.781000137
1270.0	0.0003633	110.812000036
1270.0	0.0003636	110.858999968
1270.0	0.0003637	110.890000105
1270.0	0.0003633	110.937000036
1270.0	0.0003637	110.983999968
1280.0	0.0003642	111.25
1280.0	0.0003645	111.281000137
1280.0	0.000365	111.328000069
1280.0	0.0003655	111.375
1280.0	0.0003658	111.406000137
1280.0	0.0003667	111.453000069
1280.0	0.0003673	111.5
1280.0	0.0003676	111.531000137
1280.0	0.0003677	111.578000069
1280.0	0.0003681	111.608999968
1280.0	0.0003681	111.656000137
1280.0	0.0003673	111.703000069
1280.0	0.0003668	111.75
1280.0	0.000367	111.781000137
1280.0	0.0003668	111.828000069
1280.0	0.0003668	111.858999968
1280.0	0.000367	111.906000137
1280.0	0.0003673	111.953000069
1280.0	0.0003675	111.983999968
1280.0	0.0003681	112.031000137
1280.0	0.0003682	112.078000069
1280.0	0.0003686	112.108999968
1280.0	0.000369	112.156000137
1280.0	0.0003688	112.203000069
1280.0	0.000369	112.233999968
1280.0	0.0003687	112.281000137
1280.0	0.0003686	112.312000036
1280.0	0.0003683	112.358999968
1280.0	0.0003682	112.406000137
1280.0	0.0003677	112.437000036
1280.0	0.0003675	112.483999968
1280.0	0.0003673	112.531000137
1280.0	0.0003675	112.562000036
1280.0	0.0003675	112.608999968
1280.0	0.0003675	112.640000105
1280.0	0.0003677	112.687000036
1280.0	0.000368	112.733999968
1290.0	0.0003676	113.0
1290.0	0.0003681	113.031000137
1290.0	0.000368	113.078000069
1290.0	0.0003676	113.125
1290.0	0.0003676	113.156000137
1290.0	0.0003671	113.203000069
1290.0	0.0003673	113.25
1290.0	0.0003671	113.281000137
1290.0	0.000367	113.328000069
1290.0	0.0003667	113.358999968
1290.0	0.0003671	113.406000137
1290.0	0.0003675	113.453000069
1290.0	0.0003676	113.483999968
1290.0	0.0003677	113.531000137
1290.0	0.0003676	113.578000069
1290.0	0.0003671	113.608999968
1290.0	0.0003667	113.656000137
1290.0	0.0003667	113.687000036
1290.0	0.0003667	113.733999968
1290.0	0.0003665	113.781000137
1290.0	0.0003663	113.812000036
1290.0	0.0003663	113.858999968
1290.0	0.0003665	113.906000137
1290.0	0.0003668	113.937000036
1290.0	0.0003668	113.983999968
1290.0	0.000367	114.031000137
1290.0	0.000367	114.062000036
1290.0	0.0003668	114.108999968
1290.0	0.0003668	114.140000105
1290.0	0.0003668	114.187000036
1290.0	0.0003667	114.233999968
1290.0	0.0003667	114.265000105
1290.0	0.0003665	114.312000036
1290.0	0.0003667	114.358999968
1290.0	0.0003668	114.390000105
1290.0	0.0003667	114.437000036
1290.0	0.0003668	114.469000101
1300.0	0.0003668	114.733999968
1300.0	0.0003663	114.781000137
1300.0	0.0003662	114.828000069
1300.0	0.0003661	114.858999968
1300.0	0.0003658	114.906000137
1300.0	0.0003657	114.953000069
1300.0	0.0003656	114.983999968
1300.0	0.0003655	115.031000137
1300.0	0.0003651	115.078000069
1300.0	0.0003651	115.108999968
1300.0	0.0003655	115.156000137
1300.0	0.0003658	115.203000069
1300.0	0.0003658	115.233999968
1300.0	0.0003658	115.281000137
1300.0	0.0003658	115.328000069
1300.0	0.0003658	115.358999968
1300.0	0.0003658	115.406000137
1300.0	0.0003657	115.437000036
1300.0	0.0003656	115.483999968
1300.0	0.0003655	115.531000137
1300.0	0.0003651	115.562000036
1300.0	0.0003648	115.608999968
1300.0	0.0003643	115.656000137
1300.0	0.0003642	115.687000036
1300.0	0.0003638	115.733999968
1300.0	0.0003638	115.765000105
1300.0	0.000364	115.812000036
1300.0	0.0003642	115.858999968
1300.0	0.0003638	115.890000105
1300.0	0.0003638	115.937000036
1300.0	0.0003638	115.983999968
1300.0	0.0003638	116.015000105
1300.0	0.0003633	116.062000036
1300.0	0.0003627	116.108999968
1300.0	0.0003621	116.140000105
1300.0	0.000362	116.187000036
1300.0	0.0003621	116.219000101
1310.0	0.0003605	116.5
1310.0	0.0003598	116.531000137
1310.0	0.0003592	116.578000069
1310.0	0.0003583	116.625
1310.0	0.0003577	116.656000137
1310.0	0.000357	116.703000069
1310.0	0.0003565	116.733999968
1310.0	0.0003562	116.781000137
1310.0	0.0003561	116.828000069
1310.0	0.0003563	116.858999968
1310.0	0.000357	116.906000137
1310.0	0.0003575	116.953000069
1310.0	0.0003576	117.0
1310.0	0.0003575	117.031000137
1310.0	0.0003577	117.078000069
1310.0	0.0003582	117.108999968
1310.0	0.0003581	117.156000137
1310.0	0.000358	117.203000069
1310.0	0.0003586	117.233999968
1310.0	0.0003583	117.281000137
1310.0	0.0003577	117.328000069
1310.0	0.0003576	117.358999968
1310.0	0.0003575	117.406000137
1310.0	0.0003576	117.437000036
1310.0	0.0003576	117.483999968
1310.0	0.0003577	117.531000137
1310.0	0.000358	117.562000036
1310.0	0.0003576	117.608999968
1310.0	0.0003575	117.656000137
1310.0	0.0003573	117.687000036
1310.0	0.000357	117.733999968
1310.0	0.0003568	117.781000137
1310.0	0.0003568	117.812000036
1310.0	0.0003567	117.858999968
1310.0	0.0003565	117.890000105
1310.0	0.0003563	117.937000036
1310.0	0.0003568	117.983999968
1320.0	0.0003538	118.25
1320.0	0.0003525	118.29700017
1320.0	0.0003517	118.328000069
1320.0	0.0003501	118.375
1320.0	0.000349	118.406000137
1320.0	0.0003483	118.453000069
1320.0	0.0003477	118.5
1320.0	0.0003471	118.531000137
1320.0	0.0003468	118.578000069
1320.0	0.000347	118.625
1320.0	0.0003468	118.656000137
1320.0	0.0003465	118.703000069
1320.0	0.0003463	118.75
1320.0	0.0003462	118.781000137
1320.0	0.0003461	118.828000069
1320.0	0.0003461	118.858999968
1320.0	0.0003461	118.906000137
1320.0	0.0003461	118.953000069
1320.0	0.0003458	118.983999968
1320.0	0.0003457	119.031000137
1320.0	0.0003456	119.078000069
1320.0	0.0003452	119.108999968
1320.0	0.000345	119.156000137
1320.0	0.0003448	119.187000036
1320.0	0.0003452	119.233999968
1320.0	0.0003455	119.281000137
1320.0	0.0003452	119.328000069
1320.0	0.0003456	119.358999968
1320.0	0.0003457	119.406000137
1320.0	0.0003461	119.437000036
1320.0	0.0003458	119.483999968
1320.0	0.0003456	119.531000137
1320.0	0.0003452	119.562000036
1320.0	0.0003451	119.608999968
1320.0	0.0003451	119.656000137
1320.0	0.0003452	119.687000036
1320.0	0.0003452	119.733999968
1330.0	0.0003396	120.0
1330.0	0.0003381	120.04700017
1330.0	0.0003362	120.078000069
1330.0	0.0003351	120.125
1330.0	0.000334	120.17200017
1330.0	0.0003332	120.203000069
1330.0	0.0003327	120.25
1330.0	0.0003323	120.29700017
1330.0	0.0003318	120.328000069
1330.0	0.0003313	120.375
1330.0	0.0003311	120.406000137
1330.0	0.0003312	120.453000069
1330.0	0.0003308	120.5
1330.0	0.0003306	120.531000137
1330.0	0.0003306	120.578000069
1330.0	0.0003306	120.625
1330.0	0.0003308	120.656000137
1330.0	0.0003308	120.703000069
1330.0	0.0003311	120.75
1330.0	0.0003312	120.781000137
1330.0	0.0003313	120.828000069
1330.0	0.0003313	120.858999968
1330.0	0.0003315	120.906000137
1330.0	0.0003315	120.953000069
1330.0	0.0003313	120.983999968
1330.0	0.0003311	121.031000137
1330.0	0.0003307	121.078000069
1330.0	0.0003307	121.108999968
1330.0	0.0003307	121.156000137
1330.0	0.0003306	121.187000036
1330.0	0.0003307	121.233999968
1330.0	0.0003305	121.281000137
1330.0	0.0003307	121.312000036
1330.0	0.0003307	121.358999968
1330.0	0.0003308	121.406000137
1330.0	0.0003308	121.437000036
1330.0	0.0003312	121.483999968
1340.0	0.0003245	121.75
1340.0	0.000322	121.79700017
1340.0	0.0003201	121.828000069
1340.0	0.000319	121.875
1340.0	0.0003178	121.92200017
1340.0	0.0003168	121.953000069
1340.0	0.0003157	122.0
1340.0	0.000315	122.04700017
1340.0	0.0003146	122.078000069
1340.0	0.0003141	122.125
1340.0	0.0003138	122.156000137
1340.0	0.0003137	122.203000069
1340.0	0.0003133	122.25
1340.0	0.0003133	122.281000137
1340.0	0.0003133	122.328000069
1340.0	0.0003131	122.375
1340.0	0.0003131	122.406000137
1340.0	0.0003128	122.453000069
1340.0	0.0003125	122.5
1340.0	0.0003121	122.531000137
1340.0	0.0003121	122.578000069
1340.0	0.0003122	122.608999968
1340.0	0.0003125	122.656000137
1340.0	0.0003125	122.703000069
1340.0	0.0003125	122.733999968
1340.0	0.0003122	122.781000137
1340.0	0.0003125	122.828000069
1340.0	0.0003127	122.858999968
1340.0	0.0003132	122.906000137
1340.0	0.0003135	122.937000036
1340.0	0.0003137	122.983999968
1340.0	0.0003137	123.031000137
1340.0	0.0003138	123.062000036
1340.0	0.0003138	123.108999968
1340.0	0.0003135	123.156000137
1340.0	0.0003133	123.187000036
1340.0	0.0003131	123.233999968
1350.0	0.0003062	123.5
1350.0	0.0003037	123.54700017
1350.0	0.0003016	123.578000069
1350.0	0.0003	123.625
1350.0	0.0002983	123.656000137
1350.0	0.0002972	123.703000069
1350.0	0.000297	123.75
1350.0	0.0002971	123.781000137
1350.0	0.0002971	123.828000069
1350.0	0.0002971	123.875
1350.0	0.0002971	123.906000137
1350.0	0.0002971	123.953000069
1350.0	0.0002968	123.983999968
1350.0	0.0002965	124.031000137
1350.0	0.0002966	124.078000069
1350.0	0.000297	124.108999968
1350.0	0.0002968	124.156000137
1350.0	0.0002968	124.203000069
1350.0	0.0002968	124.233999968
1350.0	0.0002966	124.281000137
1350.0	0.0002962	124.312000036
1350.0	0.0002958	124.358999968
1350.0	0.0002958	124.406000137
1350.0	0.0002957	124.453000069
1350.0	0.000296	124.483999968
1350.0	0.0002963	124.531000137
1350.0	0.000296	124.578000069
1350.0	0.000296	124.608999968
1350.0	0.000296	124.656000137
1350.0	0.000296	124.703000069
1350.0	0.000296	124.733999968
1350.0	0.0002962	124.781000137
1350.0	0.0002962	124.828000069
1350.0	0.0002965	124.858999968
1350.0	0.0002963	124.906000137
1350.0	0.0002958	124.937000036
1360.0	0.0002901	125.203000069
1360.0	0.0002871	125.25
1360.0	0.0002852	125.29700017
1360.0	0.0002835	125.328000069
1360.0	0.0002822	125.375
1360.0	0.0002818	125.42200017
1360.0	0.0002815	125.453000069
1360.0	0.000281	125.5
1360.0	0.0002808	125.54700017
1360.0	0.0002803	125.578000069
1360.0	0.0002796	125.625
1360.0	0.0002795	125.656000137
1360.0	0.000279	125.703000069
1360.0	0.0002788	125.75
1360.0	0.000279	125.781000137
1360.0	0.0002788	125.828000069
1360.0	0.0002788	125.875
1360.0	0.000279	125.906000137
1360.0	0.000279	125.953000069
1360.0	0.0002787	125.983999968
1360.0	0.0002783	126.031000137
1360.0	0.0002781	126.078000069
1360.0	0.0002777	126.108999968
1360.0	0.0002777	126.156000137
1360.0	0.0002781	126.203000069
1360.0	0.0002781	126.233999968
1360.0	0.0002778	126.281000137
1360.0	0.0002781	126.312000036
1360.0	0.0002782	126.358999968
1360.0	0.0002778	126.406000137
1360.0	0.0002778	126.437000036
1360.0	0.0002778	126.483999968
1360.0	0.0002781	126.531000137
1360.0	0.0002783	126.562000036
1360.0	0.0002783	126.608999968
1360.0	0.0002785	126.656000137
1360.0	0.0002785	126.687000036
1370.0	0.000272	126.953000069
1370.0	0.0002701	127.0
1370.0	0.0002683	127.031000137
1370.0	0.000267	127.078000069
1370.0	0.0002658	127.125
1370.0	0.000265	127.156000137
1370.0	0.0002641	127.203000069
1370.0	0.0002635	127.25
1370.0	0.0002627	127.281000137
1370.0	0.0002621	127.328000069
1370.0	0.0002618	127.375
1370.0	0.0002615	127.406000137
1370.0	0.000261	127.453000069
1370.0	0.0002607	127.483999968
1370.0	0.000261	127.531000137
1370.0	0.000261	127.578000069
1370.0	0.0002608	127.608999968
1370.0	0.0002608	127.656000137
1370.0	0.0002608	127.703000069
1370.0	0.0002607	127.733999968
1370.0	0.0002603	127.781000137
1370.0	0.0002603	127.812000036
1370.0	0.0002606	127.858999968
1370.0	0.000261	127.906000137
1370.0	0.0002613	127.937000036
1370.0	0.0002615	127.983999968
1370.0	0.0002618	128.031000137
1370.0	0.000262	128.062000036
1370.0	0.000262	128.108999968
1370.0	0.000262	128.140000105
1370.0	0.0002618	128.187000036
1370.0	0.000262	128.233999968
1370.0	0.0002618	128.265000105
1370.0	0.0002618	128.312000036
1370.0	0.000262	128.358999968
1370.0	0.0002618	128.390000105
1370.0	0.000262	128.437000036
1380.0	0.0002571	128.703000069
1380.0	0.0002547	128.75
1380.0	0.0002528	128.781000137
1380.0	0.0002515	128.828000069
1380.0	0.0002501	128.858999968
1380.0	0.0002495	128.906000137
1380.0	0.0002491	128.953000069
1380.0	0.0002488	128.983999968
1380.0	0.0002483	129.031000137
1380.0	0.0002478	129.078000069
1380.0	0.0002476	129.108999968
1380.0	0.0002472	129.156000137
1380.0	0.0002468	129.203000069
1380.0	0.0002465	129.233999968
1380.0	0.0002466	129.281000137
1380.0	0.0002466	129.312000036
1380.0	0.0002471	129.358999968
1380.0	0.0002471	129.406000137
1380.0	0.0002466	129.437000036
1380.0	0.0002463	129.483999968
1380.0	0.0002458	129.531000137
1380.0	0.0002456	129.562000036
1380.0	0.000246	129.608999968
1380.0	0.0002465	129.640000105
1380.0	0.000247	129.687000036
1380.0	0.0002472	129.733999968
1380.0	0.0002475	129.765000105
1380.0	0.0002477	129.812000036
1380.0	0.0002481	129.858999968
1380.0	0.0002481	129.890000105
1380.0	0.0002485	129.937000036
1380.0	0.0002487	129.969000101
1380.0	0.0002485	130.015000105
1380.0	0.0002483	130.062000036
1380.0	0.0002481	130.094000101
1380.0	0.0002481	130.140000105
1380.0	0.0002481	130.187000036
1390.0	0.0002431	130.453000069
1390.0	0.0002412	130.483999968
1390.0	0.0002401	130.531000137
1390.0	0.0002388	130.578000069
1390.0	0.0002381	130.608999968
1390.0	0.0002368	130.656000137
1390.0	0.0002358	130.687000036
1390.0	0.0002353	130.733999968
1390.0	0.0002353	130.781000137
1390.0	0.0002353	130.812000036
1390.0	0.0002352	130.858999968
1390.0	0.0002351	130.906000137
1390.0	0.0002347	130.937000036
1390.0	0.0002347	130.983999968
1390.0	0.0002346	131.015000105
1390.0	0.0002346	131.062000036
1390.0	0.0002347	131.108999968
1390.0	0.0002352	131.140000105
1390.0	0.0002353	131.187000036
1390.0	0.0002353	131.233999968
1390.0	0.0002353	131.265000105
1390.0	0.0002357	131.312000036
1390.0	0.000236	131.358999968
1390.0	0.0002362	131.390000105
1390.0	0.0002362	131.437000036
1390.0	0.0002363	131.469000101
1390.0	0.0002363	131.515000105
1390.0	0.0002363	131.562000036
1390.0	0.0002366	131.594000101
1390.0	0.0002366	131.640000105
1390.0	0.0002363	131.687000036
1390.0	0.0002363	131.719000101
1390.0	0.0002362	131.765000105
1390.0	0.0002362	131.79700017
1390.0	0.0002362	131.844000101
1390.0	0.0002356	131.890000105
1390.0	0.0002347	131.92200017
1400.0	0.000231	132.187000036
1400.0	0.0002296	132.233999968
1400.0	0.0002287	132.281000137
1400.0	0.0002281	132.312000036
1400.0	0.0002272	132.358999968
1400.0	0.000227	132.406000137
1400.0	0.0002266	132.437000036
1400.0	0.0002262	132.483999968
1400.0	0.0002262	132.515000105
1400.0	0.0002263	132.562000036
1400.0	0.0002266	132.608999968
1400.0	0.0002268	132.640000105
1400.0	0.0002266	132.687000036
1400.0	0.0002268	132.733999968
1400.0	0.0002266	132.765000105
1400.0	0.0002268	132.812000036
1400.0	0.0002268	132.844000101
1400.0	0.0002266	132.890000105
1400.0	0.0002268	132.937000036
1400.0	0.0002268	132.969000101
1400.0	0.0002266	133.015000105
1400.0	0.0002268	133.062000036
1400.0	0.0002271	133.094000101
1400.0	0.0002271	133.140000105
1400.0	0.0002271	133.17200017
1400.0	0.0002275	133.219000101
1400.0	0.0002271	133.265000105
1400.0	0.0002266	133.29700017
1400.0	0.0002265	133.344000101
1400.0	0.0002262	133.390000105
1400.0	0.0002258	133.42200017
1400.0	0.0002258	133.469000101
1400.0	0.0002263	133.515000105
1400.0	0.0002262	133.54700017
1400.0	0.0002258	133.594000101
1400.0	0.0002257	133.625
1400.0	0.0002256	133.67200017
1410.0	0.0002246	133.937000036
1410.0	0.000224	133.983999968
1410.0	0.000224	134.015000105
1410.0	0.000224	134.062000036
1410.0	0.0002238	134.108999968
1410.0	0.0002232	134.140000105
1410.0	0.0002225	134.187000036
1410.0	0.0002221	134.233999968
1410.0	0.000222	134.265000105
1410.0	0.0002218	134.312000036
1410.0	0.0002218	134.344000101
1410.0	0.0002216	134.390000105
1410.0	0.0002215	134.437000036
1410.0	0.0002212	134.469000101
1410.0	0.0002212	134.515000105
1410.0	0.0002213	134.562000036
1410.0	0.0002216	134.594000101
1410.0	0.0002221	134.640000105
1410.0	0.0002225	134.67200017
1410.0	0.0002226	134.719000101
1410.0	0.0002221	134.765000105
1410.0	0.0002218	134.79700017
1410.0	0.0002218	134.844000101
1410.0	0.0002216	134.890000105
1410.0	0.0002218	134.92200017
1410.0	0.0002218	134.969000101
1410.0	0.0002218	135.015000105
1410.0	0.0002218	135.04700017
1410.0	0.0002218	135.094000101
1410.0	0.0002216	135.125
1410.0	0.0002215	135.17200017
1410.0	0.0002215	135.219000101
1410.0	0.0002212	135.25
1410.0	0.0002213	135.29700017
1410.0	0.0002212	135.328000069
1410.0	0.0002212	135.375
1410.0	0.000221	135.42200017
1420.0	0.0002188	135.687000036
1420.0	0.000219	135.719000101
1420.0	0.0002191	135.765000105
1420.0	0.0002193	135.812000036
1420.0	0.0002196	135.844000101
1420.0	0.0002201	135.890000105
1420.0	0.0002202	135.937000036
1420.0	0.0002206	135.969000101
1420.0	0.0002208	136.015000105
1420.0	0.0002212	136.04700017
1420.0	0.0002213	136.094000101
1420.0	0.0002213	136.140000105
1420.0	0.000221	136.17200017
1420.0	0.000221	136.219000101
1420.0	0.0002208	136.265000105
1420.0	0.0002207	136.29700017
1420.0	0.0002208	136.344000101
1420.0	0.0002207	136.390000105
1420.0	0.0002203	136.42200017
1420.0	0.0002207	136.469000101
1420.0	0.0002212	136.5
1420.0	0.0002212	136.54700017
1420.0	0.000221	136.594000101
1420.0	0.0002208	136.625
1420.0	0.0002207	136.67200017
1420.0	0.000221	136.703000069
1420.0	0.0002212	136.75
1420.0	0.0002213	136.79700017
1420.0	0.0002213	136.828000069
1420.0	0.0002213	136.875
1420.0	0.000221	136.92200017
1420.0	0.0002212	136.953000069
1420.0	0.0002213	137.0
1420.0	0.0002212	137.04700017
1420.0	0.0002212	137.078000069
1420.0	0.0002215	137.125
1420.0	0.0002216	137.156000137
1430.0	0.0002218	137.437000036
1430.0	0.0002225	137.469000101
1430.0	0.0002227	137.515000105
1430.0	0.0002231	137.54700017
1430.0	0.0002235	137.594000101
1430.0	0.0002238	137.640000105
1430.0	0.0002238	137.687000036
1430.0	0.0002237	137.719000101
1430.0	0.0002235	137.765000105
1430.0	0.0002238	137.79700017
1430.0	0.000224	137.844000101
1430.0	0.0002238	137.890000105
1430.0	0.000224	137.92200017
1430.0	0.0002235	137.969000101
1430.0	0.0002232	138.015000105
1430.0	0.0002232	138.04700017
1430.0	0.0002231	138.094000101
1430.0	0.0002231	138.140000105
1430.0	0.0002233	138.17200017
1430.0	0.0002237	138.219000101
1430.0	0.000224	138.25
1430.0	0.0002243	138.29700017
1430.0	0.0002246	138.344000101
1430.0	0.000225	138.375
1430.0	0.000225	138.42200017
1430.0	0.0002247	138.469000101
1430.0	0.000225	138.5
1430.0	0.000225	138.54700017
1430.0	0.0002251	138.578000069
1430.0	0.0002251	138.625
1430.0	0.0002245	138.67200017
1430.0	0.0002243	138.703000069
1430.0	0.0002243	138.75
1430.0	0.0002247	138.79700017
1430.0	0.0002246	138.828000069
1430.0	0.0002241	138.875
1430.0	0.0002237	138.906000137
1440.0	0.0002258	139.187000036
1440.0	0.0002265	139.219000101
1440.0	0.0002275	139.265000105
1440.0	0.0002281	139.29700017
1440.0	0.0002282	139.344000101
1440.0	0.0002288	139.390000105
1440.0	0.000229	139.42200017
1440.0	0.0002293	139.469000101
1440.0	0.0002293	139.515000105
1440.0	0.000229	139.54700017
1440.0	0.0002287	139.594000101
1440.0	0.0002287	139.625
1440.0	0.000229	139.67200017
1440.0	0.0002291	139.719000101
1440.0	0.0002295	139.75
1440.0	0.0002296	139.79700017
1440.0	0.0002297	139.844000101
1440.0	0.00023	139.875
1440.0	0.0002296	139.92200017
1440.0	0.0002293	139.953000069
1440.0	0.000229	140.0
1440.0	0.0002288	140.04700017
1440.0	0.0002283	140.094000101
1440.0	0.0002282	140.125
1440.0	0.0002282	140.17200017
1440.0	0.0002282	140.203000069
1440.0	0.0002285	140.25
1440.0	0.0002285	140.29700017
1440.0	0.0002285	140.328000069
1440.0	0.0002283	140.375
1440.0	0.0002283	140.42200017
1440.0	0.0002283	140.453000069
1440.0	0.0002285	140.5
1440.0	0.0002283	140.54700017
1440.0	0.0002283	140.578000069
1440.0	0.0002285	140.625
1440.0	0.0002285	140.656000137
1450.0	0.0002308	140.937000036
1450.0	0.0002325	140.969000101
1450.0	0.0002335	141.015000105
1450.0	0.0002341	141.04700017
1450.0	0.0002345	141.094000101
1450.0	0.0002347	141.140000105
1450.0	0.0002351	141.17200017
1450.0	0.0002353	141.219000101
1450.0	0.0002358	141.265000105
1450.0	0.0002363	141.29700017
1450.0	0.0002363	141.344000101
1450.0	0.000236	141.375
1450.0	0.0002358	141.42200017
1450.0	0.0002358	141.469000101
1450.0	0.000236	141.5
1450.0	0.0002365	141.54700017
1450.0	0.0002365	141.594000101
1450.0	0.0002366	141.625
1450.0	0.0002366	141.67200017
1450.0	0.0002363	141.703000069
1450.0	0.000236	141.75
1450.0	0.000236	141.79700017
1450.0	0.0002358	141.828000069
1450.0	0.0002357	141.875
1450.0	0.000236	141.92200017
1450.0	0.0002357	141.953000069
1450.0	0.0002357	142.0
1450.0	0.0002358	142.031000137
1450.0	0.000236	142.078000069
1450.0	0.0002363	142.125
1450.0	0.0002365	142.156000137
1450.0	0.0002363	142.203000069
1450.0	0.0002365	142.25
1450.0	0.0002365	142.281000137
1450.0	0.0002366	142.328000069
1450.0	0.0002368	142.375
1450.0	0.0002368	142.406000137
1460.0	0.0002383	142.687000036
1460.0	0.000239	142.719000101
1460.0	0.0002396	142.765000105
1460.0	0.00024	142.79700017
1460.0	0.0002402	142.844000101
1460.0	0.000241	142.890000105
1460.0	0.0002416	142.92200017
1460.0	0.0002418	142.969000101
1460.0	0.0002421	143.015000105
1460.0	0.0002425	143.04700017
1460.0	0.0002426	143.094000101
1460.0	0.0002425	143.125
1460.0	0.0002426	143.17200017
1460.0	0.0002426	143.219000101
1460.0	0.0002422	143.25
1460.0	0.0002422	143.29700017
1460.0	0.0002425	143.344000101
1460.0	0.0002427	143.375
1460.0	0.0002426	143.42200017
1460.0	0.0002427	143.469000101
1460.0	0.0002431	143.5
1460.0	0.0002432	143.54700017
1460.0	0.0002432	143.594000101
1460.0	0.0002431	143.625
1460.0	0.0002431	143.67200017
1460.0	0.0002431	143.703000069
1460.0	0.0002426	143.75
1460.0	0.0002428	143.79700017
1460.0	0.0002425	143.828000069
1460.0	0.000242	143.875
1460.0	0.0002418	143.92200017
1460.0	0.0002416	143.953000069
1460.0	0.0002415	144.0
1460.0	0.0002415	144.031000137
1460.0	0.0002412	144.078000069
1460.0	0.0002412	144.125
1460.0	0.0002412	144.156000137
1470.0	0.0002432	144.437000036
1470.0	0.0002433	144.469000101
1470.0	0.0002438	144.515000105
1470.0	0.0002441	144.562000036
1470.0	0.000244	144.594000101
1470.0	0.000244	144.640000105
1470.0	0.0002443	144.687000036
1470.0	0.0002446	144.719000101
1470.0	0.0002446	144.765000105
1470.0	0.0002446	144.79700017
1470.0	0.0002446	144.844000101
1470.0	0.0002443	144.890000105
1470.0	0.0002445	144.92200017
1470.0	0.0002445	144.969000101
1470.0	0.0002447	145.015000105
1470.0	0.0002451	145.04700017
1470.0	0.000245	145.094000101
1470.0	0.0002451	145.125
1470.0	0.0002453	145.17200017
1470.0	0.0002451	145.219000101
1470.0	0.0002452	145.25
1470.0	0.0002457	145.29700017
1470.0	0.000246	145.344000101
1470.0	0.0002463	145.375
1470.0	0.0002462	145.42200017
1470.0	0.0002465	145.469000101
1470.0	0.0002466	145.5
1470.0	0.0002471	145.54700017
1470.0	0.0002475	145.594000101
1470.0	0.0002481	145.625
1470.0	0.0002481	145.67200017
1470.0	0.0002481	145.703000069
1470.0	0.0002475	145.75
1470.0	0.0002472	145.79700017
1470.0	0.0002471	145.828000069
1470.0	0.0002468	145.875
1470.0	0.0002468	145.92200017
1480.0	0.0002476	146.187000036
1480.0	0.0002482	146.219000101
1480.0	0.0002485	146.265000105
1480.0	0.0002488	146.312000036
1480.0	0.0002491	146.358999968
1480.0	0.0002491	146.390000105
1480.0	0.0002493	146.437000036
1480.0	0.0002496	146.469000101
1480.0	0.0002497	146.515000105
1480.0	0.0002501	146.562000036
1480.0	0.0002506	146.594000101
1480.0	0.0002503	146.640000105
1480.0	0.0002507	146.687000036
1480.0	0.0002508	146.719000101
1480.0	0.0002512	146.765000105
1480.0	0.0002512	146.79700017
1480.0	0.000251	146.844000101
1480.0	0.0002508	146.890000105
1480.0	0.0002507	146.92200017
1480.0	0.0002506	146.969000101
1480.0	0.0002502	147.015000105
1480.0	0.0002501	147.04700017
1480.0	0.0002496	147.094000101
1480.0	0.0002493	147.125
1480.0	0.0002496	147.17200017
1480.0	0.00025	147.219000101
1480.0	0.0002502	147.25
1480.0	0.0002507	147.29700017
1480.0	0.0002506	147.344000101
1480.0	0.0002502	147.375
1480.0	0.00025	147.42200017
1480.0	0.0002496	147.453000069
1480.0	0.0002495	147.5
1480.0	0.000249	147.54700017
1480.0	0.0002487	147.578000069
1480.0	0.0002487	147.625
1480.0	0.0002485	147.67200017
1490.0	0.0002493	147.937000036
1490.0	0.0002496	147.983999968
1490.0	0.0002496	148.015000105
1490.0	0.0002501	148.062000036
1490.0	0.0002507	148.108999968
1490.0	0.0002513	148.156000137
1490.0	0.0002518	148.203000069
1490.0	0.0002522	148.233999968
1490.0	0.0002525	148.281000137
1490.0	0.0002521	148.312000036
1490.0	0.000252	148.358999968
1490.0	0.0002518	148.406000137
1490.0	0.0002516	148.437000036
1490.0	0.0002515	148.483999968
1490.0	0.0002516	148.531000137
1490.0	0.0002516	148.562000036
1490.0	0.0002518	148.608999968
1490.0	0.0002521	148.640000105
1490.0	0.0002522	148.687000036
1490.0	0.0002521	148.733999968
1490.0	0.0002521	148.765000105
1490.0	0.000252	148.812000036
1490.0	0.0002518	148.858999968
1490.0	0.0002518	148.890000105
1490.0	0.0002518	148.937000036
1490.0	0.0002518	148.983999968
1490.0	0.0002521	149.015000105
1490.0	0.0002525	149.062000036
1490.0	0.0002526	149.108999968
1490.0	0.0002528	149.140000105
1490.0	0.0002527	149.187000036
1490.0	0.0002531	149.219000101
1490.0	0.0002535	149.265000105
1490.0	0.0002537	149.312000036
1490.0	0.0002531	149.344000101
1490.0	0.0002526	149.390000105
1500.0	0.0002533	149.656000137
1500.0	0.0002537	149.703000069
1500.0	0.0002538	149.75
1500.0	0.0002541	149.781000137
1500.0	0.0002541	149.828000069
1500.0	0.0002541	149.858999968
1500.0	0.000254	149.906000137
1500.0	0.0002537	149.953000069
1500.0	0.000254	149.983999968
1500.0	0.0002543	150.031000137
1500.0	0.0002543	150.078000069
1500.0	0.0002538	150.125
1500.0	0.0002537	150.156000137
1500.0	0.0002535	150.203000069
1500.0	0.0002532	150.233999968
1500.0	0.0002531	150.281000137
1500.0	0.0002528	150.328000069
1500.0	0.0002531	150.358999968
1500.0	0.0002531	150.406000137
1500.0	0.0002531	150.453000069
1500.0	0.0002535	150.483999968
1500.0	0.0002537	150.531000137
1500.0	0.000254	150.562000036
1500.0	0.000254	150.608999968
1500.0	0.0002538	150.656000137
1500.0	0.0002535	150.687000036
1500.0	0.0002532	150.733999968
1500.0	0.0002532	150.781000137
1500.0	0.0002535	150.812000036
1500.0	0.0002538	150.858999968
1500.0	0.0002541	150.890000105
1500.0	0.000254	150.937000036
1500.0	0.0002537	150.983999968
1500.0	0.0002537	151.015000105
1500.0	0.0002537	151.062000036
1500.0	0.0002533	151.108999968
1500.0	0.0002533	151.140000105
1510.0	0.0002545	151.42200017
1510.0	0.0002546	151.453000069
1510.0	0.0002545	151.5
1510.0	0.0002545	151.54700017
1510.0	0.0002546	151.578000069
1510.0	0.0002547	151.625
1510.0	0.000255	151.67200017
1510.0	0.0002552	151.703000069
1510.0	0.0002553	151.75
1510.0	0.0002556	151.79700017
1510.0	0.0002553	151.828000069
1510.0	0.0002551	151.875
1510.0	0.0002551	151.92200017
1510.0	0.0002553	151.953000069
1510.0	0.0002553	152.0
1510.0	0.0002556	152.04700017
1510.0	0.0002557	152.078000069
1510.0	0.0002557	152.125
1510.0	0.0002557	152.156000137
1510.0	0.0002557	152.203000069
1510.0	0.0002557	152.25
1510.0	0.0002557	152.281000137
1510.0	0.0002552	152.328000069
1510.0	0.0002551	152.375
1510.0	0.000255	152.406000137
1510.0	0.000255	152.453000069
1510.0	0.0002551	152.483999968
1510.0	0.0002551	152.531000137
1510.0	0.0002552	152.578000069
1510.0	0.0002556	152.608999968
1510.0	0.0002553	152.656000137
1510.0	0.0002551	152.703000069
1510.0	0.000255	152.733999968
1510.0	0.0002546	152.781000137
1510.0	0.0002543	152.828000069
1510.0	0.000254	152.858999968
1510.0	0.0002538	152.906000137
1520.0	0.0002537	153.17200017
1520.0	0.0002537	153.219000101
1520.0	0.000254	153.265000105
1520.0	0.0002538	153.29700017
1520.0	0.000254	153.344000101
1520.0	0.000254	153.390000105
1520.0	0.0002541	153.42200017
1520.0	0.0002543	153.469000101
1520.0	0.0002547	153.5
1520.0	0.000255	153.54700017
1520.0	0.000255	153.594000101
1520.0	0.000255	153.625
1520.0	0.0002547	153.67200017
1520.0	0.0002545	153.719000101
1520.0	0.000254	153.75
1520.0	0.0002541	153.79700017
1520.0	0.0002541	153.844000101
1520.0	0.0002541	153.875
1520.0	0.0002545	153.92200017
1520.0	0.0002547	153.969000101
1520.0	0.0002551	154.0
1520.0	0.0002551	154.04700017
1520.0	0.0002552	154.078000069
1520.0	0.0002546	154.125
1520.0	0.0002546	154.17200017
1520.0	0.0002545	154.203000069
1520.0	0.0002547	154.25
1520.0	0.0002551	154.29700017
1520.0	0.0002553	154.328000069
1520.0	0.0002553	154.375
1520.0	0.000255	154.406000137
1520.0	0.0002547	154.453000069
1520.0	0.0002541	154.5
1520.0	0.0002537	154.531000137
1520.0	0.0002537	154.578000069
1520.0	0.0002538	154.625
1520.0	0.0002538	154.656000137
1530.0	0.0002545	154.937000036
1530.0	0.0002541	154.983999968
1530.0	0.0002545	155.015000105
1530.0	0.0002541	155.062000036
1530.0	0.0002535	155.094000101
1530.0	0.0002531	155.140000105
1530.0	0.0002531	155.187000036
1530.0	0.0002531	155.219000101
1530.0	0.0002532	155.265000105
1530.0	0.0002535	155.312000036
1530.0	0.0002535	155.344000101
1530.0	0.0002533	155.390000105
1530.0	0.0002533	155.42200017
1530.0	0.0002532	155.469000101
1530.0	0.0002535	155.515000105
1530.0	0.0002538	155.562000036
1530.0	0.0002541	155.594000101
1530.0	0.0002545	155.640000105
1530.0	0.0002546	155.67200017
1530.0	0.0002545	155.719000101
1530.0	0.0002543	155.765000105
1530.0	0.0002543	155.79700017
1530.0	0.0002543	155.844000101
1530.0	0.0002541	155.890000105
1530.0	0.0002541	155.92200017
1530.0	0.0002541	155.969000101
1530.0	0.0002543	156.0
1530.0	0.0002545	156.04700017
1530.0	0.000255	156.094000101
1530.0	0.000255	156.125
1530.0	0.000255	156.17200017
1530.0	0.000255	156.219000101
1530.0	0.0002551	156.25
1530.0	0.0002547	156.29700017
1530.0	0.0002545	156.344000101
1530.0	0.000254	156.375
1530.0	0.0002538	156.42200017
1540.0	0.0002518	156.703000069
1540.0	0.0002516	156.733999968
1540.0	0.0002513	156.781000137
1540.0	0.0002515	156.828000069
1540.0	0.0002515	156.858999968
1540.0	0.0002513	156.906000137
1540.0	0.0002512	156.953000069
1540.0	0.000251	156.983999968
1540.0	0.0002508	157.031000137
1540.0	0.0002502	157.078000069
1540.0	0.00025	157.108999968
1540.0	0.0002497	157.156000137
1540.0	0.0002496	157.187000036
1540.0	0.0002497	157.233999968
1540.0	0.0002497	157.281000137
1540.0	0.0002502	157.312000036
1540.0	0.0002506	157.358999968
1540.0	0.0002506	157.406000137
1540.0	0.0002502	157.437000036
1540.0	0.0002501	157.483999968
1540.0	0.0002501	157.515000105
1540.0	0.0002501	157.562000036
1540.0	0.0002503	157.608999968
1540.0	0.0002508	157.640000105
1540.0	0.000251	157.687000036
1540.0	0.000251	157.733999968
1540.0	0.0002512	157.765000105
1540.0	0.000251	157.812000036
1540.0	0.0002512	157.858999968
1540.0	0.0002513	157.890000105
1540.0	0.0002515	157.937000036
1540.0	0.000251	157.969000101
1540.0	0.0002508	158.015000105
1540.0	0.0002508	158.062000036
1540.0	0.0002513	158.094000101
1540.0	0.0002513	158.140000105
1540.0	0.0002512	158.187000036
1550.0	0.0002483	158.453000069
1550.0	0.0002476	158.5
1550.0	0.000247	158.531000137
1550.0	0.0002466	158.578000069
1550.0	0.0002465	158.625
1550.0	0.0002468	158.656000137
1550.0	0.0002471	158.703000069
1550.0	0.0002468	158.75
1550.0	0.0002468	158.781000137
1550.0	0.0002468	158.828000069
1550.0	0.0002468	158.875
1550.0	0.0002466	158.906000137
1550.0	0.0002466	158.953000069
1550.0	0.0002465	159.0
1550.0	0.0002468	159.031000137
1550.0	0.0002468	159.078000069
1550.0	0.0002468	159.108999968
1550.0	0.0002466	159.156000137
1550.0	0.0002463	159.203000069
1550.0	0.0002465	159.233999968
1550.0	0.0002466	159.281000137
1550.0	0.000247	159.328000069
1550.0	0.0002468	159.358999968
1550.0	0.0002463	159.406000137
1550.0	0.0002456	159.453000069
1550.0	0.000245	159.483999968
1550.0	0.0002447	159.531000137
1550.0	0.0002447	159.562000036
1550.0	0.0002443	159.608999968
1550.0	0.0002441	159.656000137
1550.0	0.0002438	159.687000036
1550.0	0.0002438	159.733999968
1550.0	0.0002438	159.781000137
1550.0	0.0002441	159.812000036
1550.0	0.0002441	159.858999968
1550.0	0.0002441	159.890000105
1550.0	0.0002445	159.937000036
1560.0	0.0002422	160.219000101
1560.0	0.0002413	160.25
1560.0	0.0002403	160.29700017
1560.0	0.0002396	160.328000069
1560.0	0.0002388	160.375
1560.0	0.0002383	160.42200017
1560.0	0.0002381	160.453000069
1560.0	0.0002381	160.5
1560.0	0.0002378	160.54700017
1560.0	0.0002375	160.594000101
1560.0	0.0002376	160.625
1560.0	0.0002371	160.67200017
1560.0	0.0002372	160.703000069
1560.0	0.0002375	160.75
1560.0	0.0002377	160.79700017
1560.0	0.0002382	160.828000069
1560.0	0.0002381	160.875
1560.0	0.0002382	160.92200017
1560.0	0.0002382	160.953000069
1560.0	0.0002381	161.0
1560.0	0.0002377	161.031000137
1560.0	0.0002377	161.078000069
1560.0	0.0002377	161.125
1560.0	0.0002377	161.156000137
1560.0	0.0002376	161.203000069
1560.0	0.0002376	161.25
1560.0	0.0002378	161.281000137
1560.0	0.0002377	161.328000069
1560.0	0.0002378	161.358999968
1560.0	0.0002381	161.406000137
1560.0	0.0002381	161.453000069
1560.0	0.0002381	161.483999968
1560.0	0.0002383	161.531000137
1560.0	0.0002387	161.578000069
1560.0	0.0002395	161.608999968
1560.0	0.00024	161.656000137
1560.0	0.00024	161.703000069
1570.0	0.0002358	161.969000101
1570.0	0.000234	162.015000105
1570.0	0.0002326	162.04700017
1570.0	0.0002312	162.094000101
1570.0	0.0002302	162.140000105
1570.0	0.0002296	162.17200017
1570.0	0.0002293	162.219000101
1570.0	0.0002293	162.265000105
1570.0	0.0002291	162.29700017
1570.0	0.0002285	162.344000101
1570.0	0.0002282	162.390000105
1570.0	0.0002281	162.42200017
1570.0	0.0002282	162.469000101
1570.0	0.0002285	162.515000105
1570.0	0.0002287	162.54700017
1570.0	0.000229	162.594000101
1570.0	0.000229	162.640000105
1570.0	0.0002287	162.67200017
1570.0	0.0002283	162.719000101
1570.0	0.0002283	162.75
1570.0	0.0002283	162.79700017
1570.0	0.0002281	162.844000101
1570.0	0.0002281	162.875
1570.0	0.0002282	162.92200017
1570.0	0.0002285	162.969000101
1570.0	0.0002278	163.0
1570.0	0.0002276	163.04700017
1570.0	0.0002281	163.078000069
1570.0	0.0002282	163.125
1570.0	0.0002287	163.17200017
1570.0	0.000229	163.203000069
1570.0	0.0002291	163.25
1570.0	0.0002293	163.29700017
1570.0	0.0002291	163.328000069
1570.0	0.0002291	163.375
1570.0	0.000229	163.406000137
1570.0	0.0002288	163.453000069
1580.0	0.0002253	163.733999968
1580.0	0.0002237	163.765000105
1580.0	0.000222	163.812000036
1580.0	0.0002206	163.858999968
1580.0	0.0002196	163.890000105
1580.0	0.0002188	163.937000036
1580.0	0.0002183	163.969000101
1580.0	0.0002181	164.015000105
1580.0	0.0002177	164.062000036
1580.0	0.0002178	164.094000101
1580.0	0.0002178	164.140000105
1580.0	0.0002181	164.187000036
1580.0	0.0002178	164.219000101
1580.0	0.0002177	164.265000105
1580.0	0.0002176	164.29700017
1580.0	0.0002175	164.344000101
1580.0	0.0002175	164.390000105
1580.0	0.0002177	164.42200017
1580.0	0.0002178	164.469000101
1580.0	0.0002178	164.515000105
1580.0	0.0002177	164.54700017
1580.0	0.0002177	164.594000101
1580.0	0.0002177	164.640000105
1580.0	0.0002178	164.67200017
1580.0	0.0002178	164.719000101
1580.0	0.0002181	164.75
1580.0	0.0002181	164.79700017
1580.0	0.0002183	164.844000101
1580.0	0.0002188	164.875
1580.0	0.0002191	164.92200017
1580.0	0.000219	164.969000101
1580.0	0.0002187	165.0
1580.0	0.0002182	165.04700017
1580.0	0.0002178	165.078000069
1580.0	0.0002178	165.125
1580.0	0.0002182	165.17200017
1580.0	0.0002187	165.203000069
1590.0	0.0002122	165.483999968
1590.0	0.0002106	165.531000137
1590.0	0.0002093	165.562000036
1590.0	0.0002081	165.608999968
1590.0	0.0002072	165.640000105
1590.0	0.0002066	165.687000036
1590.0	0.0002062	165.733999968
1590.0	0.0002058	165.765000105
1590.0	0.0002056	165.812000036
1590.0	0.0002051	165.858999968
1590.0	0.0002046	165.890000105
1590.0	0.0002043	165.937000036
1590.0	0.0002037	165.969000101
1590.0	0.0002033	166.015000105
1590.0	0.0002031	166.062000036
1590.0	0.0002027	166.094000101
1590.0	0.0002027	166.140000105
1590.0	0.0002027	166.187000036
1590.0	0.0002028	166.219000101
1590.0	0.0002032	166.265000105
1590.0	0.0002033	166.29700017
1590.0	0.0002037	166.344000101
1590.0	0.0002035	166.390000105
1590.0	0.0002037	166.42200017
1590.0	0.0002037	166.469000101
1590.0	0.0002035	166.515000105
1590.0	0.0002035	166.54700017
1590.0	0.000204	166.594000101
1590.0	0.0002041	166.640000105
1590.0	0.0002038	166.67200017
1590.0	0.0002035	166.719000101
1590.0	0.0002033	166.75
1590.0	0.0002037	166.79700017
1590.0	0.0002041	166.844000101
1590.0	0.0002045	166.875
1590.0	0.0002045	166.92200017
1590.0	0.000204	166.953000069
1600.0	0.0001975	167.233999968
1600.0	0.000195	167.281000137
1600.0	0.0001931	167.328000069
1600.0	0.0001918	167.358999968
1600.0	0.0001908	167.406000137
1600.0	0.0001897	167.453000069
1600.0	0.0001891	167.483999968
1600.0	0.0001885	167.531000137
1600.0	0.0001882	167.562000036
1600.0	0.0001881	167.608999968
1600.0	0.0001877	167.656000137
1600.0	0.0001876	167.687000036
1600.0	0.0001876	167.733999968
1600.0	0.0001877	167.781000137
1600.0	0.0001877	167.812000036
1600.0	0.0001877	167.858999968
1600.0	0.0001877	167.890000105
1600.0	0.0001878	167.937000036
1600.0	0.0001878	167.983999968
1600.0	0.0001877	168.015000105
1600.0	0.0001878	168.062000036
1600.0	0.0001877	168.108999968
1600.0	0.0001876	168.140000105
1600.0	0.0001875	168.187000036
1600.0	0.0001875	168.233999968
1600.0	0.0001878	168.265000105
1600.0	0.0001878	168.312000036
1600.0	0.0001878	168.344000101
1600.0	0.0001882	168.390000105
1600.0	0.0001885	168.437000036
1600.0	0.000189	168.483999968
1600.0	0.0001893	168.515000105
1600.0	0.0001893	168.562000036
1600.0	0.0001891	168.594000101
1600.0	0.000189	168.640000105
1600.0	0.0001893	168.687000036
1600.0	0.0001895	168.719000101
1610.0	0.0001827	169.0
1610.0	0.0001807	169.04700017
1610.0	0.0001791	169.078000069
1610.0	0.0001777	169.125
1610.0	0.0001765	169.156000137
1610.0	0.0001752	169.203000069
1610.0	0.0001743	169.25
1610.0	0.0001738	169.281000137
1610.0	0.0001737	169.328000069
1610.0	0.0001737	169.375
1610.0	0.0001737	169.406000137
1610.0	0.000174	169.453000069
1610.0	0.000174	169.483999968
1610.0	0.0001738	169.531000137
1610.0	0.0001738	169.578000069
1610.0	0.0001743	169.608999968
1610.0	0.0001741	169.656000137
1610.0	0.000174	169.703000069
1610.0	0.0001738	169.733999968
1610.0	0.0001737	169.781000137
1610.0	0.0001735	169.812000036
1610.0	0.0001731	169.858999968
1610.0	0.0001727	169.906000137
1610.0	0.0001725	169.937000036
1610.0	0.0001726	169.983999968
1610.0	0.0001728	170.031000137
1610.0	0.0001733	170.062000036
1610.0	0.0001735	170.108999968
1610.0	0.0001737	170.156000137
1610.0	0.0001735	170.187000036
1610.0	0.0001733	170.233999968
1610.0	0.0001733	170.281000137
1610.0	0.0001735	170.312000036
1610.0	0.0001733	170.358999968
1610.0	0.0001732	170.406000137
1610.0	0.0001731	170.437000036
1610.0	0.0001731	170.483999968
1620.0	0.0001672	170.765000105
1620.0	0.0001646	170.79700017
1620.0	0.0001631	170.844000101
1620.0	0.0001613	170.890000105
1620.0	0.0001597	170.92200017
1620.0	0.000159	170.969000101
1620.0	0.0001583	171.015000105
1620.0	0.0001578	171.04700017
1620.0	0.0001577	171.094000101
1620.0	0.0001575	171.125
1620.0	0.000157	171.17200017
1620.0	0.0001565	171.219000101
1620.0	0.000156	171.25
1620.0	0.0001558	171.29700017
1620.0	0.000156	171.328000069
1620.0	0.0001565	171.375
1620.0	0.000157	171.42200017
1620.0	0.0001568	171.453000069
1620.0	0.0001565	171.5
1620.0	0.0001563	171.54700017
1620.0	0.000156	171.594000101
1620.0	0.0001558	171.625
1620.0	0.0001558	171.67200017
1620.0	0.0001556	171.703000069
1620.0	0.0001553	171.75
1620.0	0.0001553	171.79700017
1620.0	0.0001551	171.828000069
1620.0	0.0001552	171.875
1620.0	0.0001553	171.92200017
1620.0	0.0001556	171.953000069
1620.0	0.000156	172.0
1620.0	0.0001565	172.031000137
1620.0	0.0001566	172.078000069
1620.0	0.0001566	172.125
1620.0	0.0001566	172.156000137
1620.0	0.0001568	172.203000069
1620.0	0.0001571	172.25
1630.0	0.00015	172.531000137
1630.0	0.0001481	172.562000036
1630.0	0.0001465	172.608999968
1630.0	0.0001453	172.656000137
1630.0	0.0001443	172.687000036
1630.0	0.0001433	172.733999968
1630.0	0.0001431	172.765000105
1630.0	0.0001425	172.812000036
1630.0	0.000142	172.858999968
1630.0	0.0001415	172.890000105
1630.0	0.0001416	172.937000036
1630.0	0.0001418	172.983999968
1630.0	0.0001418	173.015000105
1630.0	0.0001416	173.062000036
1630.0	0.0001416	173.108999968
1630.0	0.0001415	173.140000105
1630.0	0.0001416	173.187000036
1630.0	0.0001416	173.219000101
1630.0	0.0001416	173.265000105
1630.0	0.0001415	173.312000036
1630.0	0.0001415	173.344000101
1630.0	0.0001412	173.390000105
1630.0	0.000141	173.437000036
1630.0	0.0001407	173.469000101
1630.0	0.0001403	173.515000105
1630.0	0.0001403	173.54700017
1630.0	0.0001403	173.594000101
1630.0	0.0001402	173.640000105
1630.0	0.0001403	173.67200017
1630.0	0.0001403	173.719000101
1630.0	0.0001402	173.765000105
1630.0	0.0001403	173.79700017
1630.0	0.0001407	173.844000101
1630.0	0.000141	173.890000105
1630.0	0.0001413	173.92200017
1630.0	0.0001416	173.969000101
1630.0	0.000142	174.0
1640.0	0.0001352	174.281000137
1640.0	0.0001333	174.328000069
1640.0	0.0001318	174.375
1640.0	0.0001306	174.406000137
1640.0	0.0001296	174.453000069
1640.0	0.000129	174.5
1640.0	0.0001278	174.531000137
1640.0	0.0001271	174.578000069
1640.0	0.0001268	174.608999968
1640.0	0.0001268	174.656000137
1640.0	0.0001265	174.703000069
1640.0	0.0001258	174.733999968
1640.0	0.0001251	174.781000137
1640.0	0.0001245	174.828000069
1640.0	0.000124	174.858999968
1640.0	0.000124	174.906000137
1640.0	0.0001241	174.953000069
1640.0	0.0001245	174.983999968
1640.0	0.000125	175.031000137
1640.0	0.0001251	175.062000036
1640.0	0.0001252	175.108999968
1640.0	0.0001256	175.156000137
1640.0	0.0001256	175.187000036
1640.0	0.0001256	175.233999968
1640.0	0.0001253	175.281000137
1640.0	0.0001252	175.312000036
1640.0	0.000125	175.358999968
1640.0	0.0001246	175.390000105
1640.0	0.0001243	175.437000036
1640.0	0.0001241	175.483999968
1640.0	0.0001243	175.515000105
1640.0	0.0001247	175.562000036
1640.0	0.0001252	175.608999968
1640.0	0.0001256	175.640000105
1640.0	0.0001258	175.687000036
1640.0	0.000126	175.719000101
1640.0	0.000126	175.765000105
1650.0	0.000119	176.04700017
1650.0	0.0001171	176.094000101
1650.0	0.0001156	176.140000105
1650.0	0.000115	176.17200017
1650.0	0.0001141	176.219000101
1650.0	0.0001138	176.25
1650.0	0.0001135	176.29700017
1650.0	0.0001127	176.344000101
1650.0	0.0001126	176.375
1650.0	0.0001125	176.42200017
1650.0	0.0001125	176.469000101
1650.0	0.0001125	176.5
1650.0	0.0001125	176.54700017
1650.0	0.0001127	176.578000069
1650.0	0.0001128	176.625
1650.0	0.0001127	176.67200017
1650.0	0.0001127	176.703000069
1650.0	0.0001125	176.75
1650.0	0.0001121	176.79700017
1650.0	0.0001118	176.828000069
1650.0	0.0001115	176.875
1650.0	0.0001115	176.906000137
1650.0	0.0001116	176.953000069
1650.0	0.000112	177.0
1650.0	0.000112	177.031000137
1650.0	0.000112	177.078000069
1650.0	0.000112	177.125
1650.0	0.0001121	177.156000137
1650.0	0.0001125	177.203000069
1650.0	0.0001128	177.233999968
1650.0	0.0001132	177.281000137
1650.0	0.0001128	177.328000069
1650.0	0.0001125	177.358999968
1650.0	0.0001122	177.406000137
1650.0	0.000112	177.453000069
1650.0	0.0001116	177.483999968
1650.0	0.0001113	177.531000137
1660.0	0.0001068	177.812000036
1660.0	0.0001051	177.858999968
1660.0	0.0001037	177.890000105
1660.0	0.0001022	177.937000036
1660.0	0.0001013	177.983999968
1660.0	0.0001006	178.015000105
1660.0	0.0001001	178.062000036
1660.0	9.97e-05	178.094000101
1660.0	9.96e-05	178.140000105
1660.0	9.95e-05	178.17200017
1660.0	9.93e-05	178.203000069
1660.0	9.96e-05	178.25
1660.0	9.96e-05	178.281000137
1660.0	9.96e-05	178.312000036
1660.0	9.96e-05	178.358999968
1660.0	9.95e-05	178.390000105
1660.0	9.91e-05	178.42200017
1660.0	9.87e-05	178.469000101
1660.0	9.85e-05	178.5
1660.0	9.87e-05	178.54700017
1660.0	9.87e-05	178.578000069
1660.0	9.87e-05	178.608999968
1660.0	9.87e-05	178.656000137
1660.0	9.9e-05	178.687000036
1660.0	9.9e-05	178.719000101
1660.0	9.88e-05	178.765000105
1660.0	9.83e-05	178.79700017
1660.0	9.83e-05	178.828000069
1660.0	9.87e-05	178.875
1660.0	9.87e-05	178.906000137
1660.0	9.88e-05	178.953000069
1660.0	9.93e-05	178.983999968
1660.0	9.93e-05	179.015000105
1660.0	9.95e-05	179.062000036
1660.0	9.97e-05	179.094000101
1660.0	9.97e-05	179.125
1660.0	0.0001	179.17200017
1660.0	0.0001	179.219000101
1660.0	9.97e-05	179.25
1660.0	0.0001	179.29700017
1670.0	9.51e-05	179.578000069
1670.0	9.4e-05	179.608999968
1670.0	9.32e-05	179.640000105
1670.0	9.21e-05	179.687000036
1670.0	9.13e-05	179.719000101
1670.0	9.06e-05	179.765000105
1670.0	9e-05	179.79700017
1670.0	8.95e-05	179.828000069
1670.0	8.93e-05	179.875
1670.0	8.91e-05	179.906000137
1670.0	8.88e-05	179.937000036
1670.0	8.87e-05	179.983999968
1670.0	8.85e-05	180.015000105
1670.0	8.83e-05	180.062000036
1670.0	8.87e-05	180.094000101
1670.0	8.91e-05	180.125
1670.0	8.9e-05	180.17200017
1670.0	8.87e-05	180.203000069
1670.0	8.85e-05	180.233999968
1670.0	8.85e-05	180.281000137
1670.0	8.87e-05	180.312000036
1670.0	8.87e-05	180.344000101
1670.0	8.87e-05	180.390000105
1670.0	8.88e-05	180.42200017
1670.0	8.87e-05	180.469000101
1670.0	8.87e-05	180.5
1670.0	8.87e-05	180.531000137
1670.0	8.88e-05	180.578000069
1670.0	8.9e-05	180.608999968
1670.0	8.9e-05	180.640000105
1670.0	8.88e-05	180.687000036
1670.0	8.83e-05	180.719000101
1670.0	8.81e-05	180.765000105
1670.0	8.81e-05	180.79700017
1670.0	8.82e-05	180.828000069
1670.0	8.78e-05	180.875
1670.0	8.77e-05	180.906000137
1670.0	8.77e-05	180.937000036
1670.0	8.77e-05	180.983999968
1670.0	8.81e-05	181.015000105
1670.0	8.81e-05	181.04700017
1680.0	8.51e-05	181.328000069
1680.0	8.35e-05	181.375
1680.0	8.2e-05	181.406000137
1680.0	8.12e-05	181.437000036
1680.0	8.07e-05	181.483999968
1680.0	8.03e-05	181.515000105
1680.0	8.01e-05	181.54700017
1680.0	7.97e-05	181.594000101
1680.0	7.96e-05	181.625
1680.0	7.97e-05	181.67200017
1680.0	7.97e-05	181.703000069
1680.0	7.96e-05	181.733999968
1680.0	7.96e-05	181.781000137
1680.0	7.96e-05	181.812000036
1680.0	7.95e-05	181.844000101
1680.0	7.95e-05	181.890000105
1680.0	7.95e-05	181.92200017
1680.0	7.93e-05	181.953000069
1680.0	7.91e-05	182.0
1680.0	7.95e-05	182.031000137
1680.0	7.96e-05	182.078000069
1680.0	8e-05	182.108999968
1680.0	8.01e-05	182.140000105
1680.0	8.01e-05	182.187000036
1680.0	8.03e-05	182.219000101
1680.0	8.02e-05	182.25
1680.0	8e-05	182.29700017
1680.0	7.96e-05	182.328000069
1680.0	7.93e-05	182.375
1680.0	7.9e-05	182.406000137
1680.0	7.9e-05	182.437000036
1680.0	7.93e-05	182.483999968
1680.0	7.95e-05	182.515000105
1680.0	7.95e-05	182.54700017
1680.0	7.95e-05	182.594000101
1680.0	7.93e-05	182.625
1680.0	7.93e-05	182.656000137
1680.0	7.9e-05	182.703000069
1680.0	7.88e-05	182.733999968
1680.0	7.88e-05	182.781000137
1680.0	7.91e-05	182.812000036
1690.0	7.5e-05	183.094000101
1690.0	7.4e-05	183.125
1690.0	7.32e-05	183.17200017
1690.0	7.25e-05	183.203000069
1690.0	7.18e-05	183.233999968
1690.0	7.12e-05	183.281000137
1690.0	7.08e-05	183.312000036
1690.0	7.07e-05	183.358999968
1690.0	7.07e-05	183.390000105
1690.0	7.08e-05	183.42200017
1690.0	7.1e-05	183.469000101
1690.0	7.12e-05	183.5
1690.0	7.12e-05	183.531000137
1690.0	7.1e-05	183.578000069
1690.0	7.1e-05	183.608999968
1690.0	7.07e-05	183.656000137
1690.0	7.03e-05	183.687000036
1690.0	7.01e-05	183.719000101
1690.0	7.01e-05	183.765000105
1690.0	7e-05	183.79700017
1690.0	7.01e-05	183.828000069
1690.0	7.02e-05	183.875
1690.0	7.01e-05	183.906000137
1690.0	7.02e-05	183.937000036
1690.0	7.01e-05	183.983999968
1690.0	6.97e-05	184.015000105
1690.0	6.97e-05	184.062000036
1690.0	7e-05	184.094000101
1690.0	7.01e-05	184.125
1690.0	7.02e-05	184.17200017
1690.0	7.07e-05	184.203000069
1690.0	7.07e-05	184.233999968
1690.0	7.07e-05	184.281000137
1690.0	7.07e-05	184.312000036
1690.0	7.07e-05	184.344000101
1690.0	7.08e-05	184.390000105
1690.0	7.1e-05	184.42200017
1690.0	7.12e-05	184.469000101
1690.0	7.13e-05	184.5
1690.0	7.13e-05	184.531000137
1690.0	7.16e-05	184.578000069
1700.0	6.83e-05	184.858999968
1700.0	6.75e-05	184.890000105
1700.0	6.63e-05	184.92200017
1700.0	6.53e-05	184.969000101
1700.0	6.47e-05	185.0
1700.0	6.43e-05	185.031000137
1700.0	6.41e-05	185.078000069
1700.0	6.41e-05	185.108999968
1700.0	6.41e-05	185.140000105
1700.0	6.43e-05	185.187000036
1700.0	6.43e-05	185.219000101
1700.0	6.43e-05	185.265000105
1700.0	6.43e-05	185.29700017
1700.0	6.38e-05	185.328000069
1700.0	6.37e-05	185.375
1700.0	6.35e-05	185.406000137
1700.0	6.31e-05	185.437000036
1700.0	6.27e-05	185.483999968
1700.0	6.27e-05	185.515000105
1700.0	6.28e-05	185.562000036
1700.0	6.28e-05	185.594000101
1700.0	6.27e-05	185.625
1700.0	6.26e-05	185.67200017
1700.0	6.26e-05	185.703000069
1700.0	6.28e-05	185.733999968
1700.0	6.32e-05	185.781000137
1700.0	6.38e-05	185.812000036
1700.0	6.4e-05	185.844000101
1700.0	6.4e-05	185.890000105
1700.0	6.35e-05	185.92200017
1700.0	6.35e-05	185.969000101
1700.0	6.33e-05	186.0
1700.0	6.32e-05	186.04700017
1700.0	6.32e-05	186.078000069
1700.0	6.32e-05	186.108999968
1700.0	6.31e-05	186.156000137
1700.0	6.32e-05	186.187000036
1700.0	6.32e-05	186.219000101
1700.0	6.31e-05	186.265000105
1700.0	6.32e-05	186.29700017
1700.0	6.33e-05	186.328000069
1710.0	6.07e-05	186.608999968
1710.0	6e-05	186.656000137
1710.0	5.93e-05	186.687000036
1710.0	5.87e-05	186.719000101
1710.0	5.83e-05	186.765000105
1710.0	5.81e-05	186.79700017
1710.0	5.76e-05	186.844000101
1710.0	5.72e-05	186.875
1710.0	5.7e-05	186.906000137
1710.0	5.71e-05	186.953000069
1710.0	5.72e-05	186.983999968
1710.0	5.72e-05	187.015000105
1710.0	5.71e-05	187.062000036
1710.0	5.71e-05	187.094000101
1710.0	5.7e-05	187.125
1710.0	5.7e-05	187.17200017
1710.0	5.68e-05	187.203000069
1710.0	5.68e-05	187.25
1710.0	5.66e-05	187.281000137
1710.0	5.7e-05	187.312000036
1710.0	5.7e-05	187.358999968
1710.0	5.72e-05	187.390000105
1710.0	5.72e-05	187.437000036
1710.0	5.7e-05	187.469000101
1710.0	5.68e-05	187.5
1710.0	5.7e-05	187.54700017
1710.0	5.68e-05	187.578000069
1710.0	5.65e-05	187.608999968
1710.0	5.65e-05	187.656000137
1710.0	5.62e-05	187.687000036
1710.0	5.62e-05	187.733999968
1710.0	5.62e-05	187.765000105
1710.0	5.63e-05	187.79700017
1710.0	5.66e-05	187.844000101
1710.0	5.7e-05	187.875
1710.0	5.71e-05	187.92200017
1710.0	5.71e-05	187.953000069
1710.0	5.72e-05	187.983999968
1710.0	5.75e-05	188.031000137
1710.0	5.76e-05	188.062000036
1710.0	5.76e-05	188.108999968
1720.0	5.58e-05	188.375
1720.0	5.52e-05	188.42200017
1720.0	5.47e-05	188.453000069
1720.0	5.45e-05	188.483999968
1720.0	5.4e-05	188.531000137
1720.0	5.35e-05	188.562000036
1720.0	5.32e-05	188.608999968
1720.0	5.31e-05	188.640000105
1720.0	5.28e-05	188.67200017
1720.0	5.27e-05	188.719000101
1720.0	5.26e-05	188.75
1720.0	5.25e-05	188.781000137
1720.0	5.22e-05	188.828000069
1720.0	5.18e-05	188.858999968
1720.0	5.13e-05	188.890000105
1720.0	5.1e-05	188.937000036
1720.0	5.12e-05	188.969000101
1720.0	5.13e-05	189.015000105
1720.0	5.15e-05	189.04700017
1720.0	5.16e-05	189.078000069
1720.0	5.16e-05	189.125
1720.0	5.15e-05	189.156000137
1720.0	5.15e-05	189.187000036
1720.0	5.13e-05	189.233999968
1720.0	5.12e-05	189.265000105
1720.0	5.13e-05	189.312000036
1720.0	5.13e-05	189.344000101
1720.0	5.13e-05	189.375
1720.0	5.15e-05	189.42200017
1720.0	5.16e-05	189.453000069
1720.0	5.18e-05	189.483999968
1720.0	5.18e-05	189.531000137
1720.0	5.2e-05	189.562000036
1720.0	5.18e-05	189.608999968
1720.0	5.15e-05	189.640000105
1720.0	5.12e-05	189.67200017
1720.0	5.1e-05	189.719000101
1720.0	5.1e-05	189.75
1720.0	5.12e-05	189.79700017
1720.0	5.12e-05	189.828000069
1720.0	5.12e-05	189.858999968
1730.0	5.08e-05	190.140000105
1730.0	5e-05	190.187000036
1730.0	4.93e-05	190.219000101
1730.0	4.88e-05	190.265000105
1730.0	4.81e-05	190.29700017
1730.0	4.76e-05	190.328000069
1730.0	4.75e-05	190.375
1730.0	4.75e-05	190.406000137
1730.0	4.76e-05	190.437000036
1730.0	4.76e-05	190.483999968
1730.0	4.77e-05	190.515000105
1730.0	4.76e-05	190.54700017
1730.0	4.77e-05	190.594000101
1730.0	4.77e-05	190.625
1730.0	4.78e-05	190.656000137
1730.0	4.81e-05	190.703000069
1730.0	4.81e-05	190.733999968
1730.0	4.78e-05	190.781000137
1730.0	4.76e-05	190.812000036
1730.0	4.72e-05	190.844000101
1730.0	4.71e-05	190.890000105
1730.0	4.7e-05	190.92200017
1730.0	4.68e-05	190.953000069
1730.0	4.66e-05	191.0
1730.0	4.66e-05	191.031000137
1730.0	4.68e-05	191.078000069
1730.0	4.72e-05	191.108999968
1730.0	4.76e-05	191.140000105
1730.0	4.77e-05	191.187000036
1730.0	4.77e-05	191.219000101
1730.0	4.75e-05	191.25
1730.0	4.75e-05	191.29700017
1730.0	4.71e-05	191.328000069
1730.0	4.7e-05	191.375
1730.0	4.68e-05	191.406000137
1730.0	4.66e-05	191.437000036
1730.0	4.66e-05	191.483999968
1730.0	4.7e-05	191.515000105
1730.0	4.71e-05	191.562000036
1730.0	4.75e-05	191.594000101
1730.0	4.77e-05	191.640000105
1740.0	4.7e-05	191.906000137
1740.0	4.62e-05	191.953000069
1740.0	4.52e-05	191.983999968
1740.0	4.45e-05	192.031000137
1740.0	4.41e-05	192.062000036
1740.0	4.37e-05	192.094000101
1740.0	4.31e-05	192.140000105
1740.0	4.27e-05	192.17200017
1740.0	4.26e-05	192.203000069
1740.0	4.26e-05	192.25
1740.0	4.31e-05	192.281000137
1740.0	4.35e-05	192.312000036
1740.0	4.38e-05	192.358999968
1740.0	4.41e-05	192.390000105
1740.0	4.43e-05	192.437000036
1740.0	4.45e-05	192.469000101
1740.0	4.46e-05	192.5
1740.0	4.47e-05	192.54700017
1740.0	4.47e-05	192.578000069
1740.0	4.46e-05	192.608999968
1740.0	4.45e-05	192.656000137
1740.0	4.43e-05	192.687000036
1740.0	4.41e-05	192.719000101
1740.0	4.4e-05	192.765000105
1740.0	4.41e-05	192.79700017
1740.0	4.41e-05	192.844000101
1740.0	4.41e-05	192.875
1740.0	4.41e-05	192.906000137
1740.0	4.43e-05	192.953000069
1740.0	4.45e-05	192.983999968
1740.0	4.46e-05	193.031000137
1740.0	4.47e-05	193.062000036
1740.0	4.47e-05	193.094000101
1740.0	4.45e-05	193.140000105
1740.0	4.41e-05	193.17200017
1740.0	4.43e-05	193.219000101
1740.0	4.43e-05	193.25
1740.0	4.45e-05	193.281000137
1740.0	4.43e-05	193.328000069
1740.0	4.38e-05	193.358999968
1740.0	4.38e-05	193.406000137
1750.0	4.02e-05	193.687000036
1750.0	4e-05	193.719000101
1750.0	3.96e-05	193.765000105
1750.0	3.93e-05	193.79700017
1750.0	3.91e-05	193.828000069
1750.0	3.9e-05	193.875
1750.0	3.91e-05	193.906000137
1750.0	3.96e-05	193.937000036
1750.0	4e-05	193.983999968
1750.0	4.01e-05	194.015000105
1750.0	4.02e-05	194.04700017
1750.0	4.02e-05	194.094000101
1750.0	4.01e-05	194.125
1750.0	4e-05	194.156000137
1750.0	3.97e-05	194.203000069
1750.0	3.97e-05	194.233999968
1750.0	3.96e-05	194.281000137
1750.0	4e-05	194.312000036
1750.0	4.03e-05	194.358999968
1750.0	4.1e-05	194.390000105
1750.0	4.15e-05	194.437000036
1750.0	4.13e-05	194.469000101
1750.0	4.12e-05	194.5
1750.0	4.08e-05	194.54700017
1750.0	4.06e-05	194.578000069
1750.0	4.03e-05	194.608999968
1750.0	4.02e-05	194.656000137
1750.0	3.97e-05	194.687000036
1750.0	3.96e-05	194.719000101
1750.0	3.97e-05	194.765000105
1750.0	4e-05	194.79700017
1750.0	3.96e-05	194.844000101
1750.0	4e-05	194.875
1750.0	4.01e-05	194.906000137
1750.0	4.01e-05	194.953000069
1750.0	4.01e-05	194.983999968
1750.0	4e-05	195.015000105
1750.0	4e-05	195.062000036
1750.0	3.97e-05	195.094000101
1750.0	3.96e-05	195.140000105
1760.0	3.78e-05	195.406000137
1760.0	3.81e-05	195.453000069
1760.0	3.78e-05	195.483999968
1760.0	3.77e-05	195.515000105
1760.0	3.77e-05	195.562000036
1760.0	3.76e-05	195.594000101
1760.0	3.72e-05	195.640000105
1760.0	3.68e-05	195.67200017
1760.0	3.68e-05	195.703000069
1760.0	3.66e-05	195.75
1760.0	3.66e-05	195.781000137
1760.0	3.68e-05	195.812000036
1760.0	3.68e-05	195.858999968
1760.0	3.71e-05	195.890000105
1760.0	3.75e-05	195.937000036
1760.0	3.76e-05	195.969000101
1760.0	3.76e-05	196.0
1760.0	3.71e-05	196.04700017
1760.0	3.66e-05	196.078000069
1760.0	3.63e-05	196.108999968
1760.0	3.62e-05	196.156000137
1760.0	3.62e-05	196.187000036
1760.0	3.63e-05	196.219000101
1760.0	3.65e-05	196.265000105
1760.0	3.66e-05	196.29700017
1760.0	3.7e-05	196.344000101
1760.0	3.66e-05	196.375
1760.0	3.62e-05	196.42200017
1760.0	3.6e-05	196.453000069
1760.0	3.57e-05	196.483999968
1760.0	3.57e-05	196.531000137
1760.0	3.6e-05	196.562000036
1760.0	3.65e-05	196.608999968
1760.0	3.68e-05	196.640000105
1760.0	3.71e-05	196.67200017
1760.0	3.72e-05	196.719000101
1760.0	3.75e-05	196.75
1760.0	3.72e-05	196.79700017
1760.0	3.68e-05	196.828000069
1760.0	3.63e-05	196.858999968
1760.0	3.6e-05	196.906000137
1770.0	3.58e-05	197.187000036
1770.0	3.5e-05	197.219000101
1770.0	3.43e-05	197.25
1770.0	3.4e-05	197.29700017
1770.0	3.4e-05	197.328000069
1770.0	3.4e-05	197.358999968
1770.0	3.38e-05	197.406000137
1770.0	3.33e-05	197.437000036
1770.0	3.31e-05	197.483999968
1770.0	3.27e-05	197.515000105
1770.0	3.25e-05	197.562000036
1770.0	3.22e-05	197.594000101
1770.0	3.22e-05	197.625
1770.0	3.22e-05	197.67200017
1770.0	3.27e-05	197.703000069
1770.0	3.27e-05	197.75
1770.0	3.26e-05	197.781000137
1770.0	3.27e-05	197.812000036
1770.0	3.28e-05	197.858999968
1770.0	3.28e-05	197.890000105
1770.0	3.32e-05	197.937000036
1770.0	3.33e-05	197.969000101
1770.0	3.33e-05	198.0
1770.0	3.35e-05	198.04700017
1770.0	3.35e-05	198.078000069
1770.0	3.37e-05	198.108999968
1770.0	3.37e-05	198.156000137
1770.0	3.38e-05	198.187000036
1770.0	3.38e-05	198.219000101
1770.0	3.41e-05	198.265000105
1770.0	3.4e-05	198.29700017
1770.0	3.37e-05	198.344000101
1770.0	3.35e-05	198.375
1770.0	3.35e-05	198.406000137
1770.0	3.35e-05	198.453000069
1770.0	3.32e-05	198.483999968
1770.0	3.28e-05	198.515000105
1770.0	3.26e-05	198.562000036
1770.0	3.25e-05	198.594000101
1770.0	3.22e-05	198.625
1770.0	3.22e-05	198.67200017
1780.0	3.22e-05	198.953000069
1780.0	3.16e-05	198.983999968
1780.0	3.12e-05	199.015000105
1780.0	3.1e-05	199.062000036
1780.0	3.08e-05	199.094000101
1780.0	3.03e-05	199.140000105
1780.0	3.01e-05	199.17200017
1780.0	2.97e-05	199.203000069
1780.0	2.93e-05	199.25
1780.0	2.88e-05	199.281000137
1780.0	2.88e-05	199.312000036
1780.0	2.87e-05	199.358999968
1780.0	2.87e-05	199.390000105
1780.0	2.9e-05	199.437000036
1780.0	2.93e-05	199.469000101
1780.0	2.93e-05	199.5
1780.0	2.95e-05	199.54700017
1780.0	2.93e-05	199.578000069
1780.0	2.95e-05	199.608999968
1780.0	3e-05	199.656000137
1780.0	3.03e-05	199.687000036
1780.0	3.07e-05	199.733999968
1780.0	3.08e-05	199.765000105
1780.0	3.07e-05	199.79700017
1780.0	3.06e-05	199.844000101
1780.0	3.03e-05	199.875
1780.0	3.03e-05	199.906000137
1780.0	3.06e-05	199.953000069
1780.0	3.03e-05	199.983999968
1780.0	3.03e-05	200.031000137
1780.0	3.03e-05	200.062000036
1780.0	3.02e-05	200.094000101
1780.0	3.01e-05	200.140000105
1780.0	3.01e-05	200.17200017
1780.0	3e-05	200.219000101
1780.0	3e-05	200.25
1780.0	3e-05	200.281000137
1780.0	2.96e-05	200.328000069
1780.0	2.96e-05	200.358999968
1780.0	2.97e-05	200.390000105
1790.0	2.75e-05	200.67200017
1790.0	2.71e-05	200.719000101
1790.0	2.71e-05	200.75
1790.0	2.72e-05	200.781000137
1790.0	2.75e-05	200.828000069
1790.0	2.76e-05	200.858999968
1790.0	2.75e-05	200.906000137
1790.0	2.71e-05	200.937000036
1790.0	2.7e-05	200.983999968
1790.0	2.66e-05	201.015000105
1790.0	2.66e-05	201.04700017
1790.0	2.68e-05	201.094000101
1790.0	2.72e-05	201.125
1790.0	2.75e-05	201.156000137
1790.0	2.75e-05	201.203000069
1790.0	2.71e-05	201.233999968
1790.0	2.71e-05	201.265000105
1790.0	2.71e-05	201.312000036
1790.0	2.71e-05	201.344000101
1790.0	2.7e-05	201.390000105
1790.0	2.65e-05	201.42200017
1790.0	2.65e-05	201.453000069
1790.0	2.65e-05	201.5
1790.0	2.63e-05	201.531000137
1790.0	2.65e-05	201.562000036
1790.0	2.63e-05	201.608999968
1790.0	2.63e-05	201.640000105
1790.0	2.58e-05	201.687000036
1790.0	2.56e-05	201.719000101
1790.0	2.57e-05	201.75
1790.0	2.62e-05	201.79700017
1790.0	2.66e-05	201.828000069
1790.0	2.72e-05	201.858999968
1790.0	2.72e-05	201.906000137
1790.0	2.72e-05	201.937000036
1790.0	2.72e-05	201.969000101
1790.0	2.71e-05	202.015000105
1790.0	2.71e-05	202.04700017
1790.0	2.68e-05	202.094000101
1790.0	2.65e-05	202.125
1790.0	2.63e-05	202.156000137
1800.0	2.65e-05	202.437000036
1800.0	2.57e-05	202.483999968
1800.0	2.51e-05	202.515000105
1800.0	2.47e-05	202.562000036
1800.0	2.46e-05	202.594000101
1800.0	2.47e-05	202.625
1800.0	2.5e-05	202.67200017
1800.0	2.46e-05	202.703000069
1800.0	2.46e-05	202.733999968
1800.0	2.46e-05	202.781000137
1800.0	2.47e-05	202.812000036
1800.0	2.43e-05	202.844000101
1800.0	2.41e-05	202.890000105
1800.0	2.4e-05	202.92200017
1800.0	2.37e-05	202.953000069
1800.0	2.38e-05	203.0
1800.0	2.38e-05	203.031000137
1800.0	2.37e-05	203.078000069
1800.0	2.37e-05	203.108999968
1800.0	2.37e-05	203.140000105
1800.0	2.4e-05	203.187000036
1800.0	2.41e-05	203.219000101
1800.0	2.38e-05	203.265000105
1800.0	2.35e-05	203.29700017
1800.0	2.33e-05	203.328000069
1800.0	2.35e-05	203.375
1800.0	2.35e-05	203.406000137
1800.0	2.35e-05	203.453000069
1800.0	2.35e-05	203.483999968
1800.0	2.37e-05	203.515000105
1800.0	2.35e-05	203.562000036
1800.0	2.33e-05	203.594000101
1800.0	2.33e-05	203.625
1800.0	2.32e-05	203.67200017
1800.0	2.32e-05	203.703000069
1800.0	2.32e-05	203.733999968
1800.0	2.35e-05	203.781000137
1800.0	2.37e-05	203.812000036
1800.0	2.41e-05	203.858999968
1800.0	2.47e-05	203.890000105
1800.0	2.5e-05	203.92200017
