Your comment line - do NOT delete this line
X-pos[m], Y-pos [m], Max voltage [V]
0.0092	-0.002	0.00516418
0.0091	-0.00225	0.00557283
0.0089	-0.0024999	0.00587037
0.00875	-0.0027499	0.00608018
0.0086	-0.0029999	0.00612405
0.00845	-0.0032499	0.00726989
0.0083	-0.0035	0.0082708
0.0082	-0.0037499	0.00695661
0.0081	-0.0039999	0.00404838
0.0081	-0.00425	0.00161982
0.0082	-0.0044999	0.000800613
0.0087	-0.0047499	0.00073624
0.009	-0.0049999	0.000725273
0.0094	-0.0052499	0.000672821
