Wavelength[nm], Lock-in voltage[mV], Raw data[0..1023 steps], Timetrace [sec]
1500 	38.0254154448	389	0.435608148575
1620 	28.054740958	287	0.988055229187
1740 	23.3626588465	239	1.54293823242
1860 	21.7008797654	222	2.10088014603
1980 	21.3098729228	218	2.66391515732
1500 	22.9716520039	235	3.58420920372
1505 	20.7233626588	212	4.00374221802
1510 	20.0391006843	205	4.42200422287
1515 	19.7458455523	202	4.84040522575
1520 	19.7458455523	202	5.25965213776
