Your edit line - do NOT delete this line
Wavelength [nm], Slit width [mm], Voltage [V], Elapsed time [s]
1000.0	0.1	8.720095754938473	2.121429681777954
1020.0	0.1	0.838929996612352	3.243309259414673
1040.0	0.1	3.464934638515935	4.349684238433838
1060.0	0.1	7.142143689000911	5.455602169036865
1080.0	0.1	5.88023416292371	6.564386606216431
1100.0	0.1	1.5134126312022567	7.67316460609436
1120.0	0.1	5.279009008638296	8.793288469314575
1140.0	0.1	1.278433436454961	9.922866344451904
1160.0	0.1	6.273658529611716	11.027270555496216
1180.0	0.1	2.7653849600273874	12.134077310562134
1200.0	0.1	5.987626150897203	13.240396976470947
1220.0	0.1	0.5797119612939428	14.361415147781372
1240.0	0.1	6.9865333950477595	15.48416519165039
1260.0	0.1	6.234333226532675	16.59052562713623
1280.0	0.1	2.811941997435979	17.70969820022583
1300.0	0.1	7.968594567596755	18.83889603614807
1320.0	0.1	8.447529628563249	19.96470594406128
1340.0	0.1	3.9171129047437994	21.07054042816162
1360.0	0.1	7.948360269977916	22.177124500274658
1380.0	0.1	7.519979040616755	23.283583641052246
1400.0	0.1	9.47669251895892	24.39004921913147
1420.0	0.1	5.637428778906786	25.508405208587646
1440.0	0.1	3.2207774421077673	26.621989727020264
